%OpenBCI Raw EEG Data
%Number of channels = 8
%Sample Rate = 250.0 Hz
%First Column = SampleIndex
%Last Column = Timestamp 
%Other Columns = EEG data in microvolts followed by Accel Data (in G) interleaved with Aux Data
0, 82735.59, 82716.30, 82819.65, -14152.52, -93750.01, 11871.99, -93750.01, -91475.45, -0.024, -0.016, 0.984, 15:29:17.183, 1578576557183
1, -147947.67, -113810.99, -168409.39, -168099.06, -129299.61, -121679.14, -168056.91, -168647.81, 0.000, 0.000, 0.000, 15:29:17.183, 1578576557183
2, 165459.86, 165421.30, 165627.94, -28321.09, -187500.02, 23740.41, -187500.02, -182946.73, 0.000, 0.000, 0.000, 15:29:17.183, 1578576557183
3, -148259.36, -114071.38, -168404.67, -168093.00, -129597.76, -121969.58, -168052.70, -168644.17, 0.000, 0.000, 0.000, 15:29:17.184, 1578576557184
4, 165446.41, 165407.75, 165614.34, -28379.83, -187500.02, 23738.00, -187500.02, -182941.47, 0.000, 0.000, 0.000, 15:29:17.184, 1578576557184
5, -148574.52, -114334.35, -168400.34, -168090.67, -129901.07, -122262.38, -168046.91, -168641.84, 0.000, 0.000, 0.000, 15:29:17.184, 1578576557184
6, 165434.13, 165395.55, 165602.13, -28394.69, -187500.02, 23719.02, -187500.02, -182931.88, -0.024, -0.022, 0.984, 15:29:17.184, 1578576557184
7, -148889.14, -114595.16, -168398.27, -168086.30, -130200.72, -122553.38, -168046.16, -168637.20, 0.000, 0.000, 0.000, 15:29:17.184, 1578576557184
8, 165420.77, 165382.16, 165588.75, -28383.99, -187500.02, 23715.89, -187500.02, -182924.08, 0.000, 0.000, 0.000, 15:29:17.184, 1578576557184
9, -149202.00, -114855.24, -168390.84, -168082.41, -130496.95, -122842.91, -168041.91, -168631.25, 0.000, 0.000, 0.000, 15:29:17.184, 1578576557184
10, 165406.86, 165368.28, 165574.83, -28432.67, -187500.02, 23706.53, -187500.02, -182915.06, 0.000, 0.000, 0.000, 15:29:17.184, 1578576557184
11, -149513.23, -115116.20, -168391.16, -168081.47, -130794.73, -123132.34, -168037.86, -168631.67, 0.000, 0.000, 0.000, 15:29:17.184, 1578576557184
12, 165394.77, 165356.19, 165562.81, -28440.89, -187500.02, 23714.44, -187500.02, -182907.22, 0.000, 0.000, 0.000, 15:29:17.184, 1578576557184
13, -149829.08, -115375.21, -168388.09, -168075.50, -131095.97, -123424.45, -168034.31, -168626.30, 0.000, 0.000, 0.000, 15:29:17.184, 1578576557184
14, 165382.30, 165343.72, 165550.38, -28444.22, -187500.02, 23702.04, -187500.02, -182898.73, 0.000, 0.000, 0.000, 15:29:17.184, 1578576557184
15, -150140.23, -115632.72, -168385.05, -168071.83, -131393.78, -123713.33, -168032.30, -168625.08, 0.000, 0.000, 0.000, 15:29:17.184, 1578576557184
16, 165371.14, 165332.58, 165539.20, -28431.73, -187500.02, 23714.96, -187500.02, -182888.66, -0.016, -0.018, 0.986, 15:29:17.184, 1578576557184
17, -150451.33, -115891.35, -168381.88, -168071.67, -131689.20, -123999.65, -168026.64, -168620.48, 0.000, 0.000, 0.000, 15:29:17.185, 1578576557185
18, 165352.34, 165313.66, 165520.30, -28407.26, -187500.02, 23733.55, -187500.02, -182883.31, 0.000, 0.000, 0.000, 15:29:17.185, 1578576557185
19, -150766.69, -116153.70, -168376.11, -168065.63, -131989.42, -124290.54, -168020.42, -168612.97, 0.000, 0.000, 0.000, 15:29:17.185, 1578576557185
20, 165342.05, 165303.33, 165509.91, -28440.74, -187500.02, 23706.46, -187500.02, -182875.11, 0.000, 0.000, 0.000, 15:29:17.185, 1578576557185
21, -151084.59, -116413.78, -168375.63, -168066.06, -132289.64, -124584.64, -168020.81, -168611.63, 0.000, 0.000, 0.000, 15:29:17.185, 1578576557185
22, 165329.17, 165290.66, 165497.09, -28400.51, -187500.02, 23723.40, -187500.02, -182868.58, 0.000, 0.000, 0.000, 15:29:17.185, 1578576557185
23, -151401.22, -116673.76, -168369.47, -168057.80, -132590.08, -124878.77, -168015.94, -168608.67, 0.000, 0.000, 0.000, 15:29:17.185, 1578576557185
24, 165312.94, 165274.41, 165480.86, -28397.76, -187500.02, 23724.88, -187500.02, -182862.34, 0.000, 0.000, 0.000, 15:29:17.185, 1578576557185
25, -151711.98, -116932.16, -168365.72, -168050.42, -132888.83, -125167.06, -168010.23, -168601.70, 0.000, 0.000, 0.000, 15:29:17.185, 1578576557185
26, 165299.03, 165260.50, 165467.03, -28391.12, -187500.02, 23716.52, -187500.02, -182854.56, -0.016, -0.012, 0.980, 15:29:17.185, 1578576557185
27, -152027.78, -117194.06, -168363.39, -168049.13, -133189.28, -125459.24, -168007.27, -168599.11, 0.000, 0.000, 0.000, 15:29:17.185, 1578576557185
28, 165284.48, 165245.95, 165452.30, -28384.05, -187500.02, 23729.08, -187500.02, -182847.81, 0.000, 0.000, 0.000, 15:29:17.185, 1578576557185
29, -152345.53, -117457.98, -168360.02, -168045.55, -133492.86, -125752.66, -168000.44, -168594.53, 0.000, 0.000, 0.000, 15:29:17.185, 1578576557185
30, 165271.41, 165232.77, 165439.19, -28374.38, -187500.02, 23733.19, -187500.02, -182841.06, 0.000, 0.000, 0.000, 15:29:17.185, 1578576557185
31, -152663.02, -117720.09, -168355.77, -168039.33, -133792.80, -126042.84, -168001.00, -168592.97, 0.000, 0.000, 0.000, 15:29:17.185, 1578576557185
32, 165261.47, 165222.95, 165429.30, -28347.96, -187500.02, 23739.70, -187500.02, -182831.31, 0.000, 0.000, 0.000, 15:29:17.185, 1578576557185
33, -152975.17, -117979.30, -168351.77, -168040.77, -134089.00, -126332.34, -167997.88, -168587.98, 0.000, 0.000, 0.000, 15:29:17.185, 1578576557185
34, 165247.36, 165208.83, 165415.20, -28349.97, -187500.02, 23746.09, -187500.02, -182827.45, 0.000, 0.000, 0.000, 15:29:17.185, 1578576557185
35, -153286.98, -118240.77, -168350.38, -168034.73, -134386.64, -126623.08, -167996.91, -168588.00, 0.000, 0.000, 0.000, 15:29:17.186, 1578576557186
36, 165236.66, 165198.09, 165404.56, -28297.51, -187500.02, 23746.78, -187500.02, -182818.44, -0.034, -0.016, 0.970, 15:29:17.186, 1578576557186
37, -153606.25, -118505.16, -168345.06, -168029.80, -134689.73, -126919.77, -167989.88, -168580.67, 0.000, 0.000, 0.000, 15:29:17.186, 1578576557186
38, 165221.91, 165183.44, 165389.78, -28309.56, -187500.02, 23768.51, -187500.02, -182807.73, 0.000, 0.000, 0.000, 15:29:17.186, 1578576557186
39, -153919.00, -118766.03, -168341.98, -168027.11, -134986.03, -127212.53, -167988.38, -168580.14, 0.000, 0.000, 0.000, 15:29:17.186, 1578576557186
40, 165207.50, 165168.81, 165375.25, -28165.79, -187500.02, 23793.56, -187500.02, -182802.11, 0.000, 0.000, 0.000, 15:29:17.186, 1578576557186
41, -154231.08, -119023.75, -168338.56, -168023.63, -135284.67, -127503.13, -167982.09, -168575.13, 0.000, 0.000, 0.000, 15:29:17.186, 1578576557186
42, 165196.94, 165158.42, 165364.81, -28206.02, -187500.02, 23785.23, -187500.02, -182792.69, 0.000, 0.000, 0.000, 15:29:17.186, 1578576557186
43, -154545.41, -119283.50, -168335.05, -168020.89, -135582.02, -127792.98, -167978.58, -168572.09, 0.000, 0.000, 0.000, 15:29:17.186, 1578576557186
44, 165181.84, 165143.27, 165349.59, -28240.42, -187500.02, 23772.89, -187500.02, -182788.47, 0.000, 0.000, 0.000, 15:29:17.186, 1578576557186
45, -154864.25, -119548.75, -168330.25, -168016.25, -135882.44, -128085.55, -167977.02, -168568.38, -0.028, -0.020, 0.976, 15:29:17.186, 1578576557186
46, 165168.30, 165129.77, 165336.11, -28288.01, -187500.02, 23759.48, -187500.02, -182781.27, 0.000, 0.000, 0.000, 15:29:17.186, 1578576557186
47, -155181.16, -119810.38, -168328.03, -168009.42, -136179.67, -128377.13, -167970.45, -168565.56, 0.000, 0.000, 0.000, 15:29:17.186, 1578576557186
48, 165154.80, 165116.17, 165322.53, -28230.72, -187500.02, 23768.08, -187500.02, -182775.02, 0.000, 0.000, 0.000, 15:29:17.186, 1578576557186
49, -155494.05, -120069.21, -168323.89, -168007.39, -136475.66, -128666.59, -167964.81, -168560.09, 0.000, 0.000, 0.000, 15:29:17.187, 1578576557187
50, 165138.30, 165099.67, 165305.98, -28252.63, -187500.02, 23749.73, -187500.02, -182767.89, 0.000, 0.000, 0.000, 15:29:17.187, 1578576557187
51, -155806.45, -120327.17, -168322.36, -168007.08, -136771.75, -128955.26, -167964.30, -168558.41, 0.000, 0.000, 0.000, 15:29:17.187, 1578576557187
52, 165129.27, 165090.73, 165297.02, -28239.86, -187500.02, 23753.51, -187500.02, -182759.69, 0.000, 0.000, 0.000, 15:29:17.187, 1578576557187
53, -156122.61, -120586.18, -168320.47, -168005.78, -137068.06, -129245.63, -167962.58, -168555.55, 0.000, 0.000, 0.000, 15:29:17.187, 1578576557187
54, 165115.13, 165076.45, 165282.81, -28316.60, -187500.02, 23730.20, -187500.02, -182752.59, 0.000, 0.000, 0.000, 15:29:17.187, 1578576557187
55, -156441.69, -120847.14, -168315.84, -167999.61, -137367.45, -129534.57, -167958.41, -168549.81, -0.022, -0.014, 0.976, 15:29:17.189, 1578576557189
56, 165101.09, 165062.44, 165268.75, -28319.57, -187500.02, 23743.99, -187500.02, -182746.83, 0.000, 0.000, 0.000, 15:29:17.189, 1578576557189
57, -156758.92, -121104.45, -168313.91, -167999.84, -137664.23, -129823.46, -167956.28, -168548.89, 0.000, 0.000, 0.000, 15:29:17.189, 1578576557189
58, 165089.63, 165051.05, 165257.30, -28350.64, -187500.02, 23754.70, -187500.02, -182738.33, 0.000, 0.000, 0.000, 15:29:17.190, 1578576557190
59, -157073.80, -121362.70, -168310.00, -167997.42, -137959.83, -130116.05, -167950.89, -168545.06, 0.000, 0.000, 0.000, 15:29:17.190, 1578576557190
60, 165074.75, 165036.20, 165242.42, -28377.06, -187500.02, 23733.42, -187500.02, -182732.34, 0.000, 0.000, 0.000, 15:29:17.190, 1578576557190
61, -157391.45, -121623.41, -168305.17, -167993.53, -138258.19, -130406.53, -167947.92, -168540.50, 0.000, 0.000, 0.000, 15:29:17.190, 1578576557190
62, 165058.50, 165019.97, 165226.19, -28447.06, -187500.02, 23741.15, -187500.02, -182723.78, 0.000, 0.000, 0.000, 15:29:17.190, 1578576557190
63, -157710.38, -121884.88, -168301.20, -167991.84, -138557.19, -130698.24, -167946.13, -168536.59, 0.000, 0.000, 0.000, 15:29:17.190, 1578576557190
64, 165047.69, 165009.13, 165215.34, -28431.98, -187500.02, 23749.71, -187500.02, -182718.20, 0.000, 0.000, 0.000, 15:29:17.190, 1578576557190
65, -158026.02, -122141.44, -168299.75, -167985.92, -138852.30, -130982.42, -167944.44, -168536.75, -0.022, -0.012, 0.982, 15:29:17.190, 1578576557190
66, 165035.64, 164997.02, 165203.28, -28423.57, -187500.02, 23788.16, -187500.02, -182711.83, 0.000, 0.000, 0.000, 15:29:17.191, 1578576557191
67, -158345.47, -122399.96, -168292.77, -167980.58, -139149.34, -131271.02, -167939.17, -168533.00, 0.000, 0.000, 0.000, 15:29:17.191, 1578576557191
68, 165023.28, 164984.70, 165190.94, -28446.46, -187500.02, 23767.73, -187500.02, -182700.53, 0.000, 0.000, 0.000, 15:29:17.191, 1578576557191
69, -158666.33, -122657.23, -168290.80, -167980.11, -139445.22, -131561.52, -167936.41, -168532.55, 0.000, 0.000, 0.000, 15:29:17.191, 1578576557191
70, 165011.61, 164973.06, 165179.30, -28466.42, -187500.02, 23744.32, -187500.02, -182693.70, 0.000, 0.000, 0.000, 15:29:17.191, 1578576557191
71, -158983.19, -122914.92, -168288.80, -167978.72, -139739.80, -131848.52, -167933.48, -168528.59, 0.000, 0.000, 0.000, 15:29:17.191, 1578576557191
72, 164993.69, 164955.27, 165161.34, -28457.84, -187500.02, 23740.03, -187500.02, -182691.34, 0.000, 0.000, 0.000, 15:29:17.191, 1578576557191
73, -159301.59, -123176.70, -168280.02, -167964.75, -140038.09, -132136.98, -167926.44, -168521.19, 0.000, 0.000, 0.000, 15:29:17.191, 1578576557191
74, 164977.27, 164938.75, 165144.94, -28367.78, -187500.02, 23785.70, -187500.02, -182688.27, 0.000, 0.000, 0.000, 15:29:17.191, 1578576557191
75, -159620.39, -123435.80, -168276.83, -167964.95, -140335.75, -132427.75, -167923.00, -168514.41, -0.018, -0.014, 0.984, 15:29:17.191, 1578576557191
76, 164959.67, 164921.11, 165127.27, -28427.26, -187500.02, 23712.12, -187500.02, -182679.61, 0.000, 0.000, 0.000, 15:29:17.191, 1578576557191
77, -159939.31, -123696.72, -168272.52, -167961.33, -140635.39, -132718.70, -167918.92, -168510.17, 0.000, 0.000, 0.000, 15:29:17.192, 1578576557192
78, 164952.27, 164913.67, 165119.73, -28380.90, -187500.02, 23710.95, -187500.02, -182670.42, 0.000, 0.000, 0.000, 15:29:17.192, 1578576557192
79, -160253.28, -123957.72, -168272.94, -167958.47, -140928.84, -133005.77, -167919.53, -168510.84, 0.000, 0.000, 0.000, 15:29:17.192, 1578576557192
80, 164940.05, 164901.52, 165107.50, -28399.86, -187500.02, 23693.00, -187500.02, -182665.20, 0.000, 0.000, 0.000, 15:29:17.192, 1578576557192
81, -160568.38, -124214.02, -168269.64, -167954.00, -141220.34, -133293.06, -167914.03, -168507.72, 0.000, 0.000, 0.000, 15:29:17.192, 1578576557192
82, 164924.28, 164885.70, 165091.70, -28437.25, -187500.02, 23691.89, -187500.02, -182657.33, 0.000, 0.000, 0.000, 15:29:17.192, 1578576557192
83, -160885.19, -124470.91, -168264.80, -167958.22, -141514.23, -133579.97, -167908.28, -168503.63, 0.000, 0.000, 0.000, 15:29:17.192, 1578576557192
84, 164911.55, 164873.02, 165079.19, -28431.73, -187500.02, 23691.44, -187500.02, -182648.56, -0.020, -0.018, 0.980, 15:29:17.192, 1578576557192
85, -161207.17, -124729.99, -168260.80, -167951.45, -141811.89, -133869.31, -167907.11, -168501.48, 0.000, 0.000, 0.000, 15:29:17.192, 1578576557192
86, 164899.16, 164860.53, 165066.63, -28425.29, -187500.02, 23682.81, -187500.02, -182643.56, 0.000, 0.000, 0.000, 15:29:17.192, 1578576557192
87, -161525.39, -124988.13, -168258.83, -167948.23, -142106.22, -134157.41, -167904.95, -168497.55, 0.000, 0.000, 0.000, 15:29:17.192, 1578576557192
88, 164884.95, 164846.52, 165052.41, -28456.99, -187500.02, 23689.88, -187500.02, -182637.89, 0.000, 0.000, 0.000, 15:29:17.192, 1578576557192
89, -161844.48, -125247.03, -168253.56, -167939.98, -142396.25, -134445.89, -167900.02, -168490.44, 0.000, 0.000, 0.000, 15:29:17.192, 1578576557192
90, 164867.64, 164829.16, 165035.16, -28433.88, -187500.02, 23692.96, -187500.02, -182629.39, 0.000, 0.000, 0.000, 15:29:17.192, 1578576557192
91, -162165.00, -125506.60, -168248.70, -167937.39, -142689.22, -134735.48, -167895.38, -168487.13, 0.000, 0.000, 0.000, 15:29:17.192, 1578576557192
92, 164852.41, 164813.98, 165019.91, -28400.08, -187500.02, 23701.50, -187500.02, -182624.44, 0.000, 0.000, 0.000, 15:29:17.192, 1578576557192
93, -162488.95, -125769.41, -168246.58, -167933.88, -142985.33, -135024.02, -167891.03, -168481.61, 0.000, 0.000, 0.000, 15:29:17.192, 1578576557192
94, 164840.78, 164802.41, 165008.27, -28446.15, -187500.02, 23689.07, -187500.02, -182615.47, -0.024, -0.014, 0.982, 15:29:17.192, 1578576557192
95, -162808.73, -126029.86, -168243.91, -167932.70, -143280.02, -135310.61, -167887.97, -168480.09, 0.000, 0.000, 0.000, 15:29:17.192, 1578576557192
96, 164831.08, 164792.70, 164998.53, -28437.43, -187500.02, 23683.10, -187500.02, -182609.44, 0.000, 0.000, 0.000, 15:29:17.193, 1578576557193
97, -163126.44, -126284.91, -168240.81, -167927.31, -143570.97, -135596.78, -167885.72, -168479.20, 0.000, 0.000, 0.000, 15:29:17.193, 1578576557193
98, 164816.38, 164777.95, 164983.81, -28380.57, -187500.02, 23701.99, -187500.02, -182604.14, 0.000, 0.000, 0.000, 15:29:17.193, 1578576557193
99, -163449.56, -126539.55, -168235.50, -167922.75, -143864.31, -135884.59, -167883.34, -168475.34, 0.000, 0.000, 0.000, 15:29:17.193, 1578576557193
100, 164804.19, 164765.66, 164971.66, -28392.86, -187500.02, 23692.16, -187500.02, -182595.22, 0.000, 0.000, 0.000, 15:29:17.193, 1578576557193
101, -163777.06, -126801.04, -168229.75, -167919.11, -144160.59, -136176.33, -167875.50, -168467.73, 0.000, 0.000, 0.000, 15:29:17.193, 1578576557193
102, 164786.94, 164748.36, 164954.22, -28355.18, -187500.02, 23704.49, -187500.02, -182586.72, 0.000, 0.000, 0.000, 15:29:17.193, 1578576557193
103, -164102.95, -127059.83, -168227.88, -167916.11, -144458.06, -136464.55, -167875.05, -168465.11, 0.000, 0.000, 0.000, 15:29:17.193, 1578576557193
104, 164776.66, 164738.16, 164944.06, -28375.83, -187500.02, 23693.27, -187500.02, -182581.53, -0.016, -0.014, 0.982, 15:29:17.193, 1578576557193
105, -164425.89, -127315.76, -168223.52, -167910.83, -144752.78, -136746.88, -167871.09, -168463.50, 0.000, 0.000, 0.000, 15:29:17.193, 1578576557193
106, 164761.09, 164722.63, 164928.39, -28361.12, -187500.02, 23714.42, -187500.02, -182576.00, 0.000, 0.000, 0.000, 15:29:17.193, 1578576557193
107, -164754.84, -127574.32, -168218.33, -167907.23, -145048.13, -137036.44, -167866.02, -168459.38, 0.000, 0.000, 0.000, 15:29:17.193, 1578576557193
108, 164747.02, 164708.61, 164914.45, -28375.43, -187500.02, 23720.59, -187500.02, -182567.70, 0.000, 0.000, 0.000, 15:29:17.193, 1578576557193
109, -165083.19, -127834.92, -168217.97, -167903.50, -145342.84, -137326.09, -167866.77, -168459.03, 0.000, 0.000, 0.000, 15:29:17.193, 1578576557193
110, 164735.38, 164697.02, 164902.81, -28382.91, -187500.02, 23694.48, -187500.02, -182561.98, 0.000, 0.000, 0.000, 15:29:17.193, 1578576557193
111, -165407.70, -128092.63, -168214.80, -167902.50, -145631.27, -137608.83, -167861.58, -168455.44, 0.000, 0.000, 0.000, 15:29:17.193, 1578576557193
112, 164720.91, 164682.48, 164888.30, -28386.36, -187500.02, 23716.54, -187500.02, -182556.03, 0.000, 0.000, 0.000, 15:29:17.194, 1578576557194
113, -165729.81, -128345.43, -168209.14, -167893.58, -145920.50, -137892.72, -167856.77, -168449.38, 0.000, 0.000, 0.000, 15:29:17.194, 1578576557194
114, 164705.66, 164667.28, 164873.02, -28353.70, -187500.02, 23737.55, -187500.02, -182547.27, -0.020, -0.014, 0.976, 15:29:17.194, 1578576557194
115, -166056.13, -128599.23, -168203.94, -167888.91, -146215.41, -138175.59, -167851.64, -168442.86, 0.000, 0.000, 0.000, 15:29:17.194, 1578576557194
116, 164690.83, 164652.38, 164858.11, -28402.90, -187500.02, 23692.45, -187500.02, -182538.55, 0.000, 0.000, 0.000, 15:29:17.194, 1578576557194
117, -166386.80, -128858.88, -168201.72, -167889.27, -146513.41, -138460.20, -167849.75, -168441.17, 0.000, 0.000, 0.000, 15:29:17.194, 1578576557194
118, 164678.73, 164640.16, 164845.89, -28355.91, -187500.02, 23714.75, -187500.02, -182531.20, 0.000, 0.000, 0.000, 15:29:17.194, 1578576557194
119, -166716.84, -129114.36, -168196.41, -167880.50, -146809.20, -138745.86, -167841.72, -168435.75, 0.000, 0.000, 0.000, 15:29:17.194, 1578576557194
120, 164661.73, 164623.28, 164829.00, -28329.67, -187500.02, 23743.30, -187500.02, -182528.11, 0.000, 0.000, 0.000, 15:29:17.669, 1578576557669
121, -167041.17, -129365.90, -168194.61, -167882.63, -147096.20, -139024.61, -167841.08, -168432.50, 0.000, 0.000, 0.000, 15:29:17.669, 1578576557669
122, 164647.44, 164608.98, 164814.67, -28350.42, -187500.02, 23725.39, -187500.02, -182524.47, 0.000, 0.000, 0.000, 15:29:17.669, 1578576557669
123, -167371.31, -129622.86, -168193.03, -167879.70, -147386.02, -139305.75, -167834.44, -168429.73, -0.014, -0.016, 0.980, 15:29:17.669, 1578576557669
124, 164635.41, 164597.02, 164802.53, -28356.90, -187500.02, 23713.52, -187500.02, -182516.77, 0.000, 0.000, 0.000, 15:29:17.669, 1578576557669
125, -167707.39, -129881.76, -168186.48, -167869.80, -147681.33, -139590.53, -167833.52, -168426.89, 0.000, 0.000, 0.000, 15:29:17.669, 1578576557669
126, 164621.53, 164583.00, 164788.72, -28322.16, -187500.02, 23737.26, -187500.02, -182508.25, 0.000, 0.000, 0.000, 15:29:17.669, 1578576557669
127, -168036.30, -130134.91, -168185.77, -167872.45, -147968.25, -139873.09, -167831.08, -168423.19, 0.000, 0.000, 0.000, 15:29:17.669, 1578576557669
128, 164607.34, 164568.80, 164774.53, -28310.07, -187500.02, 23724.21, -187500.02, -182500.13, 0.000, 0.000, 0.000, 15:29:17.669, 1578576557669
129, -168222.17, -130405.15, -168181.77, -167871.36, -148258.11, -140159.72, -167825.39, -168416.30, 0.000, 0.000, 0.000, 15:29:17.669, 1578576557669
130, 164595.53, 164557.09, 164762.77, -28314.76, -187500.02, 23699.71, -187500.02, -182488.94, 0.000, 0.000, 0.000, 15:29:17.669, 1578576557669
131, -168222.55, -130714.34, -168174.36, -167859.84, -148562.56, -140456.72, -167821.89, -168412.77, 0.000, 0.000, 0.000, 15:29:17.669, 1578576557669
132, 164585.25, 164546.81, 164752.44, -28311.03, -187500.02, 23712.70, -187500.02, -182483.44, 0.000, 0.000, 0.000, 15:29:17.669, 1578576557669
133, -168219.58, -131025.74, -168175.08, -167865.13, -148871.27, -140751.13, -167818.36, -168410.64, -0.014, -0.018, 0.980, 15:29:17.669, 1578576557669
134, 164573.97, 164535.64, 164741.25, -28256.34, -187500.02, 23726.98, -187500.02, -182477.22, 0.000, 0.000, 0.000, 15:29:17.669, 1578576557669
135, -168216.39, -131335.52, -168169.05, -167854.75, -149178.72, -141048.08, -167819.33, -168406.67, 0.000, 0.000, 0.000, 15:29:17.670, 1578576557670
136, 164565.50, 164527.09, 164732.78, -28234.25, -187500.02, 23727.31, -187500.02, -182468.58, 0.000, 0.000, 0.000, 15:29:17.670, 1578576557670
137, -168213.03, -131646.31, -168167.30, -167854.48, -149481.78, -141342.45, -167813.47, -168405.41, 0.000, 0.000, 0.000, 15:29:17.670, 1578576557670
138, 164554.44, 164515.94, 164721.63, -28240.78, -187500.02, 23728.63, -187500.02, -182460.22, 0.000, 0.000, 0.000, 15:29:17.670, 1578576557670
139, -168210.84, -131957.31, -168164.63, -167851.72, -149788.84, -141638.00, -167811.44, -168405.75, 0.000, 0.000, 0.000, 15:29:17.670, 1578576557670
140, 164546.94, 164508.50, 164714.09, -28297.08, -187500.02, 23709.68, -187500.02, -182454.00, 0.000, 0.000, 0.000, 15:29:17.670, 1578576557670
141, -168208.92, -132271.92, -168159.36, -167854.78, -150097.17, -141937.17, -167806.91, -168401.44, 0.000, 0.000, 0.000, 15:29:17.670, 1578576557670
142, 164536.34, 164497.86, 164703.50, -28239.91, -187500.02, 23745.15, -187500.02, -182446.58, 0.000, 0.000, 0.000, 15:29:17.670, 1578576557670
143, -168206.44, -132582.92, -168160.81, -167854.58, -150403.34, -142234.47, -167807.19, -168397.83, -0.018, -0.018, 0.980, 15:29:17.670, 1578576557670
144, 164527.08, 164488.58, 164694.27, -28213.11, -187500.02, 23741.89, -187500.02, -182441.53, 0.000, 0.000, 0.000, 15:29:17.670, 1578576557670
145, -168202.48, -132895.27, -168156.13, -167844.77, -150704.27, -142528.64, -167801.80, -168396.31, 0.000, 0.000, 0.000, 15:29:17.670, 1578576557670
146, 164511.52, 164473.00, 164678.70, -28250.59, -187500.02, 23742.31, -187500.02, -182437.17, 0.000, 0.000, 0.000, 15:29:17.670, 1578576557670
147, -168199.06, -133207.86, -168154.58, -167840.72, -151007.73, -142823.28, -167799.91, -168393.83, 0.000, 0.000, 0.000, 15:29:17.670, 1578576557670
148, 164502.34, 164463.91, 164669.45, -28281.91, -187500.02, 23718.73, -187500.02, -182432.41, 0.000, 0.000, 0.000, 15:29:17.670, 1578576557670
149, -168197.03, -133519.91, -168150.72, -167838.58, -151316.09, -143119.48, -167796.34, -168392.11, 0.000, 0.000, 0.000, 15:29:17.670, 1578576557670
150, 164493.98, 164455.48, 164661.09, -28289.55, -187500.02, 23706.46, -187500.02, -182422.81, 0.000, 0.000, 0.000, 15:29:17.670, 1578576557670
151, -168194.33, -133830.70, -168149.11, -167836.31, -151622.06, -143415.14, -167794.61, -168385.72, 0.000, 0.000, 0.000, 15:29:17.671, 1578576557671
152, 164484.02, 164445.48, 164651.14, -28296.70, -187500.02, 23707.22, -187500.02, -182416.89, 0.000, 0.000, 0.000, 15:29:17.671, 1578576557671
153, -168191.42, -134136.28, -168146.58, -167833.88, -151924.98, -143706.31, -167794.05, -168386.30, -0.016, -0.018, 0.984, 15:29:17.671, 1578576557671
154, 164473.63, 164435.13, 164640.78, -28281.13, -187500.02, 23709.05, -187500.02, -182408.25, 0.000, 0.000, 0.000, 15:29:17.671, 1578576557671
155, -168186.77, -134445.53, -168142.73, -167825.92, -152229.20, -144003.17, -167787.19, -168382.45, 0.000, 0.000, 0.000, 15:29:17.671, 1578576557671
156, 164460.84, 164422.33, 164628.03, -28294.71, -187500.02, 23721.28, -187500.02, -182403.19, 0.000, 0.000, 0.000, 15:29:17.671, 1578576557671
157, -168182.56, -134757.91, -168139.00, -167828.17, -152537.27, -144300.80, -167783.39, -168377.61, 0.000, 0.000, 0.000, 15:29:17.671, 1578576557671
158, 164447.36, 164408.97, 164614.48, -28322.36, -187500.02, 23717.44, -187500.02, -182398.25, 0.000, 0.000, 0.000, 15:29:17.671, 1578576557671
159, -168178.52, -135069.55, -168133.22, -167822.38, -152841.33, -144598.66, -167777.98, -168370.72, 0.000, 0.000, 0.000, 15:29:17.671, 1578576557671
160, 164435.81, 164397.25, 164602.84, -28373.88, -187500.02, 23688.85, -187500.02, -182391.30, 0.000, 0.000, 0.000, 15:29:17.671, 1578576557671
161, -168178.09, -135375.80, -168135.78, -167819.00, -153142.48, -144892.47, -167782.09, -168373.88, 0.000, 0.000, 0.000, 15:29:17.671, 1578576557671
162, 164430.02, 164391.36, 164596.98, -28398.31, -187500.02, 23674.18, -187500.02, -182385.64, 0.000, 0.000, 0.000, 15:29:17.671, 1578576557671
163, -168176.42, -135684.89, -168132.39, -167817.55, -153443.89, -145187.19, -167779.78, -168373.05, -0.016, -0.020, 0.982, 15:29:17.671, 1578576557671
164, 164418.38, 164379.73, 164585.33, -28458.13, -187500.02, 23661.15, -187500.02, -182379.72, 0.000, 0.000, 0.000, 15:29:17.671, 1578576557671
165, -168173.09, -135998.52, -168126.13, -167815.86, -153749.86, -145485.88, -167773.39, -168365.34, 0.000, 0.000, 0.000, 15:29:17.671, 1578576557671
166, 164406.47, 164368.00, 164573.55, -28427.48, -187500.02, 23657.73, -187500.02, -182368.86, 0.000, 0.000, 0.000, 15:29:17.672, 1578576557672
167, -168168.13, -136309.77, -168122.48, -167810.56, -154054.61, -145783.53, -167770.59, -168363.53, 0.000, 0.000, 0.000, 15:29:17.672, 1578576557672
168, 164398.77, 164360.33, 164565.88, -28420.04, -187500.02, 23665.82, -187500.02, -182359.42, 0.000, 0.000, 0.000, 15:29:17.672, 1578576557672
169, -168164.95, -136617.66, -168118.70, -167805.33, -154355.95, -146075.94, -167768.28, -168359.02, 0.000, 0.000, 0.000, 15:29:17.672, 1578576557672
170, 164384.53, 164346.06, 164551.55, -28457.48, -187500.02, 23661.02, -187500.02, -182355.56, 0.000, 0.000, 0.000, 15:29:17.672, 1578576557672
171, -168162.97, -136925.03, -168118.86, -167805.89, -154658.59, -146368.53, -167767.47, -168360.83, 0.000, 0.000, 0.000, 15:29:17.672, 1578576557672
172, 164376.20, 164337.75, 164543.25, -28421.14, -187500.02, 23666.50, -187500.02, -182348.92, -0.020, -0.022, 0.984, 15:29:17.672, 1578576557672
173, -168159.44, -137236.69, -168116.63, -167803.88, -154965.56, -146665.45, -167761.70, -168352.34, 0.000, 0.000, 0.000, 15:29:17.672, 1578576557672
174, 164367.45, 164328.95, 164534.36, -28442.26, -187500.02, 23657.91, -187500.02, -182339.41, 0.000, 0.000, 0.000, 15:29:17.672, 1578576557672
175, -168155.88, -137546.34, -168114.19, -167803.80, -155271.75, -146959.88, -167759.92, -168351.36, 0.000, 0.000, 0.000, 15:29:17.672, 1578576557672
176, 164357.13, 164318.69, 164524.13, -28399.39, -187500.02, 23671.68, -187500.02, -182333.92, 0.000, 0.000, 0.000, 15:29:17.672, 1578576557672
177, -168155.59, -137850.00, -168110.81, -167798.52, -155573.03, -147253.33, -167760.13, -168350.56, 0.000, 0.000, 0.000, 15:29:17.672, 1578576557672
178, 164349.08, 164310.59, 164516.02, -28419.17, -187500.02, 23666.79, -187500.02, -182327.73, 0.000, 0.000, 0.000, 15:29:17.672, 1578576557672
179, -168153.17, -138156.48, -168109.44, -167796.11, -155876.45, -147548.58, -167757.69, -168349.13, 0.000, 0.000, 0.000, 15:29:17.672, 1578576557672
180, 164341.08, 164302.64, 164508.14, -28432.58, -187500.02, 23667.05, -187500.02, -182316.80, 0.000, 0.000, 0.000, 15:29:17.672, 1578576557672
181, -168146.80, -138467.70, -168103.44, -167792.53, -156186.39, -147848.94, -167752.77, -168341.73, 0.000, 0.000, 0.000, 15:29:17.672, 1578576557672
182, 164327.50, 164289.11, 164494.44, -28406.65, -187500.02, 23679.06, -187500.02, -182312.36, -0.014, -0.020, 0.980, 15:29:17.672, 1578576557672
183, -168146.83, -138776.61, -168104.25, -167788.69, -156489.86, -148144.03, -167750.27, -168341.38, 0.000, 0.000, 0.000, 15:29:17.672, 1578576557672
184, 164316.98, 164278.55, 164483.94, -28377.15, -187500.02, 23693.77, -187500.02, -182309.22, 0.000, 0.000, 0.000, 15:29:17.673, 1578576557673
185, -168142.22, -139081.11, -168100.02, -167787.13, -156792.13, -148436.95, -167745.44, -168337.03, 0.000, 0.000, 0.000, 15:29:17.673, 1578576557673
186, 164307.52, 164269.09, 164474.41, -28399.83, -187500.02, 23679.06, -187500.02, -182303.41, 0.000, 0.000, 0.000, 15:29:17.673, 1578576557673
187, -168141.11, -139385.16, -168099.27, -167787.28, -157095.81, -148731.83, -167743.31, -168335.42, 0.000, 0.000, 0.000, 15:29:17.673, 1578576557673
188, 164300.38, 164261.91, 164467.23, -28453.97, -187500.02, 23655.41, -187500.02, -182297.30, 0.000, 0.000, 0.000, 15:29:17.673, 1578576557673
189, -168140.97, -139693.64, -168098.13, -167785.42, -157400.59, -149025.77, -167742.59, -168337.16, 0.000, 0.000, 0.000, 15:29:17.673, 1578576557673
190, 164291.44, 164253.02, 164458.41, -28419.82, -187500.02, 23659.23, -187500.02, -182289.47, 0.000, 0.000, 0.000, 15:29:17.673, 1578576557673
191, -168135.20, -140005.06, -168096.84, -167782.09, -157706.48, -149320.06, -167738.97, -168332.25, 0.000, 0.000, 0.000, 15:29:17.673, 1578576557673
192, 164277.42, 164239.06, 164444.42, -28370.40, -187500.02, 23676.96, -187500.02, -182286.03, -0.016, -0.022, 0.978, 15:29:17.673, 1578576557673
193, -168133.14, -140307.89, -168092.31, -167774.67, -158009.06, -149611.73, -167735.59, -168327.94, 0.000, 0.000, 0.000, 15:29:17.673, 1578576557673
194, 164268.48, 164230.00, 164435.34, -28373.53, -187500.02, 23673.00, -187500.02, -182277.58, 0.000, 0.000, 0.000, 15:29:17.673, 1578576557673
195, -168129.19, -140612.31, -168089.06, -167775.11, -158309.20, -149905.39, -167732.89, -168326.69, 0.000, 0.000, 0.000, 15:29:17.673, 1578576557673
196, 164258.31, 164219.84, 164425.19, -28388.86, -187500.02, 23669.65, -187500.02, -182269.75, 0.000, 0.000, 0.000, 15:29:17.673, 1578576557673
197, -168126.89, -140922.05, -168087.81, -167772.09, -158614.23, -150203.36, -167732.98, -168323.25, 0.000, 0.000, 0.000, 15:29:17.673, 1578576557673
198, 164250.16, 164211.69, 164417.13, -28374.42, -187500.02, 23663.30, -187500.02, -182263.98, 0.000, 0.000, 0.000, 15:29:17.673, 1578576557673
199, -168124.27, -141228.63, -168084.16, -167774.45, -158919.06, -150497.23, -167729.27, -168320.63, 0.000, 0.000, 0.000, 15:29:17.673, 1578576557673
200, 164236.45, 164198.08, 164403.41, -28342.68, -187500.02, 23682.54, -187500.02, -182259.61, 0.000, 0.000, 0.000, 15:29:17.673, 1578576557673
201, -168119.05, -141533.13, -168078.03, -167769.22, -159221.75, -150791.20, -167724.42, -168318.08, 0.000, 0.000, 0.000, 15:29:17.673, 1578576557673
202, 164226.03, 164187.58, 164392.92, -28347.91, -187500.02, 23680.62, -187500.02, -182254.08, -0.022, -0.022, 0.972, 15:29:17.674, 1578576557674
203, -168117.81, -141841.02, -168075.95, -167764.83, -159526.34, -151085.41, -167722.28, -168313.13, 0.000, 0.000, 0.000, 15:29:17.674, 1578576557674
204, 164216.55, 164178.09, 164383.48, -28363.00, -187500.02, 23671.41, -187500.02, -182249.44, 0.000, 0.000, 0.000, 15:29:17.674, 1578576557674
205, -168114.59, -142150.56, -168074.77, -167762.20, -159834.22, -151380.92, -167721.42, -168313.88, 0.000, 0.000, 0.000, 15:29:17.674, 1578576557674
206, 164204.45, 164166.14, 164371.45, -28344.09, -187500.02, 23681.54, -187500.02, -182242.42, 0.000, 0.000, 0.000, 15:29:17.674, 1578576557674
207, -168111.00, -142459.86, -168072.02, -167758.75, -160141.70, -151674.59, -167715.73, -168309.88, 0.000, 0.000, 0.000, 15:29:17.674, 1578576557674
208, 164195.50, 164157.02, 164362.47, -28342.95, -187500.02, 23680.00, -187500.02, -182235.86, 0.000, 0.000, 0.000, 15:29:17.674, 1578576557674
209, -168109.14, -142766.23, -168067.64, -167755.53, -160443.19, -151964.55, -167712.83, -168305.03, 0.000, 0.000, 0.000, 15:29:17.674, 1578576557674
210, 164185.20, 164146.59, 164352.11, -28342.70, -187500.02, 23677.54, -187500.02, -182229.83, 0.000, 0.000, 0.000, 15:29:17.674, 1578576557674
211, -168106.56, -143073.72, -168068.45, -167754.78, -160746.63, -152257.94, -167710.50, -168305.61, -0.022, -0.020, 0.978, 15:29:17.676, 1578576557676
212, 164176.47, 164138.11, 164343.36, -28330.63, -187500.02, 23685.99, -187500.02, -182224.67, 0.000, 0.000, 0.000, 15:29:17.676, 1578576557676
213, -168104.52, -143380.64, -168063.83, -167747.13, -161052.69, -152555.08, -167708.95, -168301.91, 0.000, 0.000, 0.000, 15:29:17.676, 1578576557676
214, 164166.88, 164128.50, 164333.78, -28338.97, -187500.02, 23678.30, -187500.02, -182215.91, 0.000, 0.000, 0.000, 15:29:17.676, 1578576557676
215, -168102.13, -143685.88, -168061.78, -167747.20, -161359.58, -152850.61, -167706.08, -168299.58, 0.000, 0.000, 0.000, 15:29:17.676, 1578576557676
216, 164157.31, 164118.89, 164324.05, -28348.67, -187500.02, 23676.11, -187500.02, -182209.30, 0.000, 0.000, 0.000, 15:29:17.676, 1578576557676
217, -168098.28, -143987.94, -168058.88, -167744.34, -161661.41, -153144.92, -167704.70, -168298.22, 0.000, 0.000, 0.000, 15:29:17.676, 1578576557676
218, 164146.20, 164107.73, 164312.94, -28402.58, -187500.02, 23653.20, -187500.02, -182202.86, 0.000, 0.000, 0.000, 15:29:17.676, 1578576557676
219, -168097.66, -144290.52, -168057.44, -167744.30, -161963.58, -153437.14, -167703.36, -168295.95, 0.000, 0.000, 0.000, 15:29:17.676, 1578576557676
220, 164136.55, 164098.09, 164303.36, -28397.55, -187500.02, 23642.18, -187500.02, -182197.56, 0.000, 0.000, 0.000, 15:29:17.676, 1578576557676
221, -168092.95, -144599.38, -168053.44, -167743.02, -162270.47, -153735.30, -167702.25, -168291.55, -0.018, -0.020, 0.982, 15:29:17.676, 1578576557676
222, 164126.78, 164088.42, 164293.52, -28437.07, -187500.02, 23633.17, -187500.02, -182190.16, 0.000, 0.000, 0.000, 15:29:17.676, 1578576557676
223, -168091.53, -144906.63, -168053.44, -167743.36, -162575.19, -154028.80, -167698.00, -168291.52, 0.000, 0.000, 0.000, 15:29:17.676, 1578576557676
224, 164115.91, 164077.47, 164282.70, -28445.54, -187500.02, 23642.18, -187500.02, -182184.91, 0.000, 0.000, 0.000, 15:29:17.677, 1578576557677
225, -168086.41, -145212.55, -168048.39, -167735.47, -162879.39, -154321.53, -167692.61, -168284.77, 0.000, 0.000, 0.000, 15:29:17.677, 1578576557677
226, 164102.03, 164063.56, 164268.78, -28442.59, -187500.02, 23632.61, -187500.02, -182179.23, 0.000, 0.000, 0.000, 15:29:17.677, 1578576557677
227, -168084.00, -145518.80, -168043.42, -167729.03, -163187.00, -154614.81, -167691.72, -168284.95, 0.000, 0.000, 0.000, 15:29:17.677, 1578576557677
228, 164091.44, 164052.92, 164258.16, -28466.91, -187500.02, 23632.21, -187500.02, -182172.08, 0.000, 0.000, 0.000, 15:29:17.677, 1578576557677
229, -168079.86, -145827.58, -168043.14, -167732.06, -163496.88, -154909.94, -167686.80, -168278.14, 0.000, 0.000, 0.000, 15:29:17.677, 1578576557677
230, 164081.38, 164043.00, 164248.14, -28466.98, -187500.02, 23623.51, -187500.02, -182164.72, 0.000, 0.000, 0.000, 15:29:17.677, 1578576557677
231, -168076.06, -146135.23, -168039.09, -167726.39, -163807.06, -155207.84, -167684.33, -168276.17, -0.022, -0.014, 0.982, 15:29:17.677, 1578576557677
232, 164071.61, 164033.17, 164238.31, -28475.63, -187500.02, 23624.32, -187500.02, -182156.92, 0.000, 0.000, 0.000, 15:29:17.677, 1578576557677
233, -168075.75, -146438.25, -168039.16, -167723.78, -164111.94, -155501.59, -167685.53, -168275.86, 0.000, 0.000, 0.000, 15:29:17.677, 1578576557677
234, 164064.13, 164025.67, 164230.83, -28483.32, -187500.02, 23620.21, -187500.02, -182150.75, 0.000, 0.000, 0.000, 15:29:17.677, 1578576557677
235, -168071.66, -146745.09, -168034.39, -167720.38, -164423.11, -155796.86, -167676.80, -168271.34, 0.000, 0.000, 0.000, 15:29:17.677, 1578576557677
236, 164053.08, 164014.66, 164219.64, -28491.63, -187500.02, 23626.71, -187500.02, -182144.83, 0.000, 0.000, 0.000, 15:29:17.677, 1578576557677
237, -168069.83, -147055.14, -168030.50, -167716.08, -164739.91, -156095.25, -167675.52, -168268.78, 0.000, 0.000, 0.000, 15:29:17.677, 1578576557677
238, 164043.92, 164005.52, 164210.66, -28472.61, -187500.02, 23634.15, -187500.02, -182138.53, 0.000, 0.000, 0.000, 15:29:17.677, 1578576557677
239, -168067.08, -147358.83, -168027.48, -167711.69, -165052.72, -156390.70, -167673.64, -168268.94, 0.000, 0.000, 0.000, 15:29:17.677, 1578576557677
240, 164032.45, 163994.05, 164199.11, -28445.83, -187500.02, 23650.85, -187500.02, -182133.98, 0.000, 0.000, 0.000, 15:29:18.142, 1578576558142
241, -168064.55, -147659.67, -168029.17, -167715.17, -165358.94, -156683.08, -167672.66, -168264.69, -0.020, -0.016, 0.982, 15:29:18.142, 1578576558142
242, 164021.63, 163983.25, 164188.22, -28453.75, -187500.02, 23640.75, -187500.02, -182131.89, 0.000, 0.000, 0.000, 15:29:18.143, 1578576558143
243, -168060.28, -147963.53, -168023.56, -167712.53, -165668.53, -156976.77, -167668.92, -168260.59, 0.000, 0.000, 0.000, 15:29:18.143, 1578576558143
244, 164007.63, 163969.23, 164174.25, -28447.20, -187500.02, 23644.72, -187500.02, -182125.25, 0.000, 0.000, 0.000, 15:29:18.143, 1578576558143
245, -168058.38, -148270.63, -168019.05, -167707.59, -165979.83, -157271.92, -167668.03, -168257.80, 0.000, 0.000, 0.000, 15:29:18.143, 1578576558143
246, 164000.00, 163961.69, 164166.73, -28441.28, -187500.02, 23646.31, -187500.02, -182116.08, 0.000, 0.000, 0.000, 15:29:18.143, 1578576558143
247, -168055.42, -148576.06, -168018.27, -167704.97, -166291.03, -157565.75, -167662.16, -168257.41, 0.000, 0.000, 0.000, 15:29:18.143, 1578576558143
248, 163992.42, 163953.92, 164159.08, -28416.80, -187500.02, 23654.18, -187500.02, -182109.36, 0.000, 0.000, 0.000, 15:29:18.143, 1578576558143
249, -168053.39, -148878.19, -168016.66, -167704.89, -166598.86, -157859.23, -167659.00, -168252.84, 0.000, 0.000, 0.000, 15:29:18.143, 1578576558143
250, 163979.41, 163940.97, 164146.06, -28407.79, -187500.02, 23658.79, -187500.02, -182105.00, -0.020, -0.016, 0.978, 15:29:18.143, 1578576558143
251, -168047.63, -149182.02, -168011.28, -167700.42, -166910.27, -158152.63, -167656.72, -168250.16, 0.000, 0.000, 0.000, 15:29:18.143, 1578576558143
252, 163968.53, 163930.03, 164135.16, -28405.42, -187500.02, 23655.86, -187500.02, -182098.83, 0.000, 0.000, 0.000, 15:29:18.143, 1578576558143
253, -168048.48, -149487.52, -168010.95, -167698.31, -167227.20, -158450.81, -167658.31, -168245.98, 0.000, 0.000, 0.000, 15:29:18.143, 1578576558143
254, 163960.55, 163922.19, 164127.16, -28388.73, -187500.02, 23656.79, -187500.02, -182093.33, 0.000, 0.000, 0.000, 15:29:18.143, 1578576558143
255, -168045.86, -149790.28, -168010.17, -167697.48, -167540.53, -158744.45, -167655.47, -168247.03, 0.000, 0.000, 0.000, 15:29:18.143, 1578576558143
0, 163950.70, 163912.27, 164117.30, -28406.18, -187500.02, 23656.13, -187500.02, -182086.64, 0.000, 0.000, 0.000, 15:29:18.143, 1578576558143
1, -168040.72, -150088.30, -168003.97, -167692.02, -167849.69, -159034.00, -167649.88, -168243.14, 0.000, 0.000, 0.000, 15:29:18.143, 1578576558143
2, 163937.55, 163899.17, 164104.25, -28400.19, -187500.02, 23664.64, -187500.02, -182080.23, 0.000, 0.000, 0.000, 15:29:18.143, 1578576558143
3, -168037.56, -150394.27, -168000.69, -167686.98, -168163.28, -159326.69, -167645.50, -168237.44, 0.000, 0.000, 0.000, 15:29:18.143, 1578576558143
4, 163929.61, 163891.13, 164096.16, -28389.93, -187500.02, 23654.63, -187500.02, -182071.38, -0.020, -0.016, 0.978, 15:29:18.143, 1578576558143
5, -168035.73, -150718.98, -167996.67, -167686.20, -168375.02, -159671.47, -167648.38, -168238.53, 0.000, 0.000, 0.000, 15:29:18.143, 1578576558143
6, 163925.08, 163886.69, 164091.73, -28392.32, -187500.02, 23663.37, -187500.02, -182066.33, 0.000, 0.000, 0.000, 15:29:18.143, 1578576558143
7, -168034.00, -151068.53, -167994.41, -167691.55, -168346.14, -160061.16, -167641.34, -168231.63, 0.000, 0.000, 0.000, 15:29:18.144, 1578576558144
8, 163916.25, 163877.83, 164082.91, -28405.74, -187500.02, 23664.84, -187500.02, -182061.19, 0.000, 0.000, 0.000, 15:29:18.144, 1578576558144
9, -168031.72, -151416.14, -167993.56, -167686.52, -168305.64, -160451.33, -167643.94, -168232.36, 0.000, 0.000, 0.000, 15:29:18.144, 1578576558144
10, 163913.19, 163874.72, 164079.86, -28402.70, -187500.02, 23661.64, -187500.02, -182053.91, 0.000, 0.000, 0.000, 15:29:18.144, 1578576558144
11, -168032.00, -151761.09, -167995.28, -167690.84, -168266.92, -160839.14, -167645.59, -168232.81, 0.000, 0.000, 0.000, 15:29:18.144, 1578576558144
12, 163907.64, 163869.22, 164074.27, -28400.44, -187500.02, 23661.58, -187500.02, -182050.48, 0.000, 0.000, 0.000, 15:29:18.144, 1578576558144
13, -168031.58, -152109.34, -167995.86, -167695.70, -168227.63, -161224.36, -167642.22, -168232.75, 0.000, 0.000, 0.000, 15:29:18.144, 1578576558144
14, 163905.66, 163867.20, 164072.22, -28428.33, -187500.02, 23644.93, -187500.02, -182042.86, -0.022, -0.020, 0.978, 15:29:18.144, 1578576558144
15, -168033.39, -152436.39, -168001.11, -167690.33, -168346.88, -161572.11, -167646.75, -168239.67, 0.000, 0.000, 0.000, 15:29:18.144, 1578576558144
16, 163898.77, 163860.28, 164065.28, -28427.73, -187500.02, 23646.94, -187500.02, -182036.67, 0.000, 0.000, 0.000, 15:29:18.144, 1578576558144
17, -168030.75, -152778.44, -167994.95, -167684.84, -168358.47, -161958.08, -167640.95, -168230.94, 0.000, 0.000, 0.000, 15:29:18.144, 1578576558144
18, 163893.38, 163854.91, 164059.98, -28381.53, -187500.02, 23653.49, -187500.02, -182031.84, 0.000, 0.000, 0.000, 15:29:18.144, 1578576558144
19, -168030.17, -153125.50, -167995.91, -167688.61, -168320.75, -162351.36, -167641.25, -168234.78, 0.000, 0.000, 0.000, 15:29:18.144, 1578576558144
20, 163885.42, 163847.00, 164051.94, -28412.82, -187500.02, 23655.30, -187500.02, -182028.83, 0.000, 0.000, 0.000, 15:29:18.144, 1578576558144
21, -168030.31, -153474.67, -167995.13, -167689.47, -168285.88, -162745.80, -167641.09, -168234.17, 0.000, 0.000, 0.000, 15:29:18.144, 1578576558144
22, 163879.50, 163841.08, 164046.08, -28406.09, -187500.02, 23661.91, -187500.02, -182024.52, 0.000, 0.000, 0.000, 15:29:18.144, 1578576558144
23, -168027.80, -153821.09, -167995.28, -167689.86, -168247.34, -163139.00, -167641.98, -168233.08, 0.000, 0.000, 0.000, 15:29:18.144, 1578576558144
24, 163876.41, 163837.98, 164042.98, -28409.27, -187500.02, 23639.05, -187500.02, -182015.81, -0.022, -0.022, 0.978, 15:29:18.144, 1578576558144
25, -168029.92, -154151.22, -167997.88, -167683.72, -168287.69, -163496.77, -167642.81, -168237.50, 0.000, 0.000, 0.000, 15:29:18.144, 1578576558144
26, 163869.50, 163831.03, 164036.00, -28411.84, -187500.02, 23651.59, -187500.02, -182011.09, 0.000, 0.000, 0.000, 15:29:18.144, 1578576558144
27, -168029.59, -154491.25, -167994.34, -167678.95, -168365.81, -163870.05, -167640.78, -168230.47, 0.000, 0.000, 0.000, 15:29:18.144, 1578576558144
28, 163867.63, 163829.14, 164034.06, -28419.46, -187500.02, 23647.56, -187500.02, -182003.61, 0.000, 0.000, 0.000, 15:29:18.144, 1578576558144
29, -168029.13, -154842.48, -167995.27, -167686.30, -168332.72, -164265.95, -167640.92, -168228.91, 0.000, 0.000, 0.000, 15:29:18.144, 1578576558144
30, 163859.78, 163821.39, 164026.33, -28407.10, -187500.02, 23651.34, -187500.02, -182004.64, 0.000, 0.000, 0.000, 15:29:18.145, 1578576558145
31, -168026.50, -155188.41, -167991.92, -167682.73, -168298.08, -164661.70, -167638.64, -168232.50, 0.000, 0.000, 0.000, 15:29:18.145, 1578576558145
32, 163854.23, 163815.81, 164020.73, -28415.37, -187500.02, 23650.22, -187500.02, -181996.69, 0.000, 0.000, 0.000, 15:29:18.145, 1578576558145
33, -168027.44, -155531.69, -167994.92, -167689.80, -168258.27, -165054.95, -167637.56, -168228.20, -0.016, -0.022, 0.984, 15:29:18.145, 1578576558145
34, 163847.47, 163809.00, 164013.94, -28454.55, -187500.02, 23640.70, -187500.02, -181990.06, 0.000, 0.000, 0.000, 15:29:18.145, 1578576558145
35, -168027.09, -155874.59, -167993.50, -167686.22, -168219.98, -165446.56, -167640.25, -168229.75, 0.000, 0.000, 0.000, 15:29:18.145, 1578576558145
36, 163847.20, 163808.75, 164013.67, -28431.02, -187500.02, 23638.38, -187500.02, -181982.63, 0.000, 0.000, 0.000, 15:29:18.145, 1578576558145
37, -168030.47, -156198.36, -167993.83, -167682.16, -168353.80, -165798.70, -167645.61, -168234.20, 0.000, 0.000, 0.000, 15:29:18.145, 1578576558145
38, 163839.59, 163801.17, 164006.14, -28398.56, -187500.02, 23644.46, -187500.02, -181978.27, 0.000, 0.000, 0.000, 15:29:18.145, 1578576558145
39, -168024.31, -156543.50, -167989.84, -167683.72, -168362.88, -166190.98, -167638.30, -168227.78, 0.000, 0.000, 0.000, 15:29:18.145, 1578576558145
40, 163830.91, 163792.50, 163997.45, -28426.77, -187500.02, 23645.33, -187500.02, -181971.88, 0.000, 0.000, 0.000, 15:29:18.145, 1578576558145
41, -168021.05, -156888.94, -167985.80, -167679.56, -168324.23, -166585.75, -167635.23, -168226.02, 0.000, 0.000, 0.000, 15:29:18.145, 1578576558145
42, 163823.42, 163785.02, 163989.92, -28439.96, -187500.02, 23653.22, -187500.02, -181967.53, 0.000, 0.000, 0.000, 15:29:18.145, 1578576558145
43, -168022.17, -157232.92, -167990.77, -167683.63, -168285.98, -166982.17, -167638.97, -168231.06, -0.022, -0.020, 0.978, 15:29:18.145, 1578576558145
44, 163822.59, 163784.17, 163989.06, -28441.88, -187500.02, 23627.31, -187500.02, -181959.89, 0.000, 0.000, 0.000, 15:29:18.145, 1578576558145
45, -168022.91, -157583.75, -167990.19, -167681.19, -168250.84, -167379.77, -167637.67, -168228.61, 0.000, 0.000, 0.000, 15:29:18.145, 1578576558145
46, 163820.56, 163782.11, 163987.05, -28464.50, -187500.02, 23641.91, -187500.02, -181952.61, 0.000, 0.000, 0.000, 15:29:18.145, 1578576558145
47, -168023.05, -157921.42, -167991.77, -167684.95, -168236.80, -167757.53, -167642.28, -168230.33, 0.000, 0.000, 0.000, 15:29:18.145, 1578576558145
48, 163813.63, 163775.20, 163980.08, -28427.13, -187500.02, 23640.90, -187500.02, -181943.08, 0.000, 0.000, 0.000, 15:29:18.146, 1578576558146
49, -168020.45, -158250.08, -167993.20, -167686.30, -168371.28, -168115.84, -167635.03, -168226.75, 0.000, 0.000, 0.000, 15:29:18.146, 1578576558146
50, 163804.58, 163766.11, 163970.98, -28454.11, -187500.02, 23638.73, -187500.02, -181938.25, 0.000, 0.000, 0.000, 15:29:18.146, 1578576558146
51, -168018.97, -158602.59, -167989.53, -167683.91, -168346.83, -168614.25, -167636.02, -168225.17, 0.000, 0.000, 0.000, 15:29:18.146, 1578576558146
52, 163804.19, 163765.73, 163970.56, -28475.41, -187500.02, 23622.24, -187500.02, -181933.30, 0.000, 0.000, 0.000, 15:29:18.146, 1578576558146
53, -168021.03, -158994.95, -168001.36, -167695.91, -168344.64, -168929.31, -167647.98, -168235.55, -0.016, -0.020, 0.976, 15:29:18.146, 1578576558146
54, 163807.59, 163769.22, 163974.05, -28472.88, -187500.02, 23624.90, -187500.02, -181927.14, 0.000, 0.000, 0.000, 15:29:18.146, 1578576558146
55, -168024.97, -159395.22, -168017.78, -167715.34, -168350.20, -168924.39, -167665.22, -168253.00, 0.000, 0.000, 0.000, 15:29:18.146, 1578576558146
56, 163813.98, 163775.58, 163980.42, -28453.08, -187500.02, 23629.57, -187500.02, -181921.06, 0.000, 0.000, 0.000, 15:29:18.146, 1578576558146
57, -168025.75, -159792.81, -168032.67, -167732.25, -168353.94, -168916.94, -167679.41, -168268.27, 0.000, 0.000, 0.000, 15:29:18.146, 1578576558146
58, 163814.36, 163776.03, 163980.89, -28464.45, -187500.02, 23635.00, -187500.02, -181915.23, 0.000, 0.000, 0.000, 15:29:18.146, 1578576558146
59, -168030.38, -160192.58, -168049.75, -167752.08, -168358.56, -168912.22, -167696.91, -168286.64, 0.000, 0.000, 0.000, 15:29:18.146, 1578576558146
60, 163817.67, 163779.27, 163984.16, -28480.50, -187500.02, 23615.67, -187500.02, -181908.38, 0.000, 0.000, 0.000, 15:29:18.146, 1578576558146
61, -168033.81, -160594.95, -168067.48, -167772.19, -168366.09, -168909.31, -167716.13, -168304.20, 0.000, 0.000, 0.000, 15:29:18.146, 1578576558146
62, 163824.52, 163786.22, 163991.02, -28505.20, -187500.02, 23604.47, -187500.02, -181903.52, 0.000, 0.000, 0.000, 15:29:18.146, 1578576558146
63, -168037.23, -160995.50, -168084.20, -167790.52, -168370.86, -168904.97, -167732.47, -168321.75, -0.018, -0.018, 0.976, 15:29:18.146, 1578576558146
64, 163826.39, 163787.98, 163992.83, -28487.61, -187500.02, 23608.13, -187500.02, -181900.09, 0.000, 0.000, 0.000, 15:29:18.146, 1578576558146
65, -168041.80, -161393.48, -168097.92, -167807.08, -168373.67, -168898.00, -167745.77, -168335.19, 0.000, 0.000, 0.000, 15:29:18.147, 1578576558147
66, 163825.16, 163786.78, 163991.61, -28468.12, -187500.02, 23629.30, -187500.02, -181899.77, 0.000, 0.000, 0.000, 15:29:18.147, 1578576558147
67, -168042.48, -161795.64, -168113.13, -167824.64, -168378.17, -168893.95, -167761.69, -168351.92, 0.000, 0.000, 0.000, 15:29:18.147, 1578576558147
68, 163824.83, 163786.52, 163991.39, -28487.83, -187500.02, 23609.19, -187500.02, -181893.86, 0.000, 0.000, 0.000, 15:29:18.147, 1578576558147
69, -168045.30, -162202.30, -168131.00, -167843.67, -168384.14, -168891.86, -167779.19, -168369.58, 0.000, 0.000, 0.000, 15:29:18.147, 1578576558147
70, 163831.42, 163793.06, 163997.92, -28522.19, -187500.02, 23606.26, -187500.02, -181885.48, 0.000, 0.000, 0.000, 15:29:18.147, 1578576558147
71, -168051.61, -162607.80, -168146.02, -167862.67, -168389.59, -168888.86, -167795.45, -168386.80, 0.000, 0.000, 0.000, 15:29:18.147, 1578576558147
72, 163831.13, 163792.73, 163997.58, -28477.37, -187500.02, 23617.75, -187500.02, -181882.06, -0.014, -0.012, 0.974, 15:29:18.147, 1578576558147
73, -168048.72, -163012.36, -168160.02, -167879.09, -168392.56, -168883.27, -167809.78, -168400.41, 0.000, 0.000, 0.000, 15:29:18.147, 1578576558147
74, 163831.73, 163793.38, 163998.19, -28491.54, -187500.02, 23607.96, -187500.02, -181877.61, 0.000, 0.000, 0.000, 15:29:18.147, 1578576558147
75, -168054.95, -163420.39, -168175.95, -167897.05, -168397.50, -168879.56, -167825.70, -168415.94, 0.000, 0.000, 0.000, 15:29:18.147, 1578576558147
76, 163831.44, 163793.02, 163997.83, -28487.10, -187500.02, 23621.86, -187500.02, -181874.91, 0.000, 0.000, 0.000, 15:29:18.147, 1578576558147
77, -168059.28, -163829.00, -168193.58, -167916.31, -168404.30, -168878.52, -167843.42, -168433.59, 0.000, 0.000, 0.000, 15:29:18.147, 1578576558147
78, 163833.05, 163794.67, 163999.48, -28494.49, -187500.02, 23615.36, -187500.02, -181866.92, 0.000, 0.000, 0.000, 15:29:18.147, 1578576558147
79, -168059.41, -164239.94, -168207.89, -167932.83, -168407.73, -168875.63, -167858.08, -168448.66, 0.000, 0.000, 0.000, 15:29:18.147, 1578576558147
80, 163840.06, 163801.67, 164006.64, -28523.13, -187500.02, 23598.30, -187500.02, -181860.88, 0.000, 0.000, 0.000, 15:29:18.147, 1578576558147
81, -168064.48, -164645.63, -168221.25, -167949.17, -168410.83, -168870.23, -167870.95, -168463.81, 0.000, 0.000, 0.000, 15:29:18.147, 1578576558147
82, 163841.55, 163803.13, 164008.13, -28543.85, -187500.02, 23596.60, -187500.02, -181854.72, -0.018, -0.018, 0.980, 15:29:18.147, 1578576558147
83, -168065.39, -165052.06, -168235.78, -167965.70, -168415.30, -168865.66, -167885.47, -168478.06, 0.000, 0.000, 0.000, 15:29:18.148, 1578576558148
84, 163842.81, 163804.38, 164009.34, -28529.21, -187500.02, 23590.43, -187500.02, -181848.00, 0.000, 0.000, 0.000, 15:29:18.148, 1578576558148
85, -168069.58, -165463.61, -168252.80, -167983.19, -168420.92, -168863.69, -167902.52, -168495.42, 0.000, 0.000, 0.000, 15:29:18.148, 1578576558148
86, 163850.27, 163811.95, 164016.72, -28521.45, -187500.02, 23600.42, -187500.02, -181841.83, 0.000, 0.000, 0.000, 15:29:18.148, 1578576558148
87, -168073.47, -165875.23, -168267.66, -167999.64, -168424.84, -168860.20, -167915.53, -168510.27, 0.000, 0.000, 0.000, 15:29:18.148, 1578576558148
88, 163849.09, 163810.78, 164015.73, -28519.39, -187500.02, 23603.38, -187500.02, -181839.09, 0.000, 0.000, 0.000, 15:29:18.148, 1578576558148
89, -168077.33, -166284.50, -168279.30, -168013.63, -168426.31, -168855.73, -167927.33, -168522.77, 0.000, 0.000, 0.000, 15:29:18.148, 1578576558148
90, 163852.92, 163814.55, 164019.36, -28552.32, -187500.02, 23611.06, -187500.02, -181838.19, 0.000, 0.000, 0.000, 15:29:18.148, 1578576558148
91, -168080.83, -166699.39, -168292.80, -168030.42, -168429.19, -168851.67, -167941.34, -168537.44, 0.000, 0.000, 0.000, 15:29:18.148, 1578576558148
92, 163855.05, 163816.58, 164021.55, -28523.26, -187500.02, 23618.30, -187500.02, -181832.94, -0.014, -0.020, 0.978, 15:29:18.148, 1578576558148
93, -168080.00, -167116.20, -168309.14, -168049.22, -168436.42, -168850.39, -167957.94, -168554.77, 0.000, 0.000, 0.000, 15:29:18.148, 1578576558148
94, 163853.77, 163815.28, 164020.20, -28549.14, -187500.02, 23613.83, -187500.02, -181829.28, 0.000, 0.000, 0.000, 15:29:18.148, 1578576558148
95, -168081.02, -167530.98, -168323.89, -168065.88, -168441.41, -168847.34, -167971.77, -168569.52, 0.000, 0.000, 0.000, 15:29:18.148, 1578576558148
96, 163854.42, 163815.95, 164020.83, -28550.24, -187500.02, 23613.88, -187500.02, -181823.81, 0.000, 0.000, 0.000, 15:29:18.148, 1578576558148
97, -168086.23, -168021.67, -168339.50, -168083.14, -168446.70, -168844.84, -167988.80, -168585.75, 0.000, 0.000, 0.000, 15:29:18.148, 1578576558148
98, 163861.50, 163823.11, 164027.91, -28549.46, -187500.02, 23605.39, -187500.02, -181820.70, 0.000, 0.000, 0.000, 15:29:18.148, 1578576558148
99, -168104.30, -168336.28, -168383.75, -168128.66, -168480.20, -168870.17, -168032.42, -168630.58, 0.000, 0.000, 0.000, 15:29:18.148, 1578576558148
100, 163870.77, 163832.41, 164037.28, -28564.46, -187500.02, 23610.55, -187500.02, -181816.80, 0.000, 0.000, 0.000, 15:29:18.148, 1578576558148
101, -168129.34, -168363.38, -168438.30, -168184.44, -168524.70, -168905.95, -168086.61, -168685.02, 0.000, 0.000, 0.000, 15:29:18.149, 1578576558149
102, 163880.14, 163841.72, 164046.73, -28556.07, -187500.02, 23605.56, -187500.02, -181809.58, -0.012, -0.016, 0.980, 15:29:18.149, 1578576558149
103, -168151.55, -168388.83, -168490.23, -168238.73, -168568.17, -168940.41, -168138.63, -168737.97, 0.000, 0.000, 0.000, 15:29:18.149, 1578576558149
104, 163884.92, 163846.48, 164051.53, -28563.47, -187500.02, 23611.35, -187500.02, -181808.50, 0.000, 0.000, 0.000, 15:29:18.626, 1578576558626
105, -168172.53, -168413.33, -168540.31, -168290.66, -168608.56, -168973.38, -168188.63, -168789.30, 0.000, 0.000, 0.000, 15:29:18.626, 1578576558626
106, 163893.69, 163855.42, 164060.28, -28581.26, -187500.02, 23607.15, -187500.02, -181806.64, 0.000, 0.000, 0.000, 15:29:18.626, 1578576558626
107, -168194.86, -168440.80, -168593.06, -168343.34, -168651.14, -169008.02, -168241.22, -168842.69, 0.000, 0.000, 0.000, 15:29:18.626, 1578576558626
108, 163900.59, 163862.22, 164067.13, -28565.51, -187500.02, 23611.04, -187500.02, -181799.27, 0.000, 0.000, 0.000, 15:29:18.626, 1578576558626
109, -168219.89, -168469.45, -168646.61, -168397.66, -168696.61, -169043.91, -168295.55, -168897.06, 0.000, 0.000, 0.000, 15:29:18.626, 1578576558626
110, 163909.38, 163870.92, 164075.86, -28590.05, -187500.02, 23601.34, -187500.02, -181797.06, 0.000, 0.000, 0.000, 15:29:18.626, 1578576558626
111, -168242.69, -168497.30, -168698.33, -168451.41, -168738.63, -169078.27, -168348.94, -168949.44, 0.000, 0.000, 0.000, 15:29:18.626, 1578576558626
112, 163918.56, 163880.13, 164085.11, -28575.68, -187500.02, 23596.15, -187500.02, -181791.58, -0.020, -0.016, 0.974, 15:29:18.627, 1578576558627
113, -168263.08, -168523.30, -168748.06, -168504.23, -168778.70, -169111.45, -168398.63, -169000.11, 0.000, 0.000, 0.000, 15:29:18.627, 1578576558627
114, 163924.36, 163885.89, 164090.81, -28607.37, -187500.02, 23596.40, -187500.02, -181786.59, 0.000, 0.000, 0.000, 15:29:18.627, 1578576558627
115, -168285.55, -168551.92, -168799.83, -168558.39, -168821.95, -169145.69, -168451.09, -169053.45, 0.000, 0.000, 0.000, 15:29:18.627, 1578576558627
116, 163932.92, 163894.52, 164099.55, -28608.67, -187500.02, 23590.77, -187500.02, -181778.33, 0.000, 0.000, 0.000, 15:29:18.627, 1578576558627
117, -168310.63, -168581.97, -168854.91, -168612.23, -168867.05, -169182.09, -168504.28, -169108.33, 0.000, 0.000, 0.000, 15:29:18.627, 1578576558627
118, 163938.70, 163900.27, 164105.23, -28581.87, -187500.02, 23594.05, -187500.02, -181776.14, 0.000, 0.000, 0.000, 15:29:18.627, 1578576558627
119, -168333.59, -168611.09, -168906.27, -168665.50, -168909.56, -169215.73, -168557.63, -169160.95, 0.000, 0.000, 0.000, 15:29:18.627, 1578576558627
120, 163948.50, 163910.20, 164115.08, -28594.61, -187500.02, 23587.82, -187500.02, -181772.45, 0.000, 0.000, 0.000, 15:29:18.627, 1578576558627
121, -168354.00, -168637.84, -168955.52, -168716.97, -168949.91, -169248.47, -168607.36, -169212.27, -0.022, -0.018, 0.972, 15:29:18.627, 1578576558627
122, 163957.80, 163919.42, 164124.42, -28618.99, -187500.02, 23593.34, -187500.02, -181767.11, 0.000, 0.000, 0.000, 15:29:18.627, 1578576558627
123, -168374.83, -168666.42, -169006.55, -168770.55, -168992.61, -169282.58, -168660.00, -169264.64, 0.000, 0.000, 0.000, 15:29:18.627, 1578576558627
124, 163968.77, 163930.38, 164135.30, -28601.04, -187500.02, 23593.43, -187500.02, -181762.02, 0.000, 0.000, 0.000, 15:29:18.628, 1578576558628
125, -168398.84, -168695.98, -169059.36, -168824.16, -169035.00, -169318.75, -168712.55, -169317.72, 0.000, 0.000, 0.000, 15:29:18.628, 1578576558628
126, 163976.48, 163937.98, 164143.06, -28592.33, -187500.02, 23602.97, -187500.02, -181757.05, 0.000, 0.000, 0.000, 15:29:18.628, 1578576558628
127, -168421.02, -168723.23, -169111.80, -168877.14, -169077.42, -169353.80, -168764.50, -169370.31, 0.000, 0.000, 0.000, 15:29:18.628, 1578576558628
128, 163981.95, 163943.56, 164148.64, -28600.89, -187500.02, 23590.57, -187500.02, -181754.83, 0.000, 0.000, 0.000, 15:29:18.628, 1578576558628
129, -168442.03, -168750.97, -169161.55, -168928.89, -169118.33, -169386.75, -168814.89, -169420.45, 0.000, 0.000, 0.000, 15:29:18.628, 1578576558628
130, 163984.95, 163946.55, 164151.63, -28648.16, -187500.02, 23590.97, -187500.02, -181752.58, 0.000, 0.000, 0.000, 15:29:18.628, 1578576558628
131, -168464.63, -168780.47, -169213.20, -168982.47, -169160.70, -169420.73, -168865.84, -169473.05, -0.020, -0.020, 0.978, 15:29:18.628, 1578576558628
132, 163995.09, 163956.66, 164161.69, -28580.64, -187500.02, 23607.89, -187500.02, -181748.75, 0.000, 0.000, 0.000, 15:29:18.628, 1578576558628
133, -168488.47, -168811.16, -169266.67, -169037.19, -169205.47, -169457.55, -168920.20, -169526.73, 0.000, 0.000, 0.000, 15:29:18.628, 1578576558628
134, 164004.33, 163966.05, 164171.14, -28602.95, -187500.02, 23594.14, -187500.02, -181745.61, 0.000, 0.000, 0.000, 15:29:18.628, 1578576558628
135, -168511.06, -168840.84, -169317.97, -169089.94, -169247.33, -169491.84, -168971.92, -169579.06, 0.000, 0.000, 0.000, 15:29:18.629, 1578576558629
136, 164009.34, 163971.00, 164176.13, -28641.17, -187500.02, 23596.20, -187500.02, -181743.39, 0.000, 0.000, 0.000, 15:29:18.629, 1578576558629
137, -168531.55, -168868.94, -169366.77, -169141.39, -169288.64, -169524.41, -169022.20, -169629.11, 0.000, 0.000, 0.000, 15:29:18.629, 1578576558629
138, 164014.59, 163976.27, 164181.36, -28623.42, -187500.02, 23598.01, -187500.02, -181741.61, 0.000, 0.000, 0.000, 15:29:18.629, 1578576558629
139, -168553.83, -168898.27, -169417.50, -169194.67, -169331.00, -169558.73, -169073.78, -169680.84, 0.000, 0.000, 0.000, 15:29:18.629, 1578576558629
140, 164025.08, 163986.73, 164191.84, -28613.29, -187500.02, 23585.69, -187500.02, -181735.97, 0.000, 0.000, 0.000, 15:29:18.629, 1578576558629
141, -168579.06, -168928.58, -169471.14, -169248.16, -169375.64, -169595.00, -169126.33, -169735.88, -0.018, -0.014, 0.980, 15:29:18.629, 1578576558629
142, 164034.97, 163996.55, 164201.72, -28645.32, -187500.02, 23582.97, -187500.02, -181731.41, 0.000, 0.000, 0.000, 15:29:18.629, 1578576558629
143, -168601.42, -168958.69, -169522.44, -169301.78, -169419.31, -169630.06, -169178.22, -169788.27, 0.000, 0.000, 0.000, 15:29:18.629, 1578576558629
144, 164044.00, 164005.61, 164210.77, -28636.43, -187500.02, 23592.13, -187500.02, -181728.06, 0.000, 0.000, 0.000, 15:29:18.629, 1578576558629
145, -168621.69, -168987.88, -169571.44, -169354.00, -169459.83, -169663.50, -169228.30, -169839.59, 0.000, 0.000, 0.000, 15:29:18.629, 1578576558629
146, 164050.69, 164012.36, 164217.50, -28622.53, -187500.02, 23594.19, -187500.02, -181722.06, 0.000, 0.000, 0.000, 15:29:18.629, 1578576558629
147, -168643.48, -169017.45, -169622.58, -169406.70, -169502.91, -169698.94, -169280.55, -169891.63, 0.000, 0.000, 0.000, 15:29:18.630, 1578576558630
148, 164059.67, 164021.34, 164226.39, -28651.98, -187500.02, 23583.62, -187500.02, -181717.02, 0.000, 0.000, 0.000, 15:29:18.630, 1578576558630
149, -168667.94, -169049.02, -169676.13, -169461.06, -169547.08, -169734.92, -169333.69, -169945.02, 0.000, 0.000, 0.000, 15:29:18.630, 1578576558630
150, 164066.45, 164028.09, 164233.23, -28623.06, -187500.02, 23593.00, -187500.02, -181713.81, 0.000, 0.000, 0.000, 15:29:18.630, 1578576558630
151, -168691.09, -169078.58, -169727.72, -169514.28, -169590.19, -169769.50, -169385.25, -169996.44, -0.018, -0.016, 0.974, 15:29:18.630, 1578576558630
152, 164075.97, 164037.55, 164242.72, -28656.66, -187500.02, 23585.27, -187500.02, -181706.38, 0.000, 0.000, 0.000, 15:29:18.630, 1578576558630
153, -168710.67, -169107.25, -169776.69, -169565.09, -169629.95, -169802.83, -169434.00, -170045.98, 0.000, 0.000, 0.000, 15:29:18.630, 1578576558630
154, 164084.47, 164046.17, 164251.23, -28636.52, -187500.02, 23591.44, -187500.02, -181703.72, 0.000, 0.000, 0.000, 15:29:18.630, 1578576558630
155, -168733.06, -169137.30, -169827.19, -169619.00, -169672.75, -169837.38, -169485.56, -170099.05, 0.000, 0.000, 0.000, 15:29:18.630, 1578576558630
156, 164092.00, 164053.58, 164258.72, -28657.64, -187500.02, 23592.04, -187500.02, -181699.50, 0.000, 0.000, 0.000, 15:29:18.630, 1578576558630
157, -168756.42, -169168.20, -169879.78, -169672.95, -169716.48, -169873.03, -169538.11, -170151.67, 0.000, 0.000, 0.000, 15:29:18.630, 1578576558630
158, 164102.28, 164063.81, 164268.95, -28660.59, -187500.02, 23581.34, -187500.02, -181695.69, 0.000, 0.000, 0.000, 15:29:18.630, 1578576558630
159, -168778.52, -169197.72, -169931.75, -169725.16, -169759.38, -169907.19, -169589.39, -170204.33, 0.000, 0.000, 0.000, 15:29:18.631, 1578576558631
160, 164106.13, 164067.59, 164272.83, -28663.52, -187500.02, 23585.07, -187500.02, -181694.39, -0.014, -0.020, 0.976, 15:29:18.631, 1578576558631
161, -168798.33, -169226.11, -169980.83, -169777.11, -169800.23, -169940.27, -169638.67, -170254.42, 0.000, 0.000, 0.000, 15:29:18.631, 1578576558631
162, 164114.44, 164075.98, 164281.19, -28647.87, -187500.02, 23578.47, -187500.02, -181691.33, 0.000, 0.000, 0.000, 15:29:18.631, 1578576558631
163, -168820.23, -169255.45, -170030.63, -169828.73, -169842.63, -169974.95, -169688.72, -170304.44, 0.000, 0.000, 0.000, 15:29:18.631, 1578576558631
164, 164120.27, 164081.84, 164287.03, -28683.77, -187500.02, 23565.44, -187500.02, -181687.48, 0.000, 0.000, 0.000, 15:29:18.631, 1578576558631
165, -168844.30, -169287.50, -170082.95, -169883.31, -169887.09, -170011.94, -169742.78, -170358.16, 0.000, 0.000, 0.000, 15:29:18.631, 1578576558631
166, 164129.44, 164091.06, 164296.17, -28660.39, -187500.02, 23569.15, -187500.02, -181684.06, 0.000, 0.000, 0.000, 15:29:18.631, 1578576558631
167, -168867.13, -169318.17, -170134.23, -169935.86, -169929.98, -170046.80, -169793.39, -170409.72, 0.000, 0.000, 0.000, 15:29:18.631, 1578576558631
168, 164137.64, 164099.38, 164304.50, -28672.66, -187500.02, 23570.90, -187500.02, -181682.23, 0.000, 0.000, 0.000, 15:29:18.631, 1578576558631
169, -168886.25, -169346.64, -170183.52, -169986.78, -169970.55, -170079.53, -169843.09, -170458.94, 0.000, 0.000, 0.000, 15:29:18.632, 1578576558632
170, 164142.69, 164104.30, 164309.50, -28690.47, -187500.02, 23572.64, -187500.02, -181682.03, -0.016, -0.018, 0.970, 15:29:18.632, 1578576558632
171, -168908.13, -169377.41, -170234.67, -170039.48, -170012.50, -170114.67, -169892.98, -170510.61, 0.000, 0.000, 0.000, 15:29:18.632, 1578576558632
172, 164151.55, 164113.16, 164318.36, -28698.03, -187500.02, 23569.64, -187500.02, -181676.53, 0.000, 0.000, 0.000, 15:29:18.632, 1578576558632
173, -168932.31, -169409.44, -170288.22, -170093.75, -170057.09, -170151.67, -169946.95, -170564.28, 0.000, 0.000, 0.000, 15:29:18.632, 1578576558632
174, 164158.02, 164119.59, 164324.86, -28663.32, -187500.02, 23563.61, -187500.02, -181670.66, 0.000, 0.000, 0.000, 15:29:18.632, 1578576558632
175, -168954.97, -169439.25, -170339.11, -170146.02, -170100.33, -170186.72, -169997.86, -170616.05, 0.000, 0.000, 0.000, 15:29:18.632, 1578576558632
176, 164165.13, 164126.80, 164331.94, -28690.32, -187500.02, 23578.54, -187500.02, -181667.08, 0.000, 0.000, 0.000, 15:29:18.632, 1578576558632
177, -168974.83, -169468.55, -170387.91, -170197.00, -170141.41, -170219.41, -170047.91, -170666.11, 0.000, 0.000, 0.000, 15:29:18.632, 1578576558632
178, 164173.72, 164135.25, 164340.55, -28675.83, -187500.02, 23579.55, -187500.02, -181665.70, 0.000, 0.000, 0.000, 15:29:18.633, 1578576558633
179, -168996.97, -169498.75, -170438.11, -170249.61, -170184.30, -170254.33, -170098.25, -170717.88, 0.000, 0.000, 0.000, 15:29:18.633, 1578576558633
180, 164182.16, 164143.66, 164348.97, -28673.93, -187500.02, 23571.41, -187500.02, -181661.45, -0.018, -0.016, 0.974, 15:29:18.633, 1578576558633
181, -169021.52, -169530.48, -170490.30, -170303.52, -170228.63, -170290.61, -170150.25, -170771.41, 0.000, 0.000, 0.000, 15:29:18.633, 1578576558633
182, 164187.55, 164149.08, 164354.45, -28688.06, -187500.02, 23566.31, -187500.02, -181659.03, 0.000, 0.000, 0.000, 15:29:18.633, 1578576558633
183, -169043.33, -169560.63, -170541.19, -170355.41, -170270.70, -170324.88, -170202.16, -170823.30, 0.000, 0.000, 0.000, 15:29:18.633, 1578576558633
184, 164197.50, 164159.05, 164364.42, -28722.62, -187500.02, 23567.52, -187500.02, -181654.00, 0.000, 0.000, 0.000, 15:29:18.633, 1578576558633
185, -169064.03, -169588.98, -170589.69, -170405.80, -170311.48, -170357.59, -170251.05, -170873.52, 0.000, 0.000, 0.000, 15:29:18.633, 1578576558633
186, 164202.97, 164164.44, 164369.88, -28680.75, -187500.02, 23574.79, -187500.02, -181653.27, 0.000, 0.000, 0.000, 15:29:18.633, 1578576558633
187, -169085.38, -169620.83, -170641.09, -170459.11, -170355.00, -170392.66, -170301.20, -170925.48, 0.000, 0.000, 0.000, 15:29:18.633, 1578576558633
188, 164213.36, 164174.88, 164380.27, -28699.91, -187500.02, 23559.65, -187500.02, -181648.39, 0.000, 0.000, 0.000, 15:29:18.634, 1578576558634
189, -169109.63, -169652.89, -170694.19, -170513.09, -170400.08, -170429.81, -170353.86, -170979.50, 0.000, 0.000, 0.000, 15:29:18.634, 1578576558634
190, 164220.83, 164182.31, 164387.73, -28716.04, -187500.02, 23557.89, -187500.02, -181642.78, -0.018, -0.022, 0.974, 15:29:18.634, 1578576558634
191, -169132.09, -169684.31, -170745.34, -170565.78, -170443.00, -170465.27, -170405.89, -171030.73, 0.000, 0.000, 0.000, 15:29:18.634, 1578576558634
192, 164229.58, 164191.08, 164396.45, -28676.46, -187500.02, 23559.27, -187500.02, -181641.47, 0.000, 0.000, 0.000, 15:29:18.634, 1578576558634
193, -169152.16, -169713.59, -170793.70, -170617.59, -170483.80, -170498.56, -170454.69, -171080.41, 0.000, 0.000, 0.000, 15:29:18.634, 1578576558634
194, 164236.45, 164197.92, 164403.31, -28698.97, -187500.02, 23564.15, -187500.02, -181641.13, 0.000, 0.000, 0.000, 15:29:18.634, 1578576558634
195, -169174.88, -169743.45, -170845.28, -170671.03, -170526.39, -170533.91, -170505.89, -171131.88, 0.000, 0.000, 0.000, 15:29:18.634, 1578576558634
196, 164239.31, 164200.73, 164406.17, -28731.94, -187500.02, 23558.11, -187500.02, -181637.33, 0.000, 0.000, 0.000, 15:29:18.634, 1578576558634
197, -169199.44, -169775.91, -170898.45, -170725.70, -170571.55, -170571.34, -170559.92, -171185.72, 0.000, 0.000, 0.000, 15:29:18.634, 1578576558634
198, 164249.89, 164211.36, 164416.70, -28711.93, -187500.02, 23559.52, -187500.02, -181636.19, 0.000, 0.000, 0.000, 15:29:18.635, 1578576558635
199, -169221.81, -169806.70, -170949.59, -170777.53, -170613.83, -170607.19, -170611.78, -171237.56, -0.024, -0.016, 0.982, 15:29:18.635, 1578576558635
200, 164256.84, 164218.28, 164423.66, -28707.39, -187500.02, 23561.64, -187500.02, -181634.31, 0.000, 0.000, 0.000, 15:29:18.635, 1578576558635
201, -169241.50, -169836.69, -170997.61, -170828.14, -170654.47, -170640.05, -170659.94, -171287.02, 0.000, 0.000, 0.000, 15:29:18.635, 1578576558635
202, 164265.64, 164227.14, 164432.48, -28718.37, -187500.02, 23556.23, -187500.02, -181628.73, 0.000, 0.000, 0.000, 15:29:18.635, 1578576558635
203, -169263.61, -169867.17, -171048.38, -170880.88, -170698.34, -170674.56, -170710.09, -171338.30, 0.000, 0.000, 0.000, 15:29:18.635, 1578576558635
204, 164274.50, 164235.98, 164441.38, -28716.25, -187500.02, 23564.95, -187500.02, -181624.72, 0.000, 0.000, 0.000, 15:29:18.635, 1578576558635
205, -169287.38, -169898.31, -171101.70, -170933.97, -170742.94, -170711.20, -170763.13, -171392.72, 0.000, 0.000, 0.000, 15:29:18.635, 1578576558635
206, 164278.45, 164239.97, 164445.41, -28705.74, -187500.02, 23568.71, -187500.02, -181624.14, 0.000, 0.000, 0.000, 15:29:18.635, 1578576558635
207, -169309.39, -169928.78, -171151.13, -170986.50, -170785.73, -170747.16, -170813.75, -171444.27, 0.000, 0.000, 0.000, 15:29:18.635, 1578576558635
208, 164284.69, 164246.17, 164451.59, -28692.58, -187500.02, 23571.19, -187500.02, -181622.72, 0.000, 0.000, 0.000, 15:29:18.635, 1578576558635
209, -169330.22, -169959.48, -171199.09, -171038.06, -170826.84, -170780.48, -170862.52, -171493.34, -0.022, -0.020, 0.980, 15:29:18.635, 1578576558635
210, 164296.11, 164257.58, 164463.03, -28719.22, -187500.02, 23552.66, -187500.02, -181619.81, 0.000, 0.000, 0.000, 15:29:18.636, 1578576558636
211, -169352.20, -169990.86, -171249.36, -171090.53, -170869.84, -170815.83, -170914.31, -171545.91, 0.000, 0.000, 0.000, 15:29:18.636, 1578576558636
212, 164305.41, 164266.89, 164472.41, -28734.53, -187500.02, 23551.16, -187500.02, -181615.77, 0.000, 0.000, 0.000, 15:29:18.636, 1578576558636
213, -169375.75, -170024.11, -171302.33, -171144.59, -170914.16, -170853.53, -170966.81, -171598.69, 0.000, 0.000, 0.000, 15:29:18.636, 1578576558636
214, 164311.67, 164273.16, 164478.55, -28714.79, -187500.02, 23554.24, -187500.02, -181611.83, 0.000, 0.000, 0.000, 15:29:18.636, 1578576558636
215, -169398.86, -170054.86, -171353.50, -171197.39, -170957.17, -170887.50, -171018.36, -171650.66, 0.000, 0.000, 0.000, 15:29:18.636, 1578576558636
216, 164316.45, 164277.83, 164483.33, -28706.86, -187500.02, 23562.58, -187500.02, -181608.81, 0.000, 0.000, 0.000, 15:29:18.636, 1578576558636
217, -169419.78, -170084.23, -171402.95, -171248.13, -170998.64, -170921.09, -171067.17, -171700.63, 0.000, 0.000, 0.000, 15:29:18.636, 1578576558636
218, 164325.45, 164286.97, 164492.38, -28724.16, -187500.02, 23550.18, -187500.02, -181605.44, 0.000, 0.000, 0.000, 15:29:18.636, 1578576558636
219, -169441.33, -170115.03, -171452.61, -171300.48, -171041.20, -170956.38, -171118.11, -171752.66, -0.024, -0.022, 0.976, 15:29:18.637, 1578576558637
220, 164329.39, 164290.88, 164496.31, -28696.60, -187500.02, 23555.92, -187500.02, -181603.64, 0.000, 0.000, 0.000, 15:29:18.637, 1578576558637
221, -169465.31, -170146.92, -171505.59, -171354.50, -171086.27, -170993.91, -171170.91, -171805.98, 0.000, 0.000, 0.000, 15:29:18.637, 1578576558637
222, 164338.89, 164300.36, 164505.72, -28699.64, -187500.02, 23557.11, -187500.02, -181599.52, 0.000, 0.000, 0.000, 15:29:18.637, 1578576558637
223, -169486.92, -170178.33, -171554.66, -171406.83, -171128.70, -171029.42, -171221.52, -171857.63, 0.000, 0.000, 0.000, 15:29:18.637, 1578576558637
224, 164347.88, 164309.41, 164514.88, -28721.39, -187500.02, 23549.17, -187500.02, -181598.17, 0.000, 0.000, 0.000, 15:29:19.104, 1578576559104
225, -169506.86, -170207.64, -171603.25, -171457.16, -171169.19, -171063.53, -171270.39, -171907.02, 0.000, 0.000, 0.000, 15:29:19.104, 1578576559104
226, 164355.83, 164317.38, 164522.80, -28730.75, -187500.02, 23546.58, -187500.02, -181595.25, 0.000, 0.000, 0.000, 15:29:19.105, 1578576559105
227, -169528.92, -170238.33, -171653.77, -171508.81, -171212.20, -171099.31, -171320.64, -171958.61, 0.000, 0.000, 0.000, 15:29:19.105, 1578576559105
228, 164358.94, 164320.45, 164525.84, -28715.96, -187500.02, 23558.02, -187500.02, -181595.41, 0.000, 0.000, 0.000, 15:29:19.105, 1578576559105
229, -169552.70, -170270.58, -171705.98, -171562.23, -171257.61, -171135.45, -171373.50, -172012.34, -0.020, -0.022, 0.972, 15:29:19.105, 1578576559105
230, 164370.19, 164331.67, 164537.05, -28725.68, -187500.02, 23543.76, -187500.02, -181592.14, 0.000, 0.000, 0.000, 15:29:19.105, 1578576559105
231, -169575.58, -170301.20, -171755.73, -171614.20, -171299.98, -171171.17, -171423.88, -172064.02, 0.000, 0.000, 0.000, 15:29:19.105, 1578576559105
232, 164375.64, 164337.19, 164542.67, -28692.91, -187500.02, 23574.90, -187500.02, -181588.53, 0.000, 0.000, 0.000, 15:29:19.105, 1578576559105
233, -169595.36, -170331.03, -171802.92, -171664.72, -171341.56, -171205.48, -171472.23, -172114.30, 0.000, 0.000, 0.000, 15:29:19.105, 1578576559105
234, 164384.69, 164346.14, 164551.61, -28728.09, -187500.02, 23563.50, -187500.02, -181588.69, 0.000, 0.000, 0.000, 15:29:19.105, 1578576559105
235, -169616.59, -170362.00, -171854.20, -171717.42, -171385.50, -171240.23, -171522.70, -172165.58, 0.000, 0.000, 0.000, 15:29:19.106, 1578576559106
236, 164394.86, 164356.38, 164561.83, -28729.26, -187500.02, 23566.31, -187500.02, -181585.25, 0.000, 0.000, 0.000, 15:29:19.106, 1578576559106
237, -169640.86, -170394.70, -171907.13, -171770.52, -171429.67, -171276.09, -171575.36, -172219.05, 0.000, 0.000, 0.000, 15:29:19.106, 1578576559106
238, 164404.61, 164365.94, 164571.44, -28702.34, -187500.02, 23561.78, -187500.02, -181581.23, -0.020, -0.014, 0.972, 15:29:19.106, 1578576559106
239, -169663.30, -170425.91, -171956.72, -171822.30, -171472.09, -171311.14, -171625.89, -172269.66, 0.000, 0.000, 0.000, 15:29:19.106, 1578576559106
240, 164410.44, 164371.81, 164577.28, -28726.10, -187500.02, 23565.82, -187500.02, -181576.06, 0.000, 0.000, 0.000, 15:29:19.106, 1578576559106
241, -169683.84, -170456.19, -172005.67, -171873.39, -171514.03, -171345.30, -171676.05, -172319.77, 0.000, 0.000, 0.000, 15:29:19.106, 1578576559106
242, 164416.94, 164378.44, 164583.91, -28683.03, -187500.02, 23582.63, -187500.02, -181577.56, 0.000, 0.000, 0.000, 15:29:19.106, 1578576559106
243, -169706.00, -170487.09, -172056.25, -171925.39, -171557.17, -171381.30, -171726.72, -172371.19, 0.000, 0.000, 0.000, 15:29:19.106, 1578576559106
244, 164419.41, 164380.80, 164586.34, -28728.36, -187500.02, 23571.88, -187500.02, -181576.09, 0.000, 0.000, 0.000, 15:29:19.106, 1578576559106
245, -169729.39, -170520.33, -172108.66, -171980.11, -171603.08, -171418.00, -171779.70, -172425.59, 0.000, 0.000, 0.000, 15:29:19.106, 1578576559106
246, 164426.33, 164387.70, 164593.28, -28726.08, -187500.02, 23573.74, -187500.02, -181573.72, 0.000, 0.000, 0.000, 15:29:19.108, 1578576559108
247, -169750.78, -170551.11, -172159.48, -172032.25, -171645.61, -171453.19, -171829.47, -172477.23, 0.000, 0.000, 0.000, 15:29:19.108, 1578576559108
248, 164435.70, 164397.16, 164602.73, -28683.12, -187500.02, 23574.81, -187500.02, -181567.27, -0.020, -0.018, 0.976, 15:29:19.108, 1578576559108
249, -169770.66, -170581.17, -172208.30, -172083.42, -171685.58, -171486.25, -171877.78, -172526.58, 0.000, 0.000, 0.000, 15:29:19.108, 1578576559108
250, 164443.92, 164405.36, 164610.91, -28702.19, -187500.02, 23581.11, -187500.02, -181565.92, 0.000, 0.000, 0.000, 15:29:19.108, 1578576559108
251, -169792.77, -170612.22, -172258.20, -172135.25, -171728.80, -171520.83, -171928.45, -172578.78, 0.000, 0.000, 0.000, 15:29:19.108, 1578576559108
252, 164450.81, 164412.25, 164617.73, -28709.38, -187500.02, 23583.35, -187500.02, -181566.36, 0.000, 0.000, 0.000, 15:29:19.108, 1578576559108
253, -169817.50, -170645.30, -172311.53, -172189.61, -171774.52, -171558.58, -171981.56, -172633.02, 0.000, 0.000, 0.000, 15:29:19.108, 1578576559108
254, 164455.22, 164416.66, 164622.20, -28730.60, -187500.02, 23579.64, -187500.02, -181565.03, 0.000, 0.000, 0.000, 15:29:19.108, 1578576559108
255, -169839.72, -170677.44, -172362.16, -172242.30, -171818.09, -171594.27, -172031.78, -172685.28, 0.000, 0.000, 0.000, 15:29:19.108, 1578576559108
0, 164463.06, 164424.50, 164630.09, -28715.46, -187500.02, 23581.98, -187500.02, -181563.80, 0.000, 0.000, 0.000, 15:29:19.108, 1578576559108
1, -169859.08, -170706.86, -172410.42, -172293.44, -171859.00, -171628.02, -172081.73, -172734.20, 0.000, 0.000, 0.000, 15:29:19.108, 1578576559108
2, 164467.02, 164428.45, 164634.00, -28697.13, -187500.02, 23585.76, -187500.02, -181564.00, -0.022, -0.020, 0.976, 15:29:19.108, 1578576559108
3, -169881.81, -170738.00, -172460.13, -172345.58, -171901.92, -171664.31, -172133.69, -172786.73, 0.000, 0.000, 0.000, 15:29:19.109, 1578576559109
4, 164474.08, 164435.61, 164641.14, -28674.56, -187500.02, 23582.16, -187500.02, -181561.67, 0.000, 0.000, 0.000, 15:29:19.109, 1578576559109
5, -169906.52, -170771.88, -172512.56, -172398.55, -171946.73, -171700.89, -172184.59, -172840.98, 0.000, 0.000, 0.000, 15:29:19.109, 1578576559109
6, 164480.16, 164441.59, 164647.06, -28707.44, -187500.02, 23573.54, -187500.02, -181559.50, 0.000, 0.000, 0.000, 15:29:19.109, 1578576559109
7, -169928.27, -170802.23, -172563.22, -172450.66, -171989.41, -171736.52, -172235.05, -172892.39, 0.000, 0.000, 0.000, 15:29:19.109, 1578576559109
8, 164490.44, 164452.03, 164657.55, -28737.50, -187500.02, 23558.36, -187500.02, -181556.42, 0.000, 0.000, 0.000, 15:29:19.109, 1578576559109
9, -169948.69, -170832.19, -172611.52, -172501.61, -172030.44, -171769.53, -172283.42, -172942.42, 0.000, 0.000, 0.000, 15:29:19.109, 1578576559109
10, 164495.47, 164456.95, 164662.53, -28719.42, -187500.02, 23572.78, -187500.02, -181555.19, 0.000, 0.000, 0.000, 15:29:19.109, 1578576559109
11, -169970.06, -170862.63, -172661.78, -172553.20, -172073.09, -171805.11, -172333.80, -172994.58, 0.000, 0.000, 0.000, 15:29:19.109, 1578576559109
12, 164505.80, 164467.28, 164672.88, -28697.61, -187500.02, 23581.85, -187500.02, -181552.91, -0.020, -0.020, 0.976, 15:29:19.109, 1578576559109
13, -169992.81, -170894.45, -172713.36, -172605.95, -172118.94, -171842.39, -172386.23, -173047.89, 0.000, 0.000, 0.000, 15:29:19.109, 1578576559109
14, 164512.64, 164474.14, 164679.72, -28698.97, -187500.02, 23570.79, -187500.02, -181550.92, 0.000, 0.000, 0.000, 15:29:19.109, 1578576559109
15, -170015.05, -170925.27, -172763.69, -172657.67, -172161.95, -171877.06, -172436.61, -173099.61, 0.000, 0.000, 0.000, 15:29:19.109, 1578576559109
16, 164521.28, 164482.86, 164688.47, -28717.47, -187500.02, 23569.80, -187500.02, -181547.67, 0.000, 0.000, 0.000, 15:29:19.109, 1578576559109
17, -170033.98, -170954.70, -172811.70, -172707.08, -172203.58, -171910.34, -172485.03, -173149.22, 0.000, 0.000, 0.000, 15:29:19.109, 1578576559109
18, 164530.45, 164491.94, 164697.58, -28690.56, -187500.02, 23569.44, -187500.02, -181547.80, 0.000, 0.000, 0.000, 15:29:19.109, 1578576559109
19, -170056.25, -170985.34, -172862.08, -172759.42, -172245.95, -171945.81, -172534.98, -173201.16, 0.000, 0.000, 0.000, 15:29:19.109, 1578576559109
20, 164535.92, 164497.36, 164702.98, -28755.59, -187500.02, 23559.10, -187500.02, -181543.70, 0.000, 0.000, 0.000, 15:29:19.109, 1578576559109
21, -170079.41, -171017.84, -172914.09, -172813.05, -172290.25, -171983.22, -172586.38, -173254.94, -0.018, -0.018, 0.970, 15:29:19.109, 1578576559109
22, 164544.48, 164506.05, 164711.52, -28700.76, -187500.02, 23576.48, -187500.02, -181538.63, 0.000, 0.000, 0.000, 15:29:19.109, 1578576559109
23, -170100.77, -171049.33, -172963.53, -172865.50, -172333.02, -172017.52, -172636.59, -173307.47, 0.000, 0.000, 0.000, 15:29:19.109, 1578576559109
24, 164552.70, 164514.22, 164719.70, -28671.16, -187500.02, 23583.44, -187500.02, -181537.06, 0.000, 0.000, 0.000, 15:29:19.110, 1578576559110
25, -170120.69, -171078.69, -173012.28, -172916.36, -172374.09, -172050.48, -172685.53, -173358.06, 0.000, 0.000, 0.000, 15:29:19.110, 1578576559110
26, 164558.98, 164520.45, 164726.14, -28733.55, -187500.02, 23583.12, -187500.02, -181538.14, 0.000, 0.000, 0.000, 15:29:19.110, 1578576559110
27, -170142.20, -171110.42, -173062.28, -172968.44, -172417.78, -172086.39, -172735.77, -173409.55, 0.000, 0.000, 0.000, 15:29:19.110, 1578576559110
28, 164565.41, 164526.84, 164732.47, -28715.29, -187500.02, 23557.06, -187500.02, -181536.45, 0.000, 0.000, 0.000, 15:29:19.110, 1578576559110
29, -170167.11, -171143.66, -173115.59, -173023.22, -172462.52, -172124.05, -172788.09, -173464.63, 0.000, 0.000, 0.000, 15:29:19.110, 1578576559110
30, 164573.05, 164534.58, 164740.06, -28698.81, -187500.02, 23576.06, -187500.02, -181534.84, 0.000, 0.000, 0.000, 15:29:19.110, 1578576559110
31, -170189.00, -171174.50, -173166.84, -173075.36, -172505.30, -172158.97, -172838.36, -173517.41, -0.020, -0.014, 0.978, 15:29:19.110, 1578576559110
32, 164581.61, 164543.09, 164748.69, -28696.46, -187500.02, 23576.37, -187500.02, -181533.23, 0.000, 0.000, 0.000, 15:29:19.110, 1578576559110
33, -170208.66, -171204.55, -173214.45, -173127.48, -172546.28, -172192.61, -172887.78, -173568.02, 0.000, 0.000, 0.000, 15:29:19.110, 1578576559110
34, 164584.72, 164546.20, 164751.89, -28686.76, -187500.02, 23578.50, -187500.02, -181532.91, 0.000, 0.000, 0.000, 15:29:19.110, 1578576559110
35, -170231.55, -171235.05, -173264.70, -173179.03, -172589.48, -172227.69, -172938.64, -173620.86, 0.000, 0.000, 0.000, 15:29:19.110, 1578576559110
36, 164591.98, 164553.47, 164759.11, -28741.59, -187500.02, 23566.40, -187500.02, -181530.53, 0.000, 0.000, 0.000, 15:29:19.110, 1578576559110
37, -170254.81, -171267.58, -173317.14, -173233.97, -172634.86, -172264.95, -172991.47, -173676.53, 0.000, 0.000, 0.000, 15:29:19.110, 1578576559110
38, 164598.23, 164559.73, 164765.47, -28736.25, -187500.02, 23570.94, -187500.02, -181530.84, 0.000, 0.000, 0.000, 15:29:19.110, 1578576559110
39, -170277.06, -171299.30, -173367.61, -173287.41, -172679.36, -172300.22, -173042.80, -173730.17, 0.000, 0.000, 0.000, 15:29:19.110, 1578576559110
40, 164606.31, 164567.78, 164773.44, -28695.19, -187500.02, 23587.71, -187500.02, -181528.97, 0.000, 0.000, 0.000, 15:29:19.110, 1578576559110
41, -170297.05, -171329.77, -173417.13, -173339.89, -172720.38, -172333.63, -173092.47, -173781.61, -0.024, -0.016, 0.974, 15:29:19.110, 1578576559110
42, 164617.73, 164579.22, 164784.94, -28700.51, -187500.02, 23566.38, -187500.02, -181524.97, 0.000, 0.000, 0.000, 15:29:19.110, 1578576559110
43, -170319.23, -171360.56, -173467.72, -173391.55, -172764.34, -172368.27, -173141.80, -173835.13, 0.000, 0.000, 0.000, 15:29:19.110, 1578576559110
44, 164619.56, 164581.14, 164786.80, -28716.13, -187500.02, 23573.54, -187500.02, -181524.14, 0.000, 0.000, 0.000, 15:29:19.111, 1578576559111
45, -170342.95, -171393.03, -173520.30, -173445.69, -172808.61, -172406.75, -173194.66, -173891.11, 0.000, 0.000, 0.000, 15:29:19.111, 1578576559111
46, 164629.00, 164590.48, 164796.28, -28718.26, -187500.02, 23575.05, -187500.02, -181522.13, 0.000, 0.000, 0.000, 15:29:19.111, 1578576559111
47, -170364.61, -171424.08, -173570.86, -173499.39, -172851.47, -172442.39, -173246.02, -173944.47, 0.000, 0.000, 0.000, 15:29:19.111, 1578576559111
48, 164638.61, 164600.14, 164805.83, -28712.47, -187500.02, 23572.19, -187500.02, -181521.59, 0.000, 0.000, 0.000, 15:29:19.111, 1578576559111
49, -170384.25, -171454.45, -173618.36, -173550.88, -172892.69, -172475.52, -173294.67, -173996.66, 0.000, 0.000, 0.000, 15:29:19.111, 1578576559111
50, 164643.13, 164604.64, 164810.36, -28722.33, -187500.02, 23575.50, -187500.02, -181517.44, 0.000, 0.000, 0.000, 15:29:19.111, 1578576559111
51, -170406.23, -171486.02, -173670.59, -173604.86, -172936.48, -172511.58, -173344.83, -174050.80, -0.030, -0.018, 0.976, 15:29:19.111, 1578576559111
52, 164645.56, 164607.14, 164812.92, -28721.50, -187500.02, 23567.52, -187500.02, -181517.80, 0.000, 0.000, 0.000, 15:29:19.111, 1578576559111
53, -170430.45, -171519.39, -173723.97, -173660.13, -172982.73, -172548.78, -173397.39, -174107.25, 0.000, 0.000, 0.000, 15:29:19.111, 1578576559111
54, 164659.66, 164621.23, 164826.97, -28724.38, -187500.02, 23554.36, -187500.02, -181513.86, 0.000, 0.000, 0.000, 15:29:19.111, 1578576559111
55, -170453.03, -171550.34, -173774.86, -173713.64, -173026.41, -172584.39, -173448.70, -174161.67, 0.000, 0.000, 0.000, 15:29:19.111, 1578576559111
56, 164663.42, 164624.92, 164830.72, -28733.55, -187500.02, 23569.09, -187500.02, -181513.33, 0.000, 0.000, 0.000, 15:29:19.111, 1578576559111
57, -170472.61, -171580.59, -173823.92, -173766.02, -173067.83, -172618.25, -173498.02, -174214.36, 0.000, 0.000, 0.000, 15:29:19.111, 1578576559111
58, 164667.91, 164629.53, 164835.23, -28732.27, -187500.02, 23570.29, -187500.02, -181514.28, 0.000, 0.000, 0.000, 15:29:19.111, 1578576559111
59, -170494.70, -171611.88, -173876.25, -173819.25, -173111.27, -172654.66, -173549.98, -174269.73, 0.000, 0.000, 0.000, 15:29:19.111, 1578576559111
60, 164675.89, 164637.52, 164843.23, -28727.38, -187500.02, 23575.57, -187500.02, -181509.22, -0.030, -0.022, 0.980, 15:29:19.111, 1578576559111
61, -170517.58, -171644.52, -173929.83, -173873.91, -173156.39, -172691.67, -173602.34, -174326.23, 0.000, 0.000, 0.000, 15:29:19.111, 1578576559111
62, 164685.44, 164646.97, 164852.80, -28736.01, -187500.02, 23571.77, -187500.02, -181505.92, 0.000, 0.000, 0.000, 15:29:19.111, 1578576559111
63, -170539.28, -171675.83, -173980.66, -173928.23, -173199.39, -172726.00, -173653.56, -174380.77, 0.000, 0.000, 0.000, 15:29:19.111, 1578576559111
64, 164691.48, 164653.06, 164858.86, -28722.84, -187500.02, 23582.70, -187500.02, -181504.08, 0.000, 0.000, 0.000, 15:29:19.112, 1578576559112
65, -170559.94, -171705.92, -174030.36, -173981.33, -173241.28, -172759.23, -173703.83, -174434.45, 0.000, 0.000, 0.000, 15:29:19.112, 1578576559112
66, 164698.02, 164659.59, 164865.39, -28721.34, -187500.02, 23585.40, -187500.02, -181503.09, 0.000, 0.000, 0.000, 15:29:19.112, 1578576559112
67, -170581.67, -171737.00, -174082.55, -174035.92, -173285.17, -172794.38, -173754.20, -174487.61, 0.000, 0.000, 0.000, 15:29:19.112, 1578576559112
68, 164702.88, 164664.38, 164870.22, -28745.01, -187500.02, 23577.16, -187500.02, -181504.78, 0.000, 0.000, 0.000, 15:29:19.112, 1578576559112
69, -170605.34, -171769.69, -174136.98, -174091.98, -173331.72, -172832.52, -173807.97, -174544.75, 0.000, 0.000, 0.000, 15:29:19.112, 1578576559112
70, 164707.11, 164668.64, 164874.44, -28742.85, -187500.02, 23573.58, -187500.02, -181502.17, -0.026, -0.026, 0.980, 15:29:19.112, 1578576559112
71, -170627.11, -171801.05, -174190.20, -174147.47, -173374.88, -172868.23, -173860.61, -174601.88, 0.000, 0.000, 0.000, 15:29:19.112, 1578576559112
72, 164715.75, 164677.25, 164882.94, -28719.42, -187500.02, 23588.18, -187500.02, -181502.70, 0.000, 0.000, 0.000, 15:29:19.112, 1578576559112
73, -170646.72, -171830.22, -174240.47, -174201.16, -173416.83, -172901.00, -173910.27, -174654.48, 0.000, 0.000, 0.000, 15:29:19.112, 1578576559112
74, 164720.17, 164681.64, 164887.38, -28774.81, -187500.02, 23582.14, -187500.02, -181502.97, 0.000, 0.000, 0.000, 15:29:19.112, 1578576559112
75, -170668.44, -171861.64, -174294.41, -174255.95, -173460.34, -172937.05, -173961.59, -174710.75, 0.000, 0.000, 0.000, 15:29:19.112, 1578576559112
76, 164728.94, 164690.42, 164896.23, -28748.28, -187500.02, 23582.27, -187500.02, -181503.38, 0.000, 0.000, 0.000, 15:29:19.112, 1578576559112
77, -170691.28, -171894.77, -174348.97, -174312.42, -173506.48, -172975.63, -174014.88, -174768.00, 0.000, 0.000, 0.000, 15:29:19.112, 1578576559112
78, 164733.73, 164695.27, 164901.08, -28713.14, -187500.02, 23585.67, -187500.02, -181501.66, 0.000, 0.000, 0.000, 15:29:19.112, 1578576559112
79, -170713.77, -171925.88, -174402.77, -174367.92, -173551.13, -173010.86, -174067.92, -174823.69, 0.000, 0.000, 0.000, 15:29:19.112, 1578576559112
80, 164738.86, 164700.36, 164906.20, -28737.57, -187500.02, 23590.41, -187500.02, -181502.59, -0.024, -0.018, 0.978, 15:29:19.113, 1578576559113
81, -170733.75, -171955.30, -174454.67, -174423.11, -173593.20, -173044.31, -174118.39, -174877.72, 0.000, 0.000, 0.000, 15:29:19.113, 1578576559113
82, 164748.06, 164709.50, 164915.33, -28742.13, -187500.02, 23591.66, -187500.02, -181499.52, 0.000, 0.000, 0.000, 15:29:19.113, 1578576559113
83, -170754.31, -171986.14, -174506.59, -174478.73, -173635.61, -173078.84, -174169.70, -174932.70, 0.000, 0.000, 0.000, 15:29:19.113, 1578576559113
84, 164755.55, 164717.05, 164922.94, -28782.47, -187500.02, 23580.26, -187500.02, -181498.14, 0.000, 0.000, 0.000, 15:29:19.113, 1578576559113
85, -170778.78, -172019.27, -174562.17, -174536.05, -173682.14, -173115.50, -174224.28, -174989.20, 0.000, 0.000, 0.000, 15:29:19.113, 1578576559113
86, 164761.09, 164722.63, 164928.44, -28775.30, -187500.02, 23584.58, -187500.02, -181494.11, 0.000, 0.000, 0.000, 15:29:19.113, 1578576559113
87, -170799.95, -172050.98, -174615.69, -174592.75, -173726.42, -173150.70, -174276.70, -175044.39, 0.000, 0.000, 0.000, 15:29:19.113, 1578576559113
88, 164771.84, 164733.25, 164939.23, -28772.82, -187500.02, 23561.15, -187500.02, -181490.58, 0.000, 0.000, 0.000, 15:29:19.113, 1578576559113
89, -170819.48, -172079.89, -174666.89, -174646.64, -173767.91, -173184.08, -174326.33, -175097.53, 0.000, 0.000, 0.000, 15:29:19.585, 1578576559585
90, 164780.78, 164742.28, 164948.27, -28762.29, -187500.02, 23587.19, -187500.02, -181489.91, -0.020, -0.016, 0.972, 15:29:19.586, 1578576559586
91, -170840.33, -172110.44, -174720.86, -174702.13, -173812.20, -173219.33, -174378.89, -175151.48, 0.000, 0.000, 0.000, 15:29:19.586, 1578576559586
92, 164787.41, 164748.89, 164954.84, -28753.93, -187500.02, 23586.43, -187500.02, -181489.81, 0.000, 0.000, 0.000, 15:29:19.586, 1578576559586
93, -170864.81, -172143.05, -174777.92, -174760.50, -173858.05, -173256.84, -174433.56, -175207.27, 0.000, 0.000, 0.000, 15:29:19.586, 1578576559586
94, 164795.36, 164756.89, 164962.78, -28803.84, -187500.02, 23577.04, -187500.02, -181485.83, 0.000, 0.000, 0.000, 15:29:19.586, 1578576559586
95, -170886.77, -172175.39, -174834.05, -174817.33, -173902.27, -173292.59, -174486.25, -175260.02, 0.000, 0.000, 0.000, 15:29:19.586, 1578576559586
96, 164802.72, 164764.14, 164970.08, -28744.03, -187500.02, 23588.82, -187500.02, -181486.66, 0.000, 0.000, 0.000, 15:29:19.586, 1578576559586
97, -170904.83, -172202.97, -174884.77, -174871.86, -173945.05, -173326.38, -174537.45, -175310.30, 0.000, 0.000, 0.000, 15:29:19.586, 1578576559586
98, 164806.25, 164767.59, 164973.59, -28812.22, -187500.02, 23569.47, -187500.02, -181485.55, 0.000, 0.000, 0.000, 15:29:19.586, 1578576559586
99, -170926.38, -172234.89, -174939.59, -174929.06, -173990.39, -173362.05, -174593.19, -175363.36, 0.000, 0.000, 0.000, 15:29:19.586, 1578576559586
100, 164812.66, 164774.06, 164980.09, -28793.58, -187500.02, 23572.42, -187500.02, -181484.89, -0.018, -0.020, 0.982, 15:29:19.586, 1578576559586
101, -170949.69, -172267.42, -174996.20, -174986.73, -174037.31, -173400.22, -174648.23, -175416.70, 0.000, 0.000, 0.000, 15:29:19.586, 1578576559586
102, 164820.91, 164782.42, 164988.34, -28796.87, -187500.02, 23577.40, -187500.02, -181487.55, 0.000, 0.000, 0.000, 15:29:19.586, 1578576559586
103, -170971.59, -172299.22, -175050.11, -175042.36, -174082.33, -173435.50, -174701.78, -175467.53, 0.000, 0.000, 0.000, 15:29:19.586, 1578576559586
104, 164827.95, 164789.45, 164995.41, -28807.06, -187500.02, 23560.82, -187500.02, -181485.16, 0.000, 0.000, 0.000, 15:29:19.587, 1578576559587
105, -170991.23, -172329.31, -175103.42, -175096.56, -174125.66, -173469.80, -174753.16, -175516.75, 0.000, 0.000, 0.000, 15:29:19.587, 1578576559587
106, 164834.44, 164795.78, 165001.84, -28807.26, -187500.02, 23577.80, -187500.02, -181482.86, 0.000, 0.000, 0.000, 15:29:19.587, 1578576559587
107, -171013.48, -172361.31, -175157.52, -175151.61, -174170.73, -173506.42, -174807.69, -175566.39, 0.000, 0.000, 0.000, 15:29:19.587, 1578576559587
108, 164843.78, 164805.23, 165011.30, -28807.42, -187500.02, 23561.62, -187500.02, -181480.33, 0.000, 0.000, 0.000, 15:29:19.587, 1578576559587
109, -171036.92, -172394.55, -175213.91, -175208.50, -174218.39, -173544.34, -174863.66, -175616.78, -0.020, -0.018, 0.982, 15:29:19.587, 1578576559587
110, 164849.39, 164810.72, 165016.78, -28819.82, -187500.02, 23577.13, -187500.02, -181477.56, 0.000, 0.000, 0.000, 15:29:19.587, 1578576559587
111, -171058.14, -172425.03, -175267.36, -175262.92, -174263.67, -173580.69, -174917.64, -175665.13, 0.000, 0.000, 0.000, 15:29:19.587, 1578576559587
112, 164855.53, 164816.94, 165022.92, -28842.04, -187500.02, 23565.85, -187500.02, -181475.23, 0.000, 0.000, 0.000, 15:29:19.587, 1578576559587
113, -171077.05, -172454.31, -175318.52, -175315.66, -174307.70, -173614.44, -174968.72, -175711.08, 0.000, 0.000, 0.000, 15:29:19.587, 1578576559587
114, 164866.69, 164828.06, 165034.13, -28866.45, -187500.02, 23554.69, -187500.02, -181471.02, 0.000, 0.000, 0.000, 15:29:19.587, 1578576559587
115, -171098.86, -172485.70, -175371.28, -175368.20, -174352.52, -173650.70, -175022.80, -175758.69, 0.000, 0.000, 0.000, 15:29:19.587, 1578576559587
116, 164876.08, 164837.34, 165043.52, -28856.97, -187500.02, 23569.15, -187500.02, -181468.78, 0.000, 0.000, 0.000, 15:29:19.587, 1578576559587
117, -171122.67, -172518.52, -175425.92, -175421.94, -174399.80, -173688.25, -175077.92, -175808.00, 0.000, 0.000, 0.000, 15:29:19.588, 1578576559588
118, 164883.45, 164844.89, 165050.95, -28803.60, -187500.02, 23561.80, -187500.02, -181470.25, 0.000, 0.000, 0.000, 15:29:19.588, 1578576559588
119, -171144.98, -172550.23, -175478.59, -175473.61, -174446.06, -173724.81, -175131.75, -175854.72, -0.020, -0.014, 0.982, 15:29:19.588, 1578576559588
120, 164884.48, 164845.88, 165051.98, -28917.12, -187500.02, 23549.98, -187500.02, -181472.20, 0.000, 0.000, 0.000, 15:29:19.588, 1578576559588
121, -171164.72, -172579.78, -175527.66, -175524.22, -174491.02, -173760.05, -175181.70, -175899.03, 0.000, 0.000, 0.000, 15:29:19.588, 1578576559588
122, 164897.38, 164858.84, 165064.92, -28849.84, -187500.02, 23559.74, -187500.02, -181471.14, 0.000, 0.000, 0.000, 15:29:19.588, 1578576559588
123, -171185.45, -172611.39, -175576.67, -175574.00, -174537.75, -173795.78, -175234.47, -175935.38, 0.000, 0.000, 0.000, 15:29:19.588, 1578576559588
124, 164900.34, 164861.70, 165067.83, -28844.48, -187500.02, 23560.24, -187500.02, -181472.52, 0.000, 0.000, 0.000, 15:29:19.588, 1578576559588
125, -171209.11, -172643.92, -175629.34, -175624.02, -174585.33, -173832.84, -175288.14, -175952.77, 0.000, 0.000, 0.000, 15:29:19.588, 1578576559588
126, 164905.84, 164867.28, 165073.44, -28905.07, -187500.02, 23555.72, -187500.02, -181471.02, 0.000, 0.000, 0.000, 15:29:19.589, 1578576559589
127, -171230.22, -172675.28, -175678.42, -175672.19, -174631.78, -173869.31, -175340.06, -175962.45, 0.000, 0.000, 0.000, 15:29:19.589, 1578576559589
128, 164913.33, 164874.69, 165080.86, -28913.88, -187500.02, 23559.79, -187500.02, -181472.42, 0.000, 0.000, 0.000, 15:29:19.589, 1578576559589
129, -171249.97, -172703.97, -175724.41, -175719.53, -174676.50, -173903.50, -175390.13, -175972.75, -0.022, -0.022, 0.978, 15:29:19.589, 1578576559589
130, 164924.47, 164885.97, 165092.14, -28868.08, -187500.02, 23565.98, -187500.02, -181470.44, 0.000, 0.000, 0.000, 15:29:19.589, 1578576559589
131, -171272.77, -172735.11, -175771.98, -175766.83, -174722.84, -173939.89, -175441.92, -175982.28, 0.000, 0.000, 0.000, 15:29:19.589, 1578576559589
132, 164933.63, 164895.00, 165101.13, -28888.73, -187500.02, 23561.62, -187500.02, -181467.69, 0.000, 0.000, 0.000, 15:29:19.589, 1578576559589
133, -171295.98, -172768.14, -175820.69, -175812.56, -174770.88, -173978.55, -175494.67, -175988.83, 0.000, 0.000, 0.000, 15:29:19.589, 1578576559589
134, 164939.59, 164901.06, 165107.14, -28903.64, -187500.02, 23561.91, -187500.02, -181464.08, 0.000, 0.000, 0.000, 15:29:19.589, 1578576559589
135, -171317.52, -172799.41, -175868.34, -175846.38, -174817.80, -174016.75, -175545.23, -175995.13, 0.000, 0.000, 0.000, 15:29:19.589, 1578576559589
136, 164944.92, 164906.34, 165112.47, -28885.14, -187500.02, 23569.40, -187500.02, -181465.16, 0.000, 0.000, 0.000, 15:29:19.589, 1578576559589
137, -171337.20, -172829.42, -175911.75, -175862.00, -174863.06, -174050.69, -175592.89, -176000.33, 0.000, 0.000, 0.000, 15:29:19.589, 1578576559589
138, 164948.61, 164910.06, 165116.16, -28921.61, -187500.02, 23551.85, -187500.02, -181466.08, 0.000, 0.000, 0.000, 15:29:19.590, 1578576559590
139, -171358.97, -172860.97, -175956.66, -175873.38, -174908.73, -174086.38, -175640.63, -176006.84, -0.016, -0.020, 0.986, 15:29:19.590, 1578576559590
140, 164956.34, 164917.78, 165123.95, -28975.41, -187500.02, 23547.85, -187500.02, -181468.84, 0.000, 0.000, 0.000, 15:29:19.590, 1578576559590
141, -171382.17, -172893.86, -175997.23, -175885.42, -174957.02, -174124.53, -175690.20, -176015.47, 0.000, 0.000, 0.000, 15:29:19.590, 1578576559590
142, 164967.36, 164928.83, 165134.92, -28876.40, -187500.02, 23547.56, -187500.02, -181466.25, 0.000, 0.000, 0.000, 15:29:19.590, 1578576559590
143, -171403.72, -172925.63, -176019.63, -175893.38, -175003.38, -174161.36, -175739.06, -176021.72, 0.000, 0.000, 0.000, 15:29:19.590, 1578576559590
144, 164972.66, 164934.02, 165140.14, -28974.36, -187500.02, 23551.90, -187500.02, -181464.47, 0.000, 0.000, 0.000, 15:29:19.590, 1578576559590
145, -171423.19, -172955.84, -176029.39, -175898.88, -175048.23, -174197.78, -175784.38, -176026.13, 0.000, 0.000, 0.000, 15:29:19.590, 1578576559590
146, 164980.77, 164942.09, 165148.27, -28969.42, -187500.02, 23541.68, -187500.02, -181461.11, 0.000, 0.000, 0.000, 15:29:19.590, 1578576559590
147, -171444.92, -172986.94, -176040.33, -175907.73, -175094.58, -174234.02, -175830.64, -176034.36, 0.000, 0.000, 0.000, 15:29:19.590, 1578576559590
148, 164993.69, 164955.08, 165161.27, -28925.50, -187500.02, 23563.52, -187500.02, -181460.59, -0.018, -0.024, 0.982, 15:29:19.590, 1578576559590
149, -171469.66, -173020.36, -176050.14, -175916.16, -175142.98, -174274.05, -175878.39, -176042.22, 0.000, 0.000, 0.000, 15:29:19.590, 1578576559590
150, 165001.11, 164962.58, 165168.75, -28969.96, -187500.02, 23555.56, -187500.02, -181459.09, 0.000, 0.000, 0.000, 15:29:19.590, 1578576559590
151, -171491.94, -173052.66, -176057.27, -175922.38, -175188.83, -174310.36, -175924.06, -176047.97, 0.000, 0.000, 0.000, 15:29:19.590, 1578576559590
152, 165007.13, 164968.50, 165174.72, -28950.25, -187500.02, 23581.67, -187500.02, -181462.63, 0.000, 0.000, 0.000, 15:29:19.590, 1578576559590
153, -171511.05, -173083.08, -176063.83, -175928.25, -175233.00, -174346.22, -175968.73, -176054.25, 0.000, 0.000, 0.000, 15:29:19.590, 1578576559590
154, 165013.67, 164975.06, 165181.22, -28996.47, -187500.02, 23556.64, -187500.02, -181463.88, 0.000, 0.000, 0.000, 15:29:19.590, 1578576559590
155, -171532.63, -173114.91, -176072.73, -175936.81, -175277.86, -174383.78, -176014.22, -176063.52, 0.000, 0.000, 0.000, 15:29:19.591, 1578576559591
156, 165022.20, 164983.50, 165189.69, -28960.48, -187500.02, 23558.83, -187500.02, -181464.73, 0.000, 0.000, 0.000, 15:29:19.591, 1578576559591
157, -171555.83, -173147.88, -176078.00, -175941.64, -175323.64, -174422.92, -176054.52, -176069.02, 0.000, 0.000, 0.000, 15:29:19.592, 1578576559592
158, 165026.77, 164988.13, 165194.30, -28970.50, -187500.02, 23560.82, -187500.02, -181464.36, -0.018, -0.028, 0.984, 15:29:19.592, 1578576559592
159, -171577.23, -173179.03, -176082.95, -175946.28, -175368.89, -174460.33, -176076.91, -176073.64, 0.000, 0.000, 0.000, 15:29:19.592, 1578576559592
160, 165035.23, 164996.48, 165202.72, -28972.62, -187500.02, 23570.61, -187500.02, -181463.97, 0.000, 0.000, 0.000, 15:29:19.592, 1578576559592
161, -171597.55, -173209.89, -176089.56, -175952.70, -175412.13, -174496.63, -176088.64, -176079.75, 0.000, 0.000, 0.000, 15:29:19.592, 1578576559592
162, 165042.22, 165003.56, 165209.73, -29029.39, -187500.02, 23550.09, -187500.02, -181461.27, 0.000, 0.000, 0.000, 15:29:19.592, 1578576559592
163, -171618.83, -173241.75, -176095.84, -175958.84, -175455.53, -174535.52, -176097.86, -176085.83, 0.000, 0.000, 0.000, 15:29:19.592, 1578576559592
164, 165051.69, 165012.91, 165219.22, -29003.02, -187500.02, 23546.65, -187500.02, -181460.16, 0.000, 0.000, 0.000, 15:29:19.592, 1578576559592
165, -171642.91, -173275.25, -176100.81, -175963.75, -175501.59, -174575.02, -176104.92, -176090.56, 0.000, 0.000, 0.000, 15:29:19.592, 1578576559592
166, 165054.86, 165016.20, 165222.38, -29003.53, -187500.02, 23573.27, -187500.02, -181461.95, 0.000, 0.000, 0.000, 15:29:19.592, 1578576559592
167, -171664.83, -173307.22, -176107.06, -175969.98, -175545.20, -174612.11, -176112.55, -176096.58, 0.000, 0.000, 0.000, 15:29:19.592, 1578576559592
168, 165068.45, 165029.88, 165236.14, -28950.58, -187500.02, 23558.56, -187500.02, -181460.11, -0.016, -0.018, 0.980, 15:29:19.592, 1578576559592
169, -171683.75, -173336.98, -176115.06, -175977.78, -175586.17, -174647.83, -176121.19, -176104.34, 0.000, 0.000, 0.000, 15:29:19.592, 1578576559592
170, 165076.03, 165037.39, 165243.69, -29021.62, -187500.02, 23550.65, -187500.02, -181459.53, 0.000, 0.000, 0.000, 15:29:19.592, 1578576559592
171, -171705.67, -173368.06, -176122.58, -175985.25, -175629.30, -174685.58, -176129.42, -176111.69, 0.000, 0.000, 0.000, 15:29:19.592, 1578576559592
172, 165086.45, 165047.89, 165254.11, -29030.47, -187500.02, 23567.88, -187500.02, -181461.16, 0.000, 0.000, 0.000, 15:29:19.592, 1578576559592
173, -171728.78, -173399.94, -176128.23, -175990.75, -175673.33, -174726.00, -176135.61, -176117.09, 0.000, 0.000, 0.000, 15:29:19.593, 1578576559593
174, 165092.34, 165053.80, 165260.03, -28997.21, -187500.02, 23561.13, -187500.02, -181460.53, 0.000, 0.000, 0.000, 15:29:19.593, 1578576559593
175, -171750.69, -173432.16, -176135.36, -175997.81, -175715.38, -174764.73, -176143.16, -176124.05, 0.000, 0.000, 0.000, 15:29:19.593, 1578576559593
176, 165105.20, 165066.67, 165272.95, -28984.82, -187500.02, 23572.57, -187500.02, -181459.34, 0.000, 0.000, 0.000, 15:29:19.593, 1578576559593
177, -171769.97, -173462.25, -176140.53, -176003.08, -175754.88, -174800.27, -176148.80, -176129.17, 0.000, 0.000, 0.000, 15:29:19.593, 1578576559593
178, 165108.89, 165070.28, 165276.61, -29039.83, -187500.02, 23563.25, -187500.02, -181459.55, -0.020, -0.018, 0.980, 15:29:19.593, 1578576559593
179, -171791.02, -173494.13, -176145.20, -176007.69, -175796.48, -174838.73, -176153.73, -176133.84, 0.000, 0.000, 0.000, 15:29:19.593, 1578576559593
180, 165116.94, 165078.28, 165284.63, -28991.64, -187500.02, 23567.79, -187500.02, -181457.84, 0.000, 0.000, 0.000, 15:29:19.593, 1578576559593
181, -171814.80, -173527.03, -176151.61, -176014.03, -175838.94, -174878.02, -176160.34, -176140.06, 0.000, 0.000, 0.000, 15:29:19.593, 1578576559593
182, 165126.34, 165087.70, 165293.98, -29016.36, -187500.02, 23553.69, -187500.02, -181457.94, 0.000, 0.000, 0.000, 15:29:19.593, 1578576559593
183, -171836.25, -173558.41, -176158.86, -176021.23, -175878.88, -174917.23, -176167.81, -176147.19, 0.000, 0.000, 0.000, 15:29:19.593, 1578576559593
184, 165135.44, 165096.80, 165303.06, -29032.61, -187500.02, 23554.42, -187500.02, -181457.88, 0.000, 0.000, 0.000, 15:29:19.593, 1578576559593
185, -171855.56, -173588.53, -176165.05, -176027.48, -175916.06, -174954.30, -176174.23, -176153.42, 0.000, 0.000, 0.000, 15:29:19.593, 1578576559593
186, 165144.03, 165105.41, 165311.66, -28994.86, -187500.02, 23562.89, -187500.02, -181456.66, 0.000, 0.000, 0.000, 15:29:19.593, 1578576559593
187, -171877.42, -173620.98, -176169.31, -176031.69, -175954.92, -174991.44, -176178.75, -176157.58, -0.018, -0.014, 0.976, 15:29:19.593, 1578576559593
188, 165149.03, 165110.45, 165316.69, -29037.57, -187500.02, 23556.82, -187500.02, -181457.48, 0.000, 0.000, 0.000, 15:29:19.593, 1578576559593
189, -171900.91, -173653.42, -176175.03, -176037.27, -175997.63, -175031.31, -176184.45, -176163.06, 0.000, 0.000, 0.000, 15:29:19.594, 1578576559594
190, 165155.30, 165116.73, 165322.97, -29028.08, -187500.02, 23562.78, -187500.02, -181456.48, 0.000, 0.000, 0.000, 15:29:19.594, 1578576559594
191, -171922.75, -173685.81, -176180.48, -176042.67, -176036.39, -175070.77, -176190.06, -176168.52, 0.000, 0.000, 0.000, 15:29:19.594, 1578576559594
192, 165166.44, 165127.89, 165334.19, -29020.92, -187500.02, 23558.04, -187500.02, -181456.81, 0.000, 0.000, 0.000, 15:29:19.594, 1578576559594
193, -171941.81, -173716.34, -176188.31, -176050.45, -176071.66, -175106.58, -176198.03, -176176.33, 0.000, 0.000, 0.000, 15:29:19.594, 1578576559594
194, 165177.02, 165138.45, 165344.81, -29010.84, -187500.02, 23560.15, -187500.02, -181453.52, 0.000, 0.000, 0.000, 15:29:19.594, 1578576559594
195, -171963.08, -173748.08, -176193.36, -176055.50, -176101.09, -175144.94, -176203.17, -176181.27, 0.000, 0.000, 0.000, 15:29:19.594, 1578576559594
196, 165183.45, 165144.88, 165351.22, -29036.64, -187500.02, 23568.84, -187500.02, -181456.73, 0.000, 0.000, 0.000, 15:29:19.594, 1578576559594
197, -171987.38, -173781.61, -176200.77, -176062.81, -176119.02, -175185.44, -176210.70, -176188.63, -0.018, -0.014, 0.974, 15:29:19.594, 1578576559594
198, 165192.33, 165153.59, 165360.02, -29005.50, -187500.02, 23558.80, -187500.02, -181456.97, 0.000, 0.000, 0.000, 15:29:19.594, 1578576559594
199, -172008.73, -173813.39, -176204.83, -176066.97, -176127.77, -175222.73, -176214.89, -176192.77, 0.000, 0.000, 0.000, 15:29:19.594, 1578576559594
200, 165199.48, 165160.91, 165367.28, -29068.09, -187500.02, 23561.60, -187500.02, -181453.36, 0.000, 0.000, 0.000, 15:29:19.594, 1578576559594
201, -172028.09, -173843.55, -176210.84, -176072.98, -176136.20, -175258.69, -176220.95, -176198.64, 0.000, 0.000, 0.000, 15:29:19.594, 1578576559594
202, 165206.77, 165168.09, 165374.50, -29027.14, -187500.02, 23567.05, -187500.02, -181455.86, 0.000, 0.000, 0.000, 15:29:19.594, 1578576559594
203, -172048.77, -173875.05, -176216.70, -176078.92, -176144.17, -175296.80, -176226.91, -176204.66, 0.000, 0.000, 0.000, 15:29:19.594, 1578576559594
204, 165215.58, 165176.95, 165383.25, -29024.32, -187500.02, 23564.82, -187500.02, -181458.66, 0.000, 0.000, 0.000, 15:29:19.594, 1578576559594
205, -172072.22, -173907.67, -176224.34, -176086.34, -176153.25, -175337.09, -176234.53, -176211.98, 0.000, 0.000, 0.000, 15:29:19.594, 1578576559594
206, 165224.33, 165185.75, 165392.08, -29053.36, -187500.02, 23560.88, -187500.02, -181459.53, 0.000, 0.000, 0.000, 15:29:19.594, 1578576559594
207, -172093.98, -173939.23, -176230.47, -176092.42, -176160.39, -175375.00, -176240.66, -176218.02, -0.020, -0.016, 0.978, 15:29:19.594, 1578576559594
208, 165232.16, 165193.56, 165399.95, -29047.95, -187500.02, 23563.14, -187500.02, -181460.23, 0.000, 0.000, 0.000, 15:29:19.594, 1578576559594
209, -172113.67, -173970.14, -176235.88, -176097.94, -176166.67, -175410.77, -176246.16, -176223.50, 0.000, 0.000, 0.000, 15:29:20.062, 1578576560062
210, 165240.50, 165201.92, 165408.30, -29029.66, -187500.02, 23556.95, -187500.02, -181458.27, 0.000, 0.000, 0.000, 15:29:20.062, 1578576560062
211, -172134.80, -174002.05, -176239.86, -176102.02, -176171.58, -175448.11, -176250.34, -176227.52, 0.000, 0.000, 0.000, 15:29:20.062, 1578576560062
212, 165245.41, 165206.81, 165413.14, -29045.60, -187500.02, 23557.69, -187500.02, -181459.33, 0.000, 0.000, 0.000, 15:29:20.062, 1578576560062
213, -172157.22, -174035.13, -176246.58, -176108.81, -176179.06, -175486.92, -176257.14, -176234.27, 0.000, 0.000, 0.000, 15:29:20.063, 1578576560063
214, 165258.53, 165219.94, 165426.38, -29090.15, -187500.02, 23541.68, -187500.02, -181455.92, 0.000, 0.000, 0.000, 15:29:20.063, 1578576560063
215, -172178.56, -174067.41, -176254.08, -176116.23, -176187.00, -175524.23, -176264.59, -176241.75, 0.000, 0.000, 0.000, 15:29:20.063, 1578576560063
216, 165272.59, 165233.97, 165440.34, -29058.05, -187500.02, 23543.63, -187500.02, -181455.25, 0.000, 0.000, 0.000, 15:29:20.063, 1578576560063
217, -172198.33, -174097.86, -176263.34, -176125.42, -176196.73, -175558.64, -176273.86, -176251.02, -0.018, -0.014, 0.978, 15:29:20.063, 1578576560063
218, 165282.20, 165243.61, 165450.05, -29069.25, -187500.02, 23544.30, -187500.02, -181456.89, 0.000, 0.000, 0.000, 15:29:20.063, 1578576560063
219, -172220.52, -174130.13, -176268.00, -176130.00, -176201.81, -175597.09, -176278.45, -176255.50, 0.000, 0.000, 0.000, 15:29:20.063, 1578576560063
220, 165286.50, 165247.88, 165454.36, -29017.59, -187500.02, 23560.46, -187500.02, -181456.08, 0.000, 0.000, 0.000, 15:29:20.063, 1578576560063
221, -172243.03, -174164.05, -176270.30, -176132.30, -176204.42, -175636.53, -176280.80, -176257.78, 0.000, 0.000, 0.000, 15:29:20.063, 1578576560063
222, 165290.58, 165251.94, 165458.41, -29098.39, -187500.02, 23553.44, -187500.02, -181452.69, 0.000, 0.000, 0.000, 15:29:20.063, 1578576560063
223, -172264.83, -174196.38, -176276.11, -176138.11, -176210.63, -175672.92, -176286.61, -176263.59, 0.000, 0.000, 0.000, 15:29:20.063, 1578576560063
224, 165303.64, 165264.91, 165471.41, -29026.06, -187500.02, 23549.13, -187500.02, -181453.67, 0.000, 0.000, 0.000, 15:29:20.063, 1578576560063
225, -172284.22, -174226.14, -176284.41, -176146.33, -176219.19, -175707.77, -176294.91, -176271.75, 0.000, 0.000, 0.000, 15:29:20.063, 1578576560063
226, 165314.25, 165275.61, 165482.08, -29062.52, -187500.02, 23541.66, -187500.02, -181453.84, -0.018, -0.014, 0.986, 15:29:20.063, 1578576560063
227, -172304.30, -174257.86, -176290.61, -176152.48, -176225.69, -175743.88, -176301.17, -176277.98, 0.000, 0.000, 0.000, 15:29:20.063, 1578576560063
228, 165320.61, 165282.03, 165488.52, -29078.81, -187500.02, 23555.32, -187500.02, -181454.03, 0.000, 0.000, 0.000, 15:29:20.063, 1578576560063
229, -172328.30, -174291.45, -176294.70, -176156.59, -176229.94, -175780.64, -176305.23, -176281.98, 0.000, 0.000, 0.000, 15:29:20.066, 1578576560066
230, 165325.45, 165286.88, 165493.30, -29052.35, -187500.02, 23550.60, -187500.02, -181456.47, 0.000, 0.000, 0.000, 15:29:20.066, 1578576560066
231, -172350.39, -174323.64, -176300.92, -176162.89, -176236.41, -175816.45, -176311.53, -176288.27, 0.000, 0.000, 0.000, 15:29:20.066, 1578576560066
232, 165336.14, 165297.52, 165503.94, -29088.20, -187500.02, 23547.23, -187500.02, -181457.48, 0.000, 0.000, 0.000, 15:29:20.066, 1578576560066
233, -172369.98, -174355.06, -176308.59, -176170.56, -176244.28, -175851.03, -176319.22, -176295.89, 0.000, 0.000, 0.000, 15:29:20.066, 1578576560066
234, 165346.64, 165308.05, 165514.42, -29114.08, -187500.02, 23538.87, -187500.02, -181459.55, 0.000, 0.000, 0.000, 15:29:20.066, 1578576560066
235, -172391.73, -174387.59, -176314.41, -176176.47, -176250.31, -175885.69, -176325.06, -176301.75, 0.000, 0.000, 0.000, 15:29:20.066, 1578576560066
236, 165353.17, 165314.48, 165520.94, -29058.18, -187500.02, 23562.54, -187500.02, -181460.03, -0.016, -0.020, 0.980, 15:29:20.066, 1578576560066
237, -172414.78, -174421.94, -176320.41, -176182.50, -176256.53, -175921.88, -176331.05, -176307.72, 0.000, 0.000, 0.000, 15:29:20.066, 1578576560066
238, 165363.00, 165324.41, 165530.86, -29071.42, -187500.02, 23542.18, -187500.02, -181461.80, 0.000, 0.000, 0.000, 15:29:20.066, 1578576560066
239, -172435.86, -174454.80, -176328.33, -176190.17, -176264.48, -175956.75, -176338.92, -176315.61, 0.000, 0.000, 0.000, 15:29:20.066, 1578576560066
240, 165372.13, 165333.45, 165539.98, -29096.58, -187500.02, 23561.31, -187500.02, -181461.20, 0.000, 0.000, 0.000, 15:29:20.066, 1578576560066
241, -172454.70, -174485.80, -176332.80, -176194.80, -176269.36, -175989.52, -176343.50, -176320.13, 0.000, 0.000, 0.000, 15:29:20.066, 1578576560066
242, 165377.47, 165338.78, 165545.28, -29073.31, -187500.02, 23563.61, -187500.02, -181461.72, 0.000, 0.000, 0.000, 15:29:20.067, 1578576560067
243, -172475.75, -174518.80, -176336.42, -176198.34, -176273.09, -176023.14, -176347.19, -176323.72, 0.000, 0.000, 0.000, 15:29:20.067, 1578576560067
244, 165383.03, 165344.45, 165551.05, -29116.79, -187500.02, 23561.60, -187500.02, -181463.53, 0.000, 0.000, 0.000, 15:29:20.067, 1578576560067
245, -172498.27, -174553.19, -176341.72, -176203.64, -176278.55, -176058.30, -176352.59, -176328.97, 0.000, 0.000, 0.000, 15:29:20.067, 1578576560067
246, 165390.78, 165352.13, 165558.69, -29031.43, -187500.02, 23562.36, -187500.02, -181463.44, -0.016, -0.018, 0.976, 15:29:20.067, 1578576560067
247, -172519.59, -174585.42, -176347.55, -176209.45, -176284.48, -176092.80, -176358.36, -176334.78, 0.000, 0.000, 0.000, 15:29:20.067, 1578576560067
248, 165401.36, 165362.78, 165569.31, -29103.69, -187500.02, 23548.72, -187500.02, -181459.64, 0.000, 0.000, 0.000, 15:29:20.067, 1578576560067
249, -172538.50, -174617.30, -176352.36, -176214.33, -176289.52, -176123.92, -176363.22, -176339.64, 0.000, 0.000, 0.000, 15:29:20.067, 1578576560067
250, 165408.31, 165369.73, 165576.31, -29111.80, -187500.02, 23559.14, -187500.02, -181460.00, 0.000, 0.000, 0.000, 15:29:20.067, 1578576560067
251, -172559.80, -174650.73, -176357.53, -176219.53, -176294.80, -176155.95, -176368.38, -176344.78, 0.000, 0.000, 0.000, 15:29:20.067, 1578576560067
252, 165417.56, 165379.02, 165585.61, -29114.49, -187500.02, 23548.43, -187500.02, -181457.47, 0.000, 0.000, 0.000, 15:29:20.067, 1578576560067
253, -172583.09, -174685.27, -176365.66, -176227.61, -176303.11, -176191.70, -176376.48, -176352.75, 0.000, 0.000, 0.000, 15:29:20.067, 1578576560067
254, 165431.47, 165392.84, 165599.47, -29083.62, -187500.02, 23540.88, -187500.02, -181455.28, 0.000, 0.000, 0.000, 15:29:20.067, 1578576560067
255, -172604.48, -174717.81, -176372.33, -176234.27, -176310.02, -176224.05, -176383.17, -176359.48, 0.000, 0.000, 0.000, 15:29:20.067, 1578576560067
0, 165441.17, 165402.59, 165609.14, -29123.83, -187500.02, 23560.28, -187500.02, -181456.06, -0.022, -0.016, 0.976, 15:29:20.067, 1578576560067
1, -172623.55, -174748.56, -176378.25, -176240.14, -176316.50, -176254.00, -176389.05, -176365.41, 0.000, 0.000, 0.000, 15:29:20.067, 1578576560067
2, 165446.31, 165407.73, 165614.31, -29074.86, -187500.02, 23555.01, -187500.02, -181455.83, 0.000, 0.000, 0.000, 15:29:20.067, 1578576560067
3, -172644.89, -174781.30, -176381.28, -176243.19, -176320.44, -176285.39, -176392.16, -176368.44, 0.000, 0.000, 0.000, 15:29:20.067, 1578576560067
4, 165452.88, 165414.17, 165620.86, -29144.80, -187500.02, 23547.21, -187500.02, -181458.25, 0.000, 0.000, 0.000, 15:29:20.067, 1578576560067
5, -172667.16, -174815.77, -176388.89, -176250.72, -176328.81, -176318.80, -176399.61, -176375.89, 0.000, 0.000, 0.000, 15:29:20.067, 1578576560067
6, 165461.36, 165422.64, 165629.22, -29065.20, -187500.02, 23564.06, -187500.02, -181461.30, 0.000, 0.000, 0.000, 15:29:20.068, 1578576560068
7, -172687.34, -174848.30, -176394.42, -176256.33, -176335.05, -176347.50, -176405.27, -176381.52, 0.000, 0.000, 0.000, 15:29:20.068, 1578576560068
8, 165467.34, 165428.58, 165635.25, -29091.93, -187500.02, 23565.06, -187500.02, -181463.08, 0.000, 0.000, 0.000, 15:29:20.068, 1578576560068
9, -172706.53, -174880.47, -176399.17, -176261.09, -176340.06, -176365.66, -176410.16, -176386.27, 0.000, 0.000, 0.000, 15:29:20.068, 1578576560068
10, 165478.83, 165440.20, 165646.88, -29112.39, -187500.02, 23555.54, -187500.02, -181462.86, -0.020, -0.018, 0.974, 15:29:20.068, 1578576560068
11, -172727.86, -174913.80, -176408.00, -176269.78, -176348.95, -176379.80, -176418.92, -176395.09, 0.000, 0.000, 0.000, 15:29:20.068, 1578576560068
12, 165487.23, 165448.64, 165655.25, -29111.00, -187500.02, 23554.98, -187500.02, -181465.16, 0.000, 0.000, 0.000, 15:29:20.068, 1578576560068
13, -172751.06, -174948.38, -176413.70, -176275.50, -176354.67, -176389.25, -176424.56, -176400.70, 0.000, 0.000, 0.000, 15:29:20.068, 1578576560068
14, 165497.25, 165458.63, 165665.31, -29125.04, -187500.02, 23554.22, -187500.02, -181461.31, 0.000, 0.000, 0.000, 15:29:20.068, 1578576560068
15, -172773.06, -174982.34, -176418.78, -176280.56, -176359.73, -176396.92, -176429.48, -176405.64, 0.000, 0.000, 0.000, 15:29:20.068, 1578576560068
16, 165506.08, 165467.45, 165674.13, -29128.72, -187500.02, 23547.29, -187500.02, -181464.80, 0.000, 0.000, 0.000, 15:29:20.068, 1578576560068
17, -172792.25, -175013.61, -176425.63, -176287.52, -176366.72, -176405.42, -176436.48, -176412.61, 0.000, 0.000, 0.000, 15:29:20.068, 1578576560068
18, 165512.97, 165474.31, 165680.98, -29087.08, -187500.02, 23557.26, -187500.02, -181462.56, 0.000, 0.000, 0.000, 15:29:20.068, 1578576560068
19, -172813.52, -175047.17, -176429.00, -176290.77, -176370.05, -176410.31, -176439.84, -176415.88, -0.022, -0.018, 0.980, 15:29:20.068, 1578576560068
20, 165519.09, 165480.36, 165687.03, -29107.87, -187500.02, 23559.90, -187500.02, -181466.66, 0.000, 0.000, 0.000, 15:29:20.068, 1578576560068
21, -172836.06, -175082.19, -176434.89, -176296.67, -176376.06, -176417.44, -176445.78, -176421.84, 0.000, 0.000, 0.000, 15:29:20.068, 1578576560068
22, 165526.52, 165487.91, 165694.48, -29113.59, -187500.02, 23534.71, -187500.02, -181465.81, 0.000, 0.000, 0.000, 15:29:20.068, 1578576560068
23, -172857.08, -175115.92, -176439.91, -176301.81, -176381.14, -176423.56, -176450.77, -176426.84, 0.000, 0.000, 0.000, 15:29:20.069, 1578576560069
24, 165537.42, 165498.66, 165705.44, -29143.75, -187500.02, 23539.38, -187500.02, -181464.69, 0.000, 0.000, 0.000, 15:29:20.069, 1578576560069
25, -172876.81, -175147.61, -176446.66, -176308.59, -176387.88, -176431.08, -176457.56, -176433.59, 0.000, 0.000, 0.000, 15:29:20.069, 1578576560069
26, 165544.09, 165505.25, 165712.05, -29119.05, -187500.02, 23564.28, -187500.02, -181466.61, 0.000, 0.000, 0.000, 15:29:20.069, 1578576560069
27, -172898.88, -175181.64, -176451.48, -176313.33, -176392.78, -176436.73, -176462.45, -176438.36, 0.000, 0.000, 0.000, 15:29:20.069, 1578576560069
28, 165551.86, 165513.13, 165719.92, -29109.57, -187500.02, 23550.83, -187500.02, -181468.70, 0.000, 0.000, 0.000, 15:29:20.069, 1578576560069
29, -172922.91, -175217.64, -176457.66, -176319.50, -176398.98, -176443.41, -176468.61, -176444.63, -0.018, -0.020, 0.978, 15:29:20.069, 1578576560069
30, 165560.66, 165521.92, 165728.75, -29126.27, -187500.02, 23549.42, -187500.02, -181469.67, 0.000, 0.000, 0.000, 15:29:20.069, 1578576560069
31, -172944.42, -175251.44, -176464.31, -176326.11, -176405.61, -176450.56, -176475.20, -176451.17, 0.000, 0.000, 0.000, 15:29:20.069, 1578576560069
32, 165567.55, 165528.75, 165735.47, -29158.63, -187500.02, 23548.23, -187500.02, -181471.91, 0.000, 0.000, 0.000, 15:29:20.069, 1578576560069
33, -172964.39, -175283.92, -176469.28, -176331.14, -176410.59, -176456.00, -176480.22, -176456.11, 0.000, 0.000, 0.000, 15:29:20.070, 1578576560070
34, 165575.13, 165536.30, 165742.97, -29115.76, -187500.02, 23566.23, -187500.02, -181474.05, 0.000, 0.000, 0.000, 15:29:20.070, 1578576560070
35, -172986.53, -175319.34, -176473.47, -176335.39, -176414.89, -176460.73, -176484.39, -176460.33, 0.000, 0.000, 0.000, 15:29:20.070, 1578576560070
36, 165581.34, 165542.63, 165749.33, -29096.23, -187500.02, 23570.25, -187500.02, -181474.23, 0.000, 0.000, 0.000, 15:29:20.070, 1578576560070
37, -173008.75, -175354.66, -176479.67, -176341.48, -176421.16, -176467.38, -176490.59, -176466.53, 0.000, 0.000, 0.000, 15:29:20.070, 1578576560070
38, 165592.38, 165553.64, 165760.48, -29158.12, -187500.02, 23549.24, -187500.02, -181472.95, 0.000, 0.000, 0.000, 15:29:20.070, 1578576560070
39, -173030.17, -175388.75, -176485.34, -176347.23, -176426.92, -176473.39, -176496.39, -176472.31, -0.020, -0.024, 0.980, 15:29:20.070, 1578576560070
40, 165599.27, 165560.59, 165767.44, -29145.00, -187500.02, 23555.47, -187500.02, -181473.66, 0.000, 0.000, 0.000, 15:29:20.070, 1578576560070
41, -173049.19, -175420.39, -176490.28, -176352.13, -176431.88, -176478.50, -176501.23, -176477.09, 0.000, 0.000, 0.000, 15:29:20.070, 1578576560070
42, 165607.16, 165568.53, 165775.22, -29160.15, -187500.02, 23558.38, -187500.02, -181472.59, 0.000, 0.000, 0.000, 15:29:20.070, 1578576560070
43, -173071.72, -175454.11, -176494.80, -176356.70, -176436.53, -176483.31, -176505.81, -176481.61, 0.000, 0.000, 0.000, 15:29:20.070, 1578576560070
44, 165614.23, 165575.66, 165782.33, -29107.16, -187500.02, 23562.31, -187500.02, -181473.09, 0.000, 0.000, 0.000, 15:29:20.070, 1578576560070
45, -173095.20, -175490.17, -176500.77, -176362.70, -176442.47, -176489.56, -176511.73, -176487.56, 0.000, 0.000, 0.000, 15:29:20.070, 1578576560070
46, 165624.05, 165585.41, 165792.27, -29139.23, -187500.02, 23560.39, -187500.02, -181474.72, 0.000, 0.000, 0.000, 15:29:20.070, 1578576560070
47, -173115.75, -175523.95, -176507.89, -176369.77, -176449.56, -176496.88, -176518.88, -176494.64, 0.000, 0.000, 0.000, 15:29:20.070, 1578576560070
