%OpenBCI Raw EEG Data
%Number of channels = 8
%Sample Rate = 250.0 Hz
%First Column = SampleIndex
%Last Column = Timestamp 
%Other Columns = EEG data in microvolts followed by Accel Data (in G) interleaved with Aux Data
0, 93749.98, 93749.98, 93749.98, -13391.00, -89566.09, 10692.00, -89709.04, -89286.45, -0.028, -0.010, 0.980, 15:31:45.746, 1578576705746
1, -93750.01, -85764.20, -93750.01, -93750.01, -93750.01, -93750.01, -88832.55, -93750.01, 0.000, 0.000, 0.000, 15:31:46.228, 1578576706228
2, 187500.00, 187500.00, 187500.00, -26661.76, -178287.31, 21327.97, -178583.92, -177711.30, 0.000, 0.000, 0.000, 15:31:46.228, 1578576706228
3, -187500.02, -171524.05, -187500.02, -187500.02, -187500.02, -187500.02, -177660.42, -187500.02, 0.000, 0.000, 0.000, 15:31:46.228, 1578576706228
4, 187500.00, 187500.00, 187500.00, -26642.70, -178356.63, 21347.50, -178711.22, -177738.20, 0.000, 0.000, 0.000, 15:31:46.228, 1578576706228
5, -187500.02, -171521.84, -187500.02, -187500.02, -187500.02, -187500.02, -177657.83, -187500.02, 0.000, 0.000, 0.000, 15:31:46.228, 1578576706228
6, 187500.00, 187500.00, 187500.00, -26648.24, -178284.73, 21336.71, -178616.53, -177747.02, 0.000, 0.000, 0.000, 15:31:46.228, 1578576706228
7, -187500.02, -171514.52, -187500.02, -187500.02, -187500.02, -187500.02, -177650.20, -187500.02, -0.030, -0.012, 0.974, 15:31:46.228, 1578576706228
8, 187500.00, 187500.00, 187500.00, -26649.38, -178282.98, 21334.49, -178570.42, -177744.19, 0.000, 0.000, 0.000, 15:31:46.228, 1578576706228
9, -187500.02, -171511.77, -187500.02, -187500.02, -187500.02, -187500.02, -177647.09, -187500.02, 0.000, 0.000, 0.000, 15:31:46.228, 1578576706228
10, 187500.00, 187500.00, 187500.00, -26649.49, -178294.11, 21331.79, -178629.69, -177744.94, 0.000, 0.000, 0.000, 15:31:46.229, 1578576706229
11, -187500.02, -171505.23, -187500.02, -187500.02, -187500.02, -187500.02, -177640.23, -187500.02, 0.000, 0.000, 0.000, 15:31:46.229, 1578576706229
12, 187500.00, 187500.00, 187500.00, -26649.89, -178248.88, 21333.42, -178542.88, -177698.75, 0.000, 0.000, 0.000, 15:31:46.229, 1578576706229
13, -187500.02, -171497.64, -187500.02, -187500.02, -187500.02, -187500.02, -177632.34, -187500.02, 0.000, 0.000, 0.000, 15:31:46.229, 1578576706229
14, 187500.00, 187500.00, 187500.00, -26642.59, -178266.44, 21343.14, -178590.56, -177738.20, 0.000, 0.000, 0.000, 15:31:46.229, 1578576706229
15, -187500.02, -171493.73, -187500.02, -187500.02, -187500.02, -187500.02, -177628.13, -187500.02, 0.000, 0.000, 0.000, 15:31:46.229, 1578576706229
16, 187500.00, 187500.00, 187500.00, -26651.41, -178236.25, 21335.23, -178526.53, -177705.73, 0.000, 0.000, 0.000, 15:31:46.229, 1578576706229
17, -187500.02, -171489.34, -187500.02, -187500.02, -187500.02, -187500.02, -177623.20, -187500.02, -0.026, -0.018, 0.978, 15:31:46.229, 1578576706229
18, 187500.00, 187500.00, 187500.00, -26649.43, -178246.33, 21338.00, -178530.39, -177703.38, 0.000, 0.000, 0.000, 15:31:46.229, 1578576706229
19, -187500.02, -171486.41, -187500.02, -187500.02, -187500.02, -187500.02, -177619.92, -187500.02, 0.000, 0.000, 0.000, 15:31:46.229, 1578576706229
20, 187500.00, 187500.00, 187500.00, -26641.96, -178320.44, 21344.48, -178686.13, -177712.14, 0.000, 0.000, 0.000, 15:31:46.229, 1578576706229
21, -187500.02, -171483.25, -187500.02, -187500.02, -187500.02, -187500.02, -177616.45, -187500.02, 0.000, 0.000, 0.000, 15:31:46.229, 1578576706229
22, 187500.00, 187500.00, 187500.00, -26652.22, -178250.97, 21335.81, -178572.78, -177682.58, 0.000, 0.000, 0.000, 15:31:46.229, 1578576706229
23, -187500.02, -171477.77, -187500.02, -187500.02, -187500.02, -187500.02, -177610.67, -187500.02, 0.000, 0.000, 0.000, 15:31:46.230, 1578576706230
24, 187500.00, 187500.00, 187500.00, -26645.74, -178253.38, 21340.73, -178523.59, -177669.11, 0.000, 0.000, 0.000, 15:31:46.230, 1578576706230
25, -187500.02, -171473.33, -187500.02, -187500.02, -187500.02, -187500.02, -177605.75, -187500.02, 0.000, 0.000, 0.000, 15:31:46.230, 1578576706230
26, 187500.00, 187500.00, 187500.00, -26644.42, -178277.27, 21340.80, -178544.25, -177709.30, 0.000, 0.000, 0.000, 15:31:46.230, 1578576706230
27, -187500.02, -171468.81, -187500.02, -187500.02, -187500.02, -187500.02, -177600.98, -187500.02, -0.022, -0.018, 0.982, 15:31:46.230, 1578576706230
28, 187500.00, 187500.00, 187500.00, -26640.62, -178232.61, 21343.61, -178470.47, -177706.89, 0.000, 0.000, 0.000, 15:31:46.230, 1578576706230
29, -187500.02, -171461.33, -187500.02, -187500.02, -187500.02, -187500.02, -177593.08, -187500.02, 0.000, 0.000, 0.000, 15:31:46.230, 1578576706230
30, 187500.00, 187500.00, 187500.00, -26641.91, -178229.14, 21341.33, -178469.00, -177666.36, 0.000, 0.000, 0.000, 15:31:46.230, 1578576706230
31, -187500.02, -171456.36, -187500.02, -187500.02, -187500.02, -187500.02, -177587.73, -187500.02, 0.000, 0.000, 0.000, 15:31:46.230, 1578576706230
32, 187500.00, 187500.00, 187500.00, -26641.58, -178255.83, 21340.46, -178568.84, -177656.33, 0.000, 0.000, 0.000, 15:31:46.230, 1578576706230
33, -187500.02, -171454.17, -187500.02, -187500.02, -187500.02, -187500.02, -177585.23, -187500.02, 0.000, 0.000, 0.000, 15:31:46.230, 1578576706230
34, 187500.00, 187500.00, 187500.00, -26644.02, -178262.13, 21334.54, -178554.27, -177676.38, 0.000, 0.000, 0.000, 15:31:46.230, 1578576706230
35, -187500.02, -171451.28, -187500.02, -187500.02, -187500.02, -187500.02, -177581.94, -187500.02, 0.000, 0.000, 0.000, 15:31:46.231, 1578576706231
36, 187500.00, 187500.00, 187500.00, -26648.40, -178249.08, 21329.02, -178510.34, -177669.16, 0.000, 0.000, 0.000, 15:31:46.231, 1578576706231
37, -187500.02, -171444.72, -187500.02, -187500.02, -187500.02, -187500.02, -177575.06, -187500.02, -0.018, -0.016, 0.978, 15:31:46.231, 1578576706231
38, 187500.00, 187500.00, 187500.00, -26642.47, -178239.52, 21338.54, -178540.30, -177696.86, 0.000, 0.000, 0.000, 15:31:46.231, 1578576706231
39, -187500.02, -171440.13, -187500.02, -187500.02, -187500.02, -187500.02, -177570.00, -187500.02, 0.000, 0.000, 0.000, 15:31:46.231, 1578576706231
40, 187500.00, 187500.00, 187500.00, -26651.88, -178204.80, 21330.40, -178476.86, -177649.80, 0.000, 0.000, 0.000, 15:31:46.231, 1578576706231
41, -187500.02, -171436.52, -187500.02, -187500.02, -187500.02, -187500.02, -177566.13, -187500.02, 0.000, 0.000, 0.000, 15:31:46.231, 1578576706231
42, 187500.00, 187500.00, 187500.00, -26633.62, -178286.63, 21351.50, -178595.84, -177662.45, 0.000, 0.000, 0.000, 15:31:46.231, 1578576706231
43, -187500.02, -171435.02, -187500.02, -187500.02, -187500.02, -187500.02, -177564.17, -187500.02, 0.000, 0.000, 0.000, 15:31:46.231, 1578576706231
44, 187500.00, 187500.00, 187500.00, -26642.94, -178241.95, 21341.54, -178526.33, -177656.80, 0.000, 0.000, 0.000, 15:31:46.231, 1578576706231
45, -187500.02, -171430.77, -187500.02, -187500.02, -187500.02, -187500.02, -177559.64, -187500.02, 0.000, 0.000, 0.000, 15:31:46.231, 1578576706231
46, 187500.00, 187500.00, 187500.00, -26636.26, -178260.97, 21345.74, -178520.42, -177656.75, -0.018, -0.014, 0.976, 15:31:46.231, 1578576706231
47, -187500.02, -171429.36, -187500.02, -187500.02, -187500.02, -187500.02, -177557.89, -187500.02, 0.000, 0.000, 0.000, 15:31:46.231, 1578576706231
48, 187500.00, 187500.00, 187500.00, -26646.70, -178245.98, 21332.93, -178508.16, -177679.11, 0.000, 0.000, 0.000, 15:31:46.231, 1578576706231
49, -187500.02, -171425.58, -187500.02, -187500.02, -187500.02, -187500.02, -177553.64, -187500.02, 0.000, 0.000, 0.000, 15:31:46.231, 1578576706231
50, 187500.00, 187500.00, 187500.00, -26642.81, -178247.48, 21336.01, -178548.25, -177658.67, 0.000, 0.000, 0.000, 15:31:46.231, 1578576706231
51, -187500.02, -171419.67, -187500.02, -187500.02, -187500.02, -187500.02, -177547.41, -187500.02, 0.000, 0.000, 0.000, 15:31:46.231, 1578576706231
52, 187500.00, 187500.00, 187500.00, -26644.08, -178213.45, 21331.45, -178512.22, -177666.86, 0.000, 0.000, 0.000, 15:31:46.232, 1578576706232
53, -187500.02, -171414.56, -187500.02, -187500.02, -187500.02, -187500.02, -177542.02, -187500.02, 0.000, 0.000, 0.000, 15:31:46.232, 1578576706232
54, 187500.00, 187500.00, 187500.00, -26644.40, -178210.63, 21330.98, -178458.73, -177663.86, 0.000, 0.000, 0.000, 15:31:46.232, 1578576706232
55, -187500.02, -171408.89, -187500.02, -187500.02, -187500.02, -187500.02, -177535.94, -187500.02, 0.000, 0.000, 0.000, 15:31:46.232, 1578576706232
56, 187500.00, 187500.00, 187500.00, -26644.73, -178187.34, 21333.76, -178452.05, -177630.22, -0.014, -0.012, 0.974, 15:31:46.232, 1578576706232
57, -187500.02, -171403.41, -187500.02, -187500.02, -187500.02, -187500.02, -177530.11, -187500.02, 0.000, 0.000, 0.000, 15:31:46.232, 1578576706232
58, 187500.00, 187500.00, 187500.00, -26643.32, -178195.88, 21339.28, -178502.92, -177664.89, 0.000, 0.000, 0.000, 15:31:46.232, 1578576706232
59, -187500.02, -171399.30, -187500.02, -187500.02, -187500.02, -187500.02, -177525.64, -187500.02, 0.000, 0.000, 0.000, 15:31:46.232, 1578576706232
60, 187500.00, 187500.00, 187500.00, -26642.68, -178212.39, 21337.40, -178521.75, -177637.52, 0.000, 0.000, 0.000, 15:31:46.232, 1578576706232
61, -187500.02, -171393.64, -187500.02, -187500.02, -187500.02, -187500.02, -177519.67, -187500.02, 0.000, 0.000, 0.000, 15:31:46.232, 1578576706232
62, 187500.00, 187500.00, 187500.00, -26639.52, -178197.84, 21338.72, -178494.97, -177641.33, 0.000, 0.000, 0.000, 15:31:46.232, 1578576706232
63, -187500.02, -171388.52, -187500.02, -187500.02, -187500.02, -187500.02, -177514.31, -187500.02, 0.000, 0.000, 0.000, 15:31:46.232, 1578576706232
64, 187500.00, 187500.00, 187500.00, -26636.39, -178198.52, 21343.95, -178453.14, -177648.34, 0.000, 0.000, 0.000, 15:31:46.232, 1578576706232
65, -187500.02, -171385.69, -187500.02, -187500.02, -187500.02, -187500.02, -177511.11, -187500.02, 0.000, 0.000, 0.000, 15:31:46.232, 1578576706232
66, 187500.00, 187500.00, 187500.00, -26638.23, -178180.41, 21342.88, -178435.16, -177629.52, -0.016, -0.010, 0.976, 15:31:46.232, 1578576706232
67, -187500.02, -171382.05, -187500.02, -187500.02, -187500.02, -187500.02, -177507.00, -187500.02, 0.000, 0.000, 0.000, 15:31:46.232, 1578576706232
68, 187500.00, 187500.00, 187500.00, -26637.20, -178198.61, 21344.57, -178464.70, -177635.56, 0.000, 0.000, 0.000, 15:31:46.232, 1578576706232
69, -187500.02, -171376.39, -187500.02, -187500.02, -187500.02, -187500.02, -177501.13, -187500.02, 0.000, 0.000, 0.000, 15:31:46.232, 1578576706232
70, 187500.00, 187500.00, 187500.00, -26635.34, -178217.84, 21344.46, -178528.78, -177620.80, 0.000, 0.000, 0.000, 15:31:46.233, 1578576706233
71, -187500.02, -171371.48, -187500.02, -187500.02, -187500.02, -187500.02, -177495.80, -187500.02, 0.000, 0.000, 0.000, 15:31:46.233, 1578576706233
72, 187500.00, 187500.00, 187500.00, -26633.91, -178191.56, 21341.80, -178516.33, -177594.97, 0.000, 0.000, 0.000, 15:31:46.233, 1578576706233
73, -187500.02, -171366.81, -187500.02, -187500.02, -187500.02, -187500.02, -177490.81, -187500.02, 0.000, 0.000, 0.000, 15:31:46.233, 1578576706233
74, 187500.00, 187500.00, 187500.00, -26627.14, -178177.50, 21344.46, -178479.34, -177585.97, 0.000, 0.000, 0.000, 15:31:46.233, 1578576706233
75, -187500.02, -171364.47, -187500.02, -187500.02, -187500.02, -187500.02, -177488.14, -187500.02, 0.000, 0.000, 0.000, 15:31:46.233, 1578576706233
76, 187500.00, 187500.00, 187500.00, -26624.97, -178250.84, 21349.11, -178571.95, -177621.34, -0.020, -0.016, 0.976, 15:31:46.233, 1578576706233
77, -187500.02, -171362.28, -187500.02, -187500.02, -187500.02, -187500.02, -177485.63, -187500.02, 0.000, 0.000, 0.000, 15:31:46.233, 1578576706233
78, 187500.00, 187500.00, 187500.00, -26630.67, -178198.45, 21345.87, -178487.84, -177614.27, 0.000, 0.000, 0.000, 15:31:46.233, 1578576706233
79, -187500.02, -171356.45, -187500.02, -187500.02, -187500.02, -187500.02, -177479.42, -187500.02, 0.000, 0.000, 0.000, 15:31:46.233, 1578576706233
80, 187500.00, 187500.00, 187500.00, -26629.73, -178177.63, 21345.42, -178441.80, -177608.86, 0.000, 0.000, 0.000, 15:31:46.233, 1578576706233
81, -187500.02, -171351.39, -187500.02, -187500.02, -187500.02, -187500.02, -177473.88, -187500.02, 0.000, 0.000, 0.000, 15:31:46.233, 1578576706233
82, 187500.00, 187500.00, 187500.00, -26627.07, -178140.56, 21349.69, -178411.38, -177552.33, 0.000, 0.000, 0.000, 15:31:46.233, 1578576706233
83, -187500.02, -171345.19, -187500.02, -187500.02, -187500.02, -187500.02, -177467.30, -187500.02, 0.000, 0.000, 0.000, 15:31:46.233, 1578576706233
84, 187500.00, 187500.00, 187500.00, -26619.38, -178179.47, 21357.58, -178543.14, -177592.52, 0.000, 0.000, 0.000, 15:31:46.233, 1578576706233
85, -187500.02, -171343.38, -187500.02, -187500.02, -187500.02, -187500.02, -177465.09, -187500.02, 0.000, 0.000, 0.000, 15:31:46.233, 1578576706233
86, 187500.00, 187500.00, 187500.00, -26624.08, -178182.77, 21350.43, -178498.05, -177590.77, -0.020, -0.012, 0.974, 15:31:46.233, 1578576706233
87, -187500.02, -171338.16, -187500.02, -187500.02, -187500.02, -187500.02, -177459.66, -187500.02, 0.000, 0.000, 0.000, 15:31:46.233, 1578576706233
88, 187500.00, 187500.00, 187500.00, -26624.30, -178147.59, 21335.32, -178438.06, -177592.52, 0.000, 0.000, 0.000, 15:31:46.233, 1578576706233
89, -187500.02, -171334.28, -187500.02, -187500.02, -187500.02, -187500.02, -177455.45, -187500.02, 0.000, 0.000, 0.000, 15:31:46.233, 1578576706233
90, 187500.00, 187500.00, 187500.00, -26614.98, -178153.03, 21343.70, -178453.27, -177597.09, 0.000, 0.000, 0.000, 15:31:46.234, 1578576706234
91, -187500.02, -171329.94, -187500.02, -187500.02, -187500.02, -187500.02, -177450.69, -187500.02, 0.000, 0.000, 0.000, 15:31:46.234, 1578576706234
92, 187500.00, 187500.00, 187500.00, -26613.13, -178141.50, 21346.61, -178433.09, -177601.14, 0.000, 0.000, 0.000, 15:31:46.234, 1578576706234
93, -187500.02, -171326.14, -187500.02, -187500.02, -187500.02, -187500.02, -177446.48, -187500.02, 0.000, 0.000, 0.000, 15:31:46.234, 1578576706234
94, 187500.00, 187500.00, 187500.00, -26616.01, -178144.92, 21345.45, -178412.11, -177553.92, 0.000, 0.000, 0.000, 15:31:46.234, 1578576706234
95, -187500.02, -171322.34, -187500.02, -187500.02, -187500.02, -187500.02, -177442.42, -187500.02, -0.020, -0.016, 0.976, 15:31:46.234, 1578576706234
96, 187500.00, 187500.00, 187500.00, -26606.53, -178191.08, 21352.69, -178506.39, -177594.03, 0.000, 0.000, 0.000, 15:31:46.234, 1578576706234
97, -187500.02, -171318.36, -187500.02, -187500.02, -187500.02, -187500.02, -177438.00, -187500.02, 0.000, 0.000, 0.000, 15:31:46.234, 1578576706234
98, 187500.00, 187500.00, 187500.00, -26616.50, -178150.55, 21347.79, -178445.25, -177585.20, 0.000, 0.000, 0.000, 15:31:46.234, 1578576706234
99, -187500.02, -171314.05, -187500.02, -187500.02, -187500.02, -187500.02, -177433.34, -187500.02, 0.000, 0.000, 0.000, 15:31:46.234, 1578576706234
100, 187500.00, 187500.00, 187500.00, -26607.67, -178156.77, 21351.77, -178482.83, -177573.83, 0.000, 0.000, 0.000, 15:31:46.234, 1578576706234
101, -187500.02, -171312.03, -187500.02, -187500.02, -187500.02, -187500.02, -177431.05, -187500.02, 0.000, 0.000, 0.000, 15:31:46.234, 1578576706234
102, 187500.00, 187500.00, 187500.00, -26616.39, -178115.48, 21340.64, -178394.36, -177569.84, 0.000, 0.000, 0.000, 15:31:46.234, 1578576706234
103, -187500.02, -171305.39, -187500.02, -187500.02, -187500.02, -187500.02, -177424.03, -187500.02, 0.000, 0.000, 0.000, 15:31:46.234, 1578576706234
104, 187500.00, 187500.00, 187500.00, -26612.54, -178112.23, 21347.10, -178391.75, -177552.66, 0.000, 0.000, 0.000, 15:31:46.234, 1578576706234
105, -187500.02, -171297.69, -187500.02, -187500.02, -187500.02, -187500.02, -177415.95, -187500.02, -0.022, -0.010, 0.976, 15:31:46.234, 1578576706234
106, 187500.00, 187500.00, 187500.00, -26616.28, -178088.97, 21349.36, -178365.48, -177549.88, 0.000, 0.000, 0.000, 15:31:46.234, 1578576706234
107, -187500.02, -171291.00, -187500.02, -187500.02, -187500.02, -187500.02, -177408.88, -187500.02, 0.000, 0.000, 0.000, 15:31:46.235, 1578576706235
108, 187500.00, 187500.00, 187500.00, -26611.25, -178093.58, 21356.40, -178359.34, -177564.73, 0.000, 0.000, 0.000, 15:31:46.235, 1578576706235
109, -187500.02, -171286.42, -187500.02, -187500.02, -187500.02, -187500.02, -177403.91, -187500.02, 0.000, 0.000, 0.000, 15:31:46.235, 1578576706235
110, 187500.00, 187500.00, 187500.00, -26610.78, -178097.22, 21351.10, -178356.78, -177530.31, 0.000, 0.000, 0.000, 15:31:46.235, 1578576706235
111, -187500.02, -171283.02, -187500.02, -187500.02, -187500.02, -187500.02, -177400.27, -187500.02, 0.000, 0.000, 0.000, 15:31:46.235, 1578576706235
112, 187500.00, 187500.00, 187500.00, -26605.64, -178188.66, 21355.08, -178484.89, -177540.89, 0.000, 0.000, 0.000, 15:31:46.235, 1578576706235
113, -187500.02, -171279.52, -187500.02, -187500.02, -187500.02, -187500.02, -177396.38, -187500.02, 0.000, 0.000, 0.000, 15:31:46.236, 1578576706236
114, 187500.00, 187500.00, 187500.00, -26616.75, -178109.73, 21347.81, -178378.02, -177532.38, 0.000, 0.000, 0.000, 15:31:46.236, 1578576706236
115, -187500.02, -171274.13, -187500.02, -187500.02, -187500.02, -187500.02, -177390.59, -187500.02, -0.024, -0.012, 0.976, 15:31:46.236, 1578576706236
116, 187500.00, 187500.00, 187500.00, -26604.81, -178119.33, 21363.33, -178421.09, -177528.34, 0.000, 0.000, 0.000, 15:31:46.236, 1578576706236
117, -187500.02, -171271.44, -187500.02, -187500.02, -187500.02, -187500.02, -177387.59, -187500.02, 0.000, 0.000, 0.000, 15:31:46.236, 1578576706236
118, 187500.00, 187500.00, 187500.00, -26606.44, -178143.39, 21365.05, -178492.86, -177561.94, 0.000, 0.000, 0.000, 15:31:46.236, 1578576706236
119, -187500.02, -171268.42, -187500.02, -187500.02, -187500.02, -187500.02, -177384.28, -187500.02, 0.000, 0.000, 0.000, 15:31:46.236, 1578576706236
120, 187500.00, 187500.00, 187500.00, -26600.52, -178127.73, 21365.34, -178461.48, -177559.09, 0.000, 0.000, 0.000, 15:31:46.236, 1578576706236
121, -187500.02, -171264.58, -187500.02, -187500.02, -187500.02, -187500.02, -177380.11, -187500.02, 0.000, 0.000, 0.000, 15:31:46.707, 1578576706707
122, 187500.00, 187500.00, 187500.00, -26614.45, -178071.80, 21356.22, -178363.47, -177498.61, 0.000, 0.000, 0.000, 15:31:46.707, 1578576706707
123, -187500.02, -171258.70, -187500.02, -187500.02, -187500.02, -187500.02, -177373.83, -187500.02, 0.000, 0.000, 0.000, 15:31:46.707, 1578576706707
124, 187500.00, 187500.00, 187500.00, -26605.73, -178106.00, 21364.85, -178421.25, -177523.72, 0.000, 0.000, 0.000, 15:31:46.707, 1578576706707
125, -187500.02, -171257.55, -187500.02, -187500.02, -187500.02, -187500.02, -177372.33, -187500.02, -0.024, -0.012, 0.972, 15:31:46.707, 1578576706707
126, 187500.00, 187500.00, 187500.00, -26601.84, -178178.28, 21368.89, -178490.00, -177537.98, 0.000, 0.000, 0.000, 15:31:46.707, 1578576706707
127, -187500.02, -171252.56, -187500.02, -187500.02, -187500.02, -187500.02, -177367.05, -187500.02, 0.000, 0.000, 0.000, 15:31:46.707, 1578576706707
128, 187500.00, 187500.00, 187500.00, -26610.04, -178105.73, 21358.34, -178403.38, -177538.48, 0.000, 0.000, 0.000, 15:31:46.707, 1578576706707
129, -187500.02, -171249.77, -187500.02, -187500.02, -187500.02, -187500.02, -177363.83, -187500.02, 0.000, 0.000, 0.000, 15:31:46.707, 1578576706707
130, 187500.00, 187500.00, 187500.00, -26607.18, -178104.58, 21360.80, -178391.39, -177529.19, 0.000, 0.000, 0.000, 15:31:46.707, 1578576706707
131, -187500.02, -171245.45, -187500.02, -187500.02, -187500.02, -187500.02, -177359.14, -187500.02, 0.000, 0.000, 0.000, 15:31:46.707, 1578576706707
132, 187500.00, 187500.00, 187500.00, -26593.68, -178081.86, 21375.62, -178368.25, -177532.64, 0.000, 0.000, 0.000, 15:31:46.708, 1578576706708
133, -187500.02, -171239.41, -187500.02, -187500.02, -187500.02, -187500.02, -177352.66, -187500.02, 0.000, 0.000, 0.000, 15:31:46.708, 1578576706708
134, 187500.00, 187500.00, 187500.00, -26613.19, -178050.95, 21346.52, -178330.95, -177487.78, -0.020, -0.014, 0.978, 15:31:46.708, 1578576706708
135, -187500.02, -171233.72, -187500.02, -187500.02, -187500.02, -187500.02, -177346.63, -187500.02, 0.000, 0.000, 0.000, 15:31:46.708, 1578576706708
136, 187500.00, 187500.00, 187500.00, -26591.47, -178095.31, 21363.10, -178396.63, -177539.23, 0.000, 0.000, 0.000, 15:31:46.708, 1578576706708
137, -187500.02, -171231.48, -187500.02, -187500.02, -187500.02, -187500.02, -177344.09, -187500.02, 0.000, 0.000, 0.000, 15:31:46.708, 1578576706708
138, 187500.00, 187500.00, 187500.00, -26597.64, -178081.95, 21357.18, -178345.56, -177504.20, 0.000, 0.000, 0.000, 15:31:46.708, 1578576706708
139, -187500.02, -171223.14, -187500.02, -187500.02, -187500.02, -187500.02, -177335.47, -187500.02, 0.000, 0.000, 0.000, 15:31:46.708, 1578576706708
140, 187500.00, 187500.00, 187500.00, -26591.42, -178072.28, 21363.33, -178372.75, -177532.48, 0.000, 0.000, 0.000, 15:31:46.708, 1578576706708
141, -187500.02, -171220.66, -187500.02, -187500.02, -187500.02, -187500.02, -177332.56, -187500.02, 0.000, 0.000, 0.000, 15:31:46.708, 1578576706708
142, 187500.00, 187500.00, 187500.00, -26591.78, -178082.72, 21366.12, -178350.33, -177509.61, 0.000, 0.000, 0.000, 15:31:46.708, 1578576706708
143, -187500.02, -171214.53, -187500.02, -187500.02, -187500.02, -187500.02, -177326.23, -187500.02, 0.000, 0.000, 0.000, 15:31:46.708, 1578576706708
144, 187500.00, 187500.00, 187500.00, -26587.38, -178064.67, 21373.88, -178354.17, -177489.09, -0.018, -0.018, 0.978, 15:31:46.708, 1578576706708
145, -187500.02, -171210.92, -187500.02, -187500.02, -187500.02, -187500.02, -177322.28, -187500.02, 0.000, 0.000, 0.000, 15:31:46.708, 1578576706708
146, 187500.00, 187500.00, 187500.00, -26595.89, -178052.53, 21364.36, -178352.78, -177474.16, 0.000, 0.000, 0.000, 15:31:46.708, 1578576706708
147, -187500.02, -171204.72, -187500.02, -187500.02, -187500.02, -187500.02, -177315.56, -187500.02, 0.000, 0.000, 0.000, 15:31:46.708, 1578576706708
148, 187500.00, 187500.00, 187500.00, -26587.58, -178068.56, 21374.12, -178351.27, -177475.48, 0.000, 0.000, 0.000, 15:31:46.708, 1578576706708
149, -187500.02, -171201.11, -187500.02, -187500.02, -187500.02, -187500.02, -177311.59, -187500.02, 0.000, 0.000, 0.000, 15:31:46.708, 1578576706708
150, 187500.00, 187500.00, 187500.00, -26591.18, -178059.88, 21371.15, -178340.34, -177495.98, 0.000, 0.000, 0.000, 15:31:46.708, 1578576706708
151, -187500.02, -171195.42, -187500.02, -187500.02, -187500.02, -187500.02, -177305.66, -187500.02, 0.000, 0.000, 0.000, 15:31:46.708, 1578576706708
152, 187500.00, 187500.00, 187500.00, -26586.59, -178020.69, 21384.79, -178291.88, -177457.95, 0.000, 0.000, 0.000, 15:31:46.709, 1578576706709
153, -187500.02, -171190.95, -187500.02, -187500.02, -187500.02, -187500.02, -177300.89, -187500.02, 0.000, 0.000, 0.000, 15:31:46.709, 1578576706709
154, 187500.00, 187500.00, 187500.00, -26577.90, -178069.19, 21391.00, -178407.55, -177503.89, -0.018, -0.014, 0.980, 15:31:46.709, 1578576706709
155, -187500.02, -171188.45, -187500.02, -187500.02, -187500.02, -187500.02, -177297.94, -187500.02, 0.000, 0.000, 0.000, 15:31:46.709, 1578576706709
156, 187500.00, 187500.00, 187500.00, -26580.18, -178064.09, 21383.35, -178387.81, -177519.11, 0.000, 0.000, 0.000, 15:31:46.709, 1578576706709
157, -187500.02, -171183.27, -187500.02, -187500.02, -187500.02, -187500.02, -177292.47, -187500.02, 0.000, 0.000, 0.000, 15:31:46.709, 1578576706709
158, 187500.00, 187500.00, 187500.00, -26579.71, -178056.72, 21383.09, -178359.77, -177475.33, 0.000, 0.000, 0.000, 15:31:46.709, 1578576706709
159, -187500.02, -171180.88, -187500.02, -187500.02, -187500.02, -187500.02, -177289.73, -187500.02, 0.000, 0.000, 0.000, 15:31:46.709, 1578576706709
160, 187500.00, 187500.00, 187500.00, -26583.15, -178057.80, 21384.38, -178343.89, -177490.33, 0.000, 0.000, 0.000, 15:31:46.709, 1578576706709
161, -187500.02, -171173.92, -187500.02, -187500.02, -187500.02, -187500.02, -177282.44, -187500.02, 0.000, 0.000, 0.000, 15:31:46.709, 1578576706709
162, 187500.00, 187500.00, 187500.00, -26583.69, -178026.44, 21387.67, -178291.44, -177492.09, 0.000, 0.000, 0.000, 15:31:46.709, 1578576706709
163, -187500.02, -171169.77, -187500.02, -187500.02, -187500.02, -187500.02, -177277.80, -187500.02, 0.000, 0.000, 0.000, 15:31:46.709, 1578576706709
164, 187500.00, 187500.00, 187500.00, -26588.85, -178002.94, 21389.17, -178227.13, -177456.45, -0.020, -0.016, 0.980, 15:31:46.709, 1578576706709
165, -187500.02, -171160.95, -187500.02, -187500.02, -187500.02, -187500.02, -177268.64, -187500.02, 0.000, 0.000, 0.000, 15:31:46.709, 1578576706709
166, 187500.00, 187500.00, 187500.00, -26581.56, -178011.80, 21395.36, -178315.50, -177468.13, 0.000, 0.000, 0.000, 15:31:46.709, 1578576706709
167, -187500.02, -171158.81, -187500.02, -187500.02, -187500.02, -187500.02, -177266.11, -187500.02, 0.000, 0.000, 0.000, 15:31:46.710, 1578576706710
168, 187500.00, 187500.00, 187500.00, -26575.17, -178075.47, 21403.54, -178390.61, -177487.73, 0.000, 0.000, 0.000, 15:31:46.710, 1578576706710
169, -187500.02, -171160.41, -187500.02, -187500.02, -187500.02, -187500.02, -177267.39, -187500.02, 0.000, 0.000, 0.000, 15:31:46.710, 1578576706710
170, 187500.00, 187500.00, 187500.00, -26580.96, -178051.83, 21398.71, -178350.38, -177483.42, 0.000, 0.000, 0.000, 15:31:46.710, 1578576706710
171, -187500.02, -171156.02, -187500.02, -187500.02, -187500.02, -187500.02, -177262.69, -187500.02, 0.000, 0.000, 0.000, 15:31:46.710, 1578576706710
172, 187500.00, 187500.00, 187500.00, -26578.12, -178018.58, 21403.74, -178326.66, -177449.78, 0.000, 0.000, 0.000, 15:31:46.710, 1578576706710
173, -187500.02, -171150.34, -187500.02, -187500.02, -187500.02, -187500.02, -177256.70, -187500.02, -0.020, -0.018, 0.976, 15:31:46.710, 1578576706710
174, 187500.00, 187500.00, 187500.00, -26586.30, -177983.09, 21392.90, -178282.64, -177433.63, 0.000, 0.000, 0.000, 15:31:46.710, 1578576706710
175, -187500.02, -171140.66, -187500.02, -187500.02, -187500.02, -187500.02, -177246.78, -187500.02, 0.000, 0.000, 0.000, 15:31:46.710, 1578576706710
176, 187500.00, 187500.00, 187500.00, -26574.57, -178001.78, 21399.69, -178327.00, -177433.53, 0.000, 0.000, 0.000, 15:31:46.710, 1578576706710
177, -187500.02, -171136.66, -187500.02, -187500.02, -187500.02, -187500.02, -177242.28, -187500.02, 0.000, 0.000, 0.000, 15:31:46.710, 1578576706710
178, 187500.00, 187500.00, 187500.00, -26578.91, -178020.84, 21397.41, -178328.67, -177477.00, 0.000, 0.000, 0.000, 15:31:46.710, 1578576706710
179, -187500.02, -171133.48, -187500.02, -187500.02, -187500.02, -187500.02, -177238.75, -187500.02, 0.000, 0.000, 0.000, 15:31:46.710, 1578576706710
180, 187500.00, 187500.00, 187500.00, -26584.70, -178024.78, 21396.01, -178290.31, -177456.75, 0.000, 0.000, 0.000, 15:31:46.710, 1578576706710
181, -187500.02, -171130.89, -187500.02, -187500.02, -187500.02, -187500.02, -177235.80, -187500.02, 0.000, 0.000, 0.000, 15:31:46.710, 1578576706710
182, 187500.00, 187500.00, 187500.00, -26577.41, -178016.03, 21399.56, -178277.02, -177474.00, 0.000, 0.000, 0.000, 15:31:46.710, 1578576706710
183, -187500.02, -171128.91, -187500.02, -187500.02, -187500.02, -187500.02, -177233.39, -187500.02, -0.022, -0.014, 0.976, 15:31:46.710, 1578576706710
184, 187500.00, 187500.00, 187500.00, -26578.71, -177984.72, 21391.98, -178246.97, -177443.44, 0.000, 0.000, 0.000, 15:31:46.710, 1578576706710
185, -187500.02, -171124.22, -187500.02, -187500.02, -187500.02, -187500.02, -177228.42, -187500.02, 0.000, 0.000, 0.000, 15:31:46.710, 1578576706710
186, 187500.00, 187500.00, 187500.00, -26571.80, -178001.75, 21400.48, -178347.00, -177456.11, 0.000, 0.000, 0.000, 15:31:46.710, 1578576706710
187, -187500.02, -171120.45, -187500.02, -187500.02, -187500.02, -187500.02, -177224.25, -187500.02, 0.000, 0.000, 0.000, 15:31:46.710, 1578576706710
188, 187500.00, 187500.00, 187500.00, -26575.22, -177989.86, 21398.91, -178314.70, -177444.23, 0.000, 0.000, 0.000, 15:31:46.710, 1578576706710
189, -187500.02, -171113.50, -187500.02, -187500.02, -187500.02, -187500.02, -177216.97, -187500.02, 0.000, 0.000, 0.000, 15:31:46.711, 1578576706711
190, 187500.00, 187500.00, 187500.00, -26580.02, -177949.08, 21393.12, -178253.59, -177394.34, 0.000, 0.000, 0.000, 15:31:46.711, 1578576706711
191, -187500.02, -171108.09, -187500.02, -187500.02, -187500.02, -187500.02, -177211.27, -187500.02, 0.000, 0.000, 0.000, 15:31:46.711, 1578576706711
192, 187500.00, 187500.00, 187500.00, -26571.04, -178000.44, 21398.93, -178340.88, -177430.23, 0.000, 0.000, 0.000, 15:31:46.712, 1578576706712
193, -187500.02, -171105.91, -187500.02, -187500.02, -187500.02, -187500.02, -177208.67, -187500.02, -0.024, -0.018, 0.980, 15:31:46.712, 1578576706712
194, 187500.00, 187500.00, 187500.00, -26576.38, -177965.56, 21393.95, -178278.92, -177410.64, 0.000, 0.000, 0.000, 15:31:46.712, 1578576706712
195, -187500.02, -171101.08, -187500.02, -187500.02, -187500.02, -187500.02, -177203.50, -187500.02, 0.000, 0.000, 0.000, 15:31:46.712, 1578576706712
196, 187500.00, 187500.00, 187500.00, -26562.37, -178002.61, 21391.85, -178348.98, -177417.70, 0.000, 0.000, 0.000, 15:31:46.712, 1578576706712
197, -187500.02, -171097.64, -187500.02, -187500.02, -187500.02, -187500.02, -177199.69, -187500.02, 0.000, 0.000, 0.000, 15:31:46.712, 1578576706712
198, 187500.00, 187500.00, 187500.00, -26558.16, -177973.72, 21377.07, -178278.98, -177419.78, 0.000, 0.000, 0.000, 15:31:46.712, 1578576706712
199, -187500.02, -171093.59, -187500.02, -187500.02, -187500.02, -187500.02, -177195.30, -187500.02, 0.000, 0.000, 0.000, 15:31:46.712, 1578576706712
200, 187500.00, 187500.00, 187500.00, -26559.37, -177954.25, 21356.46, -178220.94, -177441.94, 0.000, 0.000, 0.000, 15:31:46.712, 1578576706712
201, -187500.02, -171085.75, -187500.02, -187500.02, -187500.02, -187500.02, -177187.13, -187500.02, 0.000, 0.000, 0.000, 15:31:46.712, 1578576706712
202, 187500.00, 187500.00, 187500.00, -26546.56, -177951.70, 21343.68, -178239.53, -177401.72, 0.000, 0.000, 0.000, 15:31:46.712, 1578576706712
203, -187500.02, -171082.95, -187500.02, -187500.02, -187500.02, -187500.02, -177183.86, -187500.02, -0.018, -0.014, 0.980, 15:31:46.712, 1578576706712
204, 187500.00, 187500.00, 187500.00, -26535.97, -178008.53, 21305.06, -178355.19, -177420.45, 0.000, 0.000, 0.000, 15:31:46.712, 1578576706712
205, -187500.02, -171077.50, -187500.02, -187500.02, -187500.02, -187500.02, -177178.11, -187500.02, 0.000, 0.000, 0.000, 15:31:46.712, 1578576706712
206, 187500.00, 187500.00, 187500.00, -26534.02, -177955.23, 21252.11, -178279.92, -177438.47, 0.000, 0.000, 0.000, 15:31:46.712, 1578576706712
207, -187500.02, -171073.70, -187500.02, -187500.02, -187500.02, -187500.02, -177174.00, -187500.02, 0.000, 0.000, 0.000, 15:31:46.712, 1578576706712
208, 187500.00, 187500.00, 187500.00, -26514.69, -177943.02, 21223.83, -178224.38, -177409.67, 0.000, 0.000, 0.000, 15:31:46.713, 1578576706713
209, -187500.02, -171069.97, -187500.02, -187500.02, -187500.02, -187500.02, -177169.91, -187500.02, 0.000, 0.000, 0.000, 15:31:46.713, 1578576706713
210, 187500.00, 187500.00, 187500.00, -26502.46, -178004.08, 21196.54, -178282.17, -177417.22, 0.000, 0.000, 0.000, 15:31:46.713, 1578576706713
211, -187500.02, -171069.19, -187500.02, -187500.02, -187500.02, -187500.02, -177168.84, -187500.02, 0.000, 0.000, 0.000, 15:31:46.713, 1578576706713
212, 187500.00, 187500.00, 187500.00, -26513.33, -177971.56, 21169.31, -178208.64, -177359.64, -0.020, -0.014, 0.986, 15:31:46.713, 1578576706713
213, -187500.02, -171063.27, -187500.02, -187500.02, -187500.02, -187500.02, -177162.67, -187500.02, 0.000, 0.000, 0.000, 15:31:46.713, 1578576706713
214, 187500.00, 187500.00, 187500.00, -26500.94, -177992.39, 21181.36, -178318.02, -177405.80, 0.000, 0.000, 0.000, 15:31:46.713, 1578576706713
215, -187500.02, -171060.17, -187500.02, -187500.02, -187500.02, -187500.02, -177159.19, -187500.02, 0.000, 0.000, 0.000, 15:31:46.713, 1578576706713
216, 187500.00, 187500.00, 187500.00, -26504.79, -177993.38, 21189.61, -178319.13, -177414.28, 0.000, 0.000, 0.000, 15:31:46.713, 1578576706713
217, -187500.02, -171053.16, -187500.02, -187500.02, -187500.02, -187500.02, -177151.72, -187500.02, 0.000, 0.000, 0.000, 15:31:46.713, 1578576706713
218, 187500.00, 187500.00, 187500.00, -26523.90, -177929.72, 21196.87, -178223.48, -177359.83, 0.000, 0.000, 0.000, 15:31:46.713, 1578576706713
219, -187500.02, -171047.95, -187500.02, -187500.02, -187500.02, -187500.02, -177146.20, -187500.02, 0.000, 0.000, 0.000, 15:31:46.713, 1578576706713
220, 187500.00, 187500.00, 187500.00, -26523.94, -177935.14, 21224.72, -178211.75, -177355.28, 0.000, 0.000, 0.000, 15:31:46.713, 1578576706713
221, -187500.02, -171044.22, -187500.02, -187500.02, -187500.02, -187500.02, -177142.27, -187500.02, 0.000, 0.000, 0.000, 15:31:46.713, 1578576706713
222, 187500.00, 187500.00, 187500.00, -26525.80, -177946.05, 21257.89, -178221.45, -177393.66, -0.022, -0.010, 0.978, 15:31:46.713, 1578576706713
223, -187500.02, -171041.06, -187500.02, -187500.02, -187500.02, -187500.02, -177138.63, -187500.02, 0.000, 0.000, 0.000, 15:31:46.713, 1578576706713
224, 187500.00, 187500.00, 187500.00, -26532.10, -177918.41, 21288.40, -178206.23, -177378.72, 0.000, 0.000, 0.000, 15:31:46.713, 1578576706713
225, -187500.02, -171035.55, -187500.02, -187500.02, -187500.02, -187500.02, -177132.78, -187500.02, 0.000, 0.000, 0.000, 15:31:46.713, 1578576706713
226, 187500.00, 187500.00, 187500.00, -26533.73, -177941.53, 21320.61, -178246.73, -177381.45, 0.000, 0.000, 0.000, 15:31:46.713, 1578576706713
227, -187500.02, -171029.44, -187500.02, -187500.02, -187500.02, -187500.02, -177126.38, -187500.02, 0.000, 0.000, 0.000, 15:31:46.713, 1578576706713
228, 187500.00, 187500.00, 187500.00, -26546.05, -177919.66, 21332.33, -178204.81, -177372.95, 0.000, 0.000, 0.000, 15:31:46.713, 1578576706713
229, -187500.02, -171024.95, -187500.02, -187500.02, -187500.02, -187500.02, -177121.36, -187500.02, 0.000, 0.000, 0.000, 15:31:46.714, 1578576706714
230, 187500.00, 187500.00, 187500.00, -26542.88, -177960.56, 21352.33, -178236.20, -177377.53, 0.000, 0.000, 0.000, 15:31:46.714, 1578576706714
231, -187500.02, -171020.92, -187500.02, -187500.02, -187500.02, -187500.02, -177116.98, -187500.02, 0.000, 0.000, 0.000, 15:31:46.714, 1578576706714
232, 187500.00, 187500.00, 187500.00, -26554.59, -177911.72, 21365.41, -178168.25, -177345.16, -0.024, -0.010, 0.982, 15:31:46.714, 1578576706714
233, -187500.02, -171014.91, -187500.02, -187500.02, -187500.02, -187500.02, -177110.61, -187500.02, 0.000, 0.000, 0.000, 15:31:46.714, 1578576706714
234, 187500.00, 187500.00, 187500.00, -26557.43, -177942.50, 21388.92, -178258.11, -177363.81, 0.000, 0.000, 0.000, 15:31:46.714, 1578576706714
235, -187500.02, -171012.78, -187500.02, -187500.02, -187500.02, -187500.02, -177108.11, -187500.02, 0.000, 0.000, 0.000, 15:31:46.714, 1578576706714
236, 187500.00, 187500.00, 187500.00, -26548.44, -177956.05, 21410.20, -178254.31, -177371.38, 0.000, 0.000, 0.000, 15:31:46.714, 1578576706714
237, -187500.02, -171011.33, -187500.02, -187500.02, -187500.02, -187500.02, -177106.34, -187500.02, 0.000, 0.000, 0.000, 15:31:46.714, 1578576706714
238, 187500.00, 187500.00, 187500.00, -26555.62, -177937.98, 21413.46, -178223.11, -177341.91, 0.000, 0.000, 0.000, 15:31:46.714, 1578576706714
239, -187500.02, -171008.47, -187500.02, -187500.02, -187500.02, -187500.02, -177103.27, -187500.02, 0.000, 0.000, 0.000, 15:31:46.714, 1578576706714
240, 187500.00, 187500.00, 187500.00, -26556.38, -177964.41, 21420.99, -178254.70, -177371.28, 0.000, 0.000, 0.000, 15:31:46.714, 1578576706714
241, -187500.02, -171005.44, -187500.02, -187500.02, -187500.02, -187500.02, -177099.89, -187500.02, 0.000, 0.000, 0.000, 15:31:47.188, 1578576707188
242, 187500.00, 187500.00, 187500.00, -26555.73, -177930.92, 21426.70, -178219.13, -177346.20, -0.020, -0.010, 0.982, 15:31:47.189, 1578576707189
243, -187500.02, -170998.34, -187500.02, -187500.02, -187500.02, -187500.02, -177092.38, -187500.02, 0.000, 0.000, 0.000, 15:31:47.189, 1578576707189
244, 187500.00, 187500.00, 187500.00, -26558.16, -177886.08, 21439.66, -178186.11, -177331.33, 0.000, 0.000, 0.000, 15:31:47.189, 1578576707189
245, -187500.02, -170993.70, -187500.02, -187500.02, -187500.02, -187500.02, -177087.25, -187500.02, 0.000, 0.000, 0.000, 15:31:47.189, 1578576707189
246, 187500.00, 187500.00, 187500.00, -26554.72, -177911.13, 21449.07, -178256.45, -177353.91, 0.000, 0.000, 0.000, 15:31:47.189, 1578576707189
247, -187500.02, -170987.73, -187500.02, -187500.02, -187500.02, -187500.02, -177081.00, -187500.02, 0.000, 0.000, 0.000, 15:31:47.189, 1578576707189
248, 187500.00, 187500.00, 187500.00, -26558.99, -177873.34, 21447.79, -178167.16, -177343.39, 0.000, 0.000, 0.000, 15:31:47.189, 1578576707189
249, -187500.02, -170982.95, -187500.02, -187500.02, -187500.02, -187500.02, -177075.92, -187500.02, 0.000, 0.000, 0.000, 15:31:47.189, 1578576707189
250, 187500.00, 187500.00, 187500.00, -26557.16, -177909.16, 21450.66, -178191.28, -177357.28, 0.000, 0.000, 0.000, 15:31:47.189, 1578576707189
251, -187500.02, -170980.45, -187500.02, -187500.02, -187500.02, -187500.02, -177073.06, -187500.02, -0.016, -0.010, 0.978, 15:31:47.189, 1578576707189
252, 187500.00, 187500.00, 187500.00, -26558.34, -177904.20, 21449.96, -178171.69, -177345.50, 0.000, 0.000, 0.000, 15:31:47.189, 1578576707189
253, -187500.02, -170976.11, -187500.02, -187500.02, -187500.02, -187500.02, -177068.33, -187500.02, 0.000, 0.000, 0.000, 15:31:47.189, 1578576707189
254, 187500.00, 187500.00, 187500.00, -26558.86, -177871.69, 21454.84, -178166.73, -177310.42, 0.000, 0.000, 0.000, 15:31:47.190, 1578576707190
255, -187500.02, -170970.55, -187500.02, -187500.02, -187500.02, -187500.02, -177062.52, -187500.02, 0.000, 0.000, 0.000, 15:31:47.190, 1578576707190
0, 187500.00, 187500.00, 187500.00, -26556.49, -177875.89, 21457.38, -178168.36, -177334.23, 0.000, 0.000, 0.000, 15:31:47.190, 1578576707190
1, -187500.02, -170963.95, -187500.02, -187500.02, -187500.02, -187500.02, -177055.42, -187500.02, 0.000, 0.000, 0.000, 15:31:47.190, 1578576707190
2, 187500.00, 187500.00, 187500.00, -26550.05, -177896.88, 21464.80, -178206.25, -177347.92, 0.000, 0.000, 0.000, 15:31:47.190, 1578576707190
3, -187500.02, -170960.17, -187500.02, -187500.02, -187500.02, -187500.02, -177051.41, -187500.02, 0.000, 0.000, 0.000, 15:31:47.190, 1578576707190
4, 187500.00, 187500.00, 187500.00, -26560.69, -177852.36, 21451.93, -178150.97, -177343.56, 0.000, 0.000, 0.000, 15:31:47.190, 1578576707190
5, -187500.02, -170953.41, -187500.02, -187500.02, -187500.02, -187500.02, -177044.14, -187500.02, -0.018, -0.012, 0.982, 15:31:47.190, 1578576707190
6, 187500.00, 187500.00, 187500.00, -26559.73, -177842.86, 21450.68, -178145.41, -177312.42, 0.000, 0.000, 0.000, 15:31:47.190, 1578576707190
7, -187500.02, -170948.77, -187500.02, -187500.02, -187500.02, -187500.02, -177039.22, -187500.02, 0.000, 0.000, 0.000, 15:31:47.190, 1578576707190
8, 187500.00, 187500.00, 187500.00, -26553.29, -177861.50, 21458.93, -178170.58, -177327.45, 0.000, 0.000, 0.000, 15:31:47.190, 1578576707190
9, -187500.02, -170947.36, -187500.02, -187500.02, -187500.02, -187500.02, -177037.61, -187500.02, 0.000, 0.000, 0.000, 15:31:47.190, 1578576707190
10, 187500.00, 187500.00, 187500.00, -26549.85, -177894.13, 21459.82, -178181.95, -177324.56, 0.000, 0.000, 0.000, 15:31:47.190, 1578576707190
11, -187500.02, -170945.84, -187500.02, -187500.02, -187500.02, -187500.02, -177035.63, -187500.02, 0.000, 0.000, 0.000, 15:31:47.190, 1578576707190
12, 187500.00, 187500.00, 187500.00, -26549.49, -177928.89, 21464.27, -178185.11, -177302.50, 0.000, 0.000, 0.000, 15:31:47.190, 1578576707190
13, -187500.02, -170943.78, -187500.02, -187500.02, -187500.02, -187500.02, -177033.20, -187500.02, 0.000, 0.000, 0.000, 15:31:47.190, 1578576707190
14, 187500.00, 187500.00, 187500.00, -26543.25, -177908.64, 21469.79, -178191.05, -177321.59, 0.000, 0.000, 0.000, 15:31:47.190, 1578576707190
15, -187500.02, -170940.45, -187500.02, -187500.02, -187500.02, -187500.02, -177029.59, -187500.02, -0.022, -0.010, 0.978, 15:31:47.190, 1578576707190
16, 187500.00, 187500.00, 187500.00, -26555.30, -177869.91, 21458.01, -178114.63, -177310.84, 0.000, 0.000, 0.000, 15:31:47.190, 1578576707190
17, -187500.02, -170934.84, -187500.02, -187500.02, -187500.02, -187500.02, -177023.38, -187500.02, 0.000, 0.000, 0.000, 15:31:47.191, 1578576707191
18, 187500.00, 187500.00, 187500.00, -26546.94, -177891.09, 21465.52, -178160.25, -177305.34, 0.000, 0.000, 0.000, 15:31:47.191, 1578576707191
19, -187500.02, -170932.70, -187500.02, -187500.02, -187500.02, -187500.02, -177020.88, -187500.02, 0.000, 0.000, 0.000, 15:31:47.191, 1578576707191
20, 187500.00, 187500.00, 187500.00, -26547.19, -177891.92, 21458.99, -178207.13, -177311.63, 0.000, 0.000, 0.000, 15:31:47.191, 1578576707191
21, -187500.02, -170927.77, -187500.02, -187500.02, -187500.02, -187500.02, -177015.73, -187500.02, 0.000, 0.000, 0.000, 15:31:47.191, 1578576707191
22, 187500.00, 187500.00, 187500.00, -26547.81, -177894.28, 21457.45, -178188.56, -177307.17, 0.000, 0.000, 0.000, 15:31:47.191, 1578576707191
23, -187500.02, -170921.53, -187500.02, -187500.02, -187500.02, -187500.02, -177009.05, -187500.02, 0.000, 0.000, 0.000, 15:31:47.191, 1578576707191
24, 187500.00, 187500.00, 187500.00, -26551.81, -177869.47, 21455.86, -178143.00, -177266.63, 0.000, 0.000, 0.000, 15:31:47.191, 1578576707191
25, -187500.02, -170917.22, -187500.02, -187500.02, -187500.02, -187500.02, -177004.39, -187500.02, -0.022, -0.008, 0.982, 15:31:47.191, 1578576707191
26, 187500.00, 187500.00, 187500.00, -26554.70, -177863.86, 21454.01, -178176.91, -177283.61, 0.000, 0.000, 0.000, 15:31:47.191, 1578576707191
27, -187500.02, -170913.69, -187500.02, -187500.02, -187500.02, -187500.02, -177000.58, -187500.02, 0.000, 0.000, 0.000, 15:31:47.191, 1578576707191
28, 187500.00, 187500.00, 187500.00, -26552.46, -177846.25, 21453.05, -178154.13, -177269.06, 0.000, 0.000, 0.000, 15:31:47.191, 1578576707191
29, -187500.02, -170910.13, -187500.02, -187500.02, -187500.02, -187500.02, -176996.78, -187500.02, 0.000, 0.000, 0.000, 15:31:47.191, 1578576707191
30, 187500.00, 187500.00, 187500.00, -26544.84, -177843.95, 21454.90, -178121.31, -177270.70, 0.000, 0.000, 0.000, 15:31:47.191, 1578576707191
31, -187500.02, -170905.36, -187500.02, -187500.02, -187500.02, -187500.02, -176991.52, -187500.02, 0.000, 0.000, 0.000, 15:31:47.191, 1578576707191
32, 187500.00, 187500.00, 187500.00, -26528.10, -177841.31, 21472.76, -178135.27, -177299.97, 0.000, 0.000, 0.000, 15:31:47.191, 1578576707191
33, -187500.02, -170900.06, -187500.02, -187500.02, -187500.02, -187500.02, -176985.86, -187500.02, 0.000, 0.000, 0.000, 15:31:47.191, 1578576707191
34, 187500.00, 187500.00, 187500.00, -26543.21, -177809.16, 21469.52, -178090.42, -177252.17, 0.000, 0.000, 0.000, 15:31:47.191, 1578576707191
35, -187500.02, -170892.80, -187500.02, -187500.02, -187500.02, -187500.02, -176978.22, -187500.02, -0.020, -0.012, 0.982, 15:31:47.191, 1578576707191
36, 187500.00, 187500.00, 187500.00, -26550.14, -177876.63, 21454.19, -178210.50, -177282.83, 0.000, 0.000, 0.000, 15:31:47.191, 1578576707191
37, -187500.02, -170888.73, -187500.02, -187500.02, -187500.02, -187500.02, -176973.91, -187500.02, 0.000, 0.000, 0.000, 15:31:47.192, 1578576707192
38, 187500.00, 187500.00, 187500.00, -26568.60, -177808.95, 21431.41, -178097.83, -177262.36, 0.000, 0.000, 0.000, 15:31:47.192, 1578576707192
39, -187500.02, -170881.88, -187500.02, -187500.02, -187500.02, -187500.02, -176966.59, -187500.02, 0.000, 0.000, 0.000, 15:31:47.192, 1578576707192
40, 187500.00, 187500.00, 187500.00, -26567.39, -177819.86, 21428.84, -178125.30, -177297.81, 0.000, 0.000, 0.000, 15:31:47.192, 1578576707192
41, -187500.02, -170880.89, -187500.02, -187500.02, -187500.02, -187500.02, -176965.42, -187500.02, 0.000, 0.000, 0.000, 15:31:47.192, 1578576707192
42, 187500.00, 187500.00, 187500.00, -26569.56, -177833.31, 21432.04, -178145.44, -177263.88, 0.000, 0.000, 0.000, 15:31:47.192, 1578576707192
43, -187500.02, -170876.89, -187500.02, -187500.02, -187500.02, -187500.02, -176960.98, -187500.02, 0.000, 0.000, 0.000, 15:31:47.192, 1578576707192
44, 187500.00, 187500.00, 187500.00, -26574.48, -177806.83, 21423.68, -178098.02, -177278.97, -0.018, -0.010, 0.978, 15:31:47.192, 1578576707192
45, -187500.02, -170870.55, -187500.02, -187500.02, -187500.02, -187500.02, -176954.28, -187500.02, 0.000, 0.000, 0.000, 15:31:47.192, 1578576707192
46, 187500.00, 187500.00, 187500.00, -26571.31, -177799.78, 21428.55, -178072.98, -177245.14, 0.000, 0.000, 0.000, 15:31:47.192, 1578576707192
47, -187500.02, -170865.06, -187500.02, -187500.02, -187500.02, -187500.02, -176948.52, -187500.02, 0.000, 0.000, 0.000, 15:31:47.192, 1578576707192
48, 187500.00, 187500.00, 187500.00, -26562.01, -177841.41, 21437.24, -178167.89, -177245.06, 0.000, 0.000, 0.000, 15:31:47.192, 1578576707192
49, -187500.02, -170861.56, -187500.02, -187500.02, -187500.02, -187500.02, -176944.67, -187500.02, 0.000, 0.000, 0.000, 15:31:47.192, 1578576707192
50, 187500.00, 187500.00, 187500.00, -26560.76, -177818.52, 21429.89, -178147.78, -177275.92, 0.000, 0.000, 0.000, 15:31:47.192, 1578576707192
51, -187500.02, -170858.50, -187500.02, -187500.02, -187500.02, -187500.02, -176941.20, -187500.02, 0.000, 0.000, 0.000, 15:31:47.192, 1578576707192
52, 187500.00, 187500.00, 187500.00, -26569.00, -177787.94, 21429.13, -178064.81, -177236.31, 0.000, 0.000, 0.000, 15:31:47.192, 1578576707192
53, -187500.02, -170853.05, -187500.02, -187500.02, -187500.02, -187500.02, -176935.36, -187500.02, 0.000, 0.000, 0.000, 15:31:47.192, 1578576707192
54, 187500.00, 187500.00, 187500.00, -26559.53, -177785.08, 21440.02, -178062.91, -177206.30, -0.020, -0.012, 0.976, 15:31:47.192, 1578576707192
55, -187500.02, -170848.91, -187500.02, -187500.02, -187500.02, -187500.02, -176930.86, -187500.02, 0.000, 0.000, 0.000, 15:31:47.192, 1578576707192
56, 187500.00, 187500.00, 187500.00, -26560.31, -177785.56, 21441.56, -178049.31, -177258.09, 0.000, 0.000, 0.000, 15:31:47.193, 1578576707193
57, -187500.02, -170844.70, -187500.02, -187500.02, -187500.02, -187500.02, -176926.33, -187500.02, 0.000, 0.000, 0.000, 15:31:47.193, 1578576707193
58, 187500.00, 187500.00, 187500.00, -26558.12, -177798.75, 21447.64, -178064.56, -177256.70, 0.000, 0.000, 0.000, 15:31:47.193, 1578576707193
59, -187500.02, -170842.31, -187500.02, -187500.02, -187500.02, -187500.02, -176923.66, -187500.02, 0.000, 0.000, 0.000, 15:31:47.193, 1578576707193
60, 187500.00, 187500.00, 187500.00, -26559.24, -177796.19, 21447.93, -178055.47, -177251.20, 0.000, 0.000, 0.000, 15:31:47.193, 1578576707193
61, -187500.02, -170839.63, -187500.02, -187500.02, -187500.02, -187500.02, -176920.58, -187500.02, 0.000, 0.000, 0.000, 15:31:47.193, 1578576707193
62, 187500.00, 187500.00, 187500.00, -26565.38, -177788.52, 21445.49, -178031.27, -177237.70, 0.000, 0.000, 0.000, 15:31:47.193, 1578576707193
63, -187500.02, -170831.53, -187500.02, -187500.02, -187500.02, -187500.02, -176912.00, -187500.02, 0.000, 0.000, 0.000, 15:31:47.193, 1578576707193
64, 187500.00, 187500.00, 187500.00, -26560.85, -177789.86, 21444.96, -178058.38, -177218.33, -0.018, -0.012, 0.978, 15:31:47.193, 1578576707193
65, -187500.02, -170826.48, -187500.02, -187500.02, -187500.02, -187500.02, -176906.61, -187500.02, 0.000, 0.000, 0.000, 15:31:47.193, 1578576707193
66, 187500.00, 187500.00, 187500.00, -26545.82, -177867.78, 21460.69, -178170.33, -177208.09, 0.000, 0.000, 0.000, 15:31:47.193, 1578576707193
67, -187500.02, -170828.28, -187500.02, -187500.02, -187500.02, -187500.02, -176908.16, -187500.02, 0.000, 0.000, 0.000, 15:31:47.193, 1578576707193
68, 187500.00, 187500.00, 187500.00, -26561.09, -177864.53, 21452.09, -178196.33, -177213.20, 0.000, 0.000, 0.000, 15:31:47.193, 1578576707193
69, -187500.02, -170820.00, -187500.02, -187500.02, -187500.02, -187500.02, -176899.56, -187500.02, 0.000, 0.000, 0.000, 15:31:47.193, 1578576707193
70, 187500.00, 187500.00, 187500.00, -26556.24, -177797.89, 21456.85, -178137.81, -177233.64, 0.000, 0.000, 0.000, 15:31:47.194, 1578576707194
71, -187500.02, -170816.94, -187500.02, -187500.02, -187500.02, -187500.02, -176896.13, -187500.02, 0.000, 0.000, 0.000, 15:31:47.194, 1578576707194
72, 187500.00, 187500.00, 187500.00, -26564.00, -177777.56, 21451.06, -178106.06, -177227.75, 0.000, 0.000, 0.000, 15:31:47.194, 1578576707194
73, -187500.02, -170815.17, -187500.02, -187500.02, -187500.02, -187500.02, -176893.98, -187500.02, 0.000, 0.000, 0.000, 15:31:47.194, 1578576707194
74, 187500.00, 187500.00, 187500.00, -26564.06, -177778.97, 21446.07, -178070.86, -177248.59, -0.018, -0.012, 0.980, 15:31:47.194, 1578576707194
75, -187500.02, -170811.20, -187500.02, -187500.02, -187500.02, -187500.02, -176889.70, -187500.02, 0.000, 0.000, 0.000, 15:31:47.194, 1578576707194
76, 187500.00, 187500.00, 187500.00, -26560.13, -177753.83, 21439.66, -177997.66, -177227.13, 0.000, 0.000, 0.000, 15:31:47.194, 1578576707194
77, -187500.02, -170804.94, -187500.02, -187500.02, -187500.02, -187500.02, -176883.08, -187500.02, 0.000, 0.000, 0.000, 15:31:47.194, 1578576707194
78, 187500.00, 187500.00, 187500.00, -26554.99, -177781.86, 21444.17, -178037.45, -177220.20, 0.000, 0.000, 0.000, 15:31:47.194, 1578576707194
79, -187500.02, -170799.39, -187500.02, -187500.02, -187500.02, -187500.02, -176877.17, -187500.02, 0.000, 0.000, 0.000, 15:31:47.194, 1578576707194
80, 187500.00, 187500.00, 187500.00, -26561.52, -177743.19, 21442.38, -178024.16, -177203.91, 0.000, 0.000, 0.000, 15:31:47.194, 1578576707194
81, -187500.02, -170794.95, -187500.02, -187500.02, -187500.02, -187500.02, -176872.36, -187500.02, 0.000, 0.000, 0.000, 15:31:47.194, 1578576707194
82, 187500.00, 187500.00, 187500.00, -26554.16, -177780.16, 21454.30, -178058.17, -177216.41, 0.000, 0.000, 0.000, 15:31:47.194, 1578576707194
83, -187500.02, -170792.48, -187500.02, -187500.02, -187500.02, -187500.02, -176869.69, -187500.02, -0.016, -0.014, 0.980, 15:31:47.195, 1578576707195
84, 187500.00, 187500.00, 187500.00, -26568.22, -177745.16, 21437.71, -178008.59, -177198.56, 0.000, 0.000, 0.000, 15:31:47.195, 1578576707195
85, -187500.02, -170784.80, -187500.02, -187500.02, -187500.02, -187500.02, -176861.66, -187500.02, 0.000, 0.000, 0.000, 15:31:47.195, 1578576707195
86, 187500.00, 187500.00, 187500.00, -26553.54, -177731.03, 21452.13, -178070.84, -177170.17, 0.000, 0.000, 0.000, 15:31:47.195, 1578576707195
87, -187500.02, -170781.84, -187500.02, -187500.02, -187500.02, -187500.02, -176858.34, -187500.02, 0.000, 0.000, 0.000, 15:31:47.195, 1578576707195
88, 187500.00, 187500.00, 187500.00, -26555.37, -177751.84, 21452.60, -178093.06, -177206.88, 0.000, 0.000, 0.000, 15:31:47.195, 1578576707195
89, -187500.02, -170778.13, -187500.02, -187500.02, -187500.02, -187500.02, -176854.28, -187500.02, 0.000, 0.000, 0.000, 15:31:47.195, 1578576707195
90, 187500.00, 187500.00, 187500.00, -26561.74, -177725.58, 21450.07, -178033.09, -177168.64, 0.000, 0.000, 0.000, 15:31:47.195, 1578576707195
91, -187500.02, -170773.11, -187500.02, -187500.02, -187500.02, -187500.02, -176848.84, -187500.02, 0.000, 0.000, 0.000, 15:31:47.195, 1578576707195
92, 187500.00, 187500.00, 187500.00, -26560.64, -177732.23, 21453.03, -178036.33, -177160.48, 0.000, 0.000, 0.000, 15:31:47.195, 1578576707195
93, -187500.02, -170766.19, -187500.02, -187500.02, -187500.02, -187500.02, -176841.47, -187500.02, -0.020, -0.012, 0.982, 15:31:47.195, 1578576707195
94, 187500.00, 187500.00, 187500.00, -26560.98, -177730.27, 21449.29, -177998.02, -177144.47, 0.000, 0.000, 0.000, 15:31:47.195, 1578576707195
95, -187500.02, -170764.66, -187500.02, -187500.02, -187500.02, -187500.02, -176839.83, -187500.02, 0.000, 0.000, 0.000, 15:31:47.195, 1578576707195
96, 187500.00, 187500.00, 187500.00, -26556.87, -177766.30, 21450.10, -178067.72, -177187.13, 0.000, 0.000, 0.000, 15:31:47.195, 1578576707195
97, -187500.02, -170759.88, -187500.02, -187500.02, -187500.02, -187500.02, -176834.59, -187500.02, 0.000, 0.000, 0.000, 15:31:47.195, 1578576707195
98, 187500.00, 187500.00, 187500.00, -26552.73, -177776.11, 21455.35, -178085.13, -177186.94, 0.000, 0.000, 0.000, 15:31:47.196, 1578576707196
99, -187500.02, -170755.81, -187500.02, -187500.02, -187500.02, -187500.02, -176830.09, -187500.02, 0.000, 0.000, 0.000, 15:31:47.196, 1578576707196
100, 187500.00, 187500.00, 187500.00, -26563.24, -177746.72, 21447.55, -178054.91, -177160.14, 0.000, 0.000, 0.000, 15:31:47.196, 1578576707196
101, -187500.02, -170751.55, -187500.02, -187500.02, -187500.02, -187500.02, -176825.45, -187500.02, 0.000, 0.000, 0.000, 15:31:47.196, 1578576707196
102, 187500.00, 187500.00, 187500.00, -26560.73, -177710.27, 21454.59, -178002.72, -177150.88, 0.000, 0.000, 0.000, 15:31:47.196, 1578576707196
103, -187500.02, -170743.86, -187500.02, -187500.02, -187500.02, -187500.02, -176817.48, -187500.02, -0.016, -0.014, 0.980, 15:31:47.196, 1578576707196
104, 187500.00, 187500.00, 187500.00, -26548.78, -177706.17, 21460.36, -178018.81, -177150.88, 0.000, 0.000, 0.000, 15:31:47.196, 1578576707196
105, -187500.02, -170738.95, -187500.02, -187500.02, -187500.02, -187500.02, -176812.27, -187500.02, 0.000, 0.000, 0.000, 15:31:47.668, 1578576707668
106, 187500.00, 187500.00, 187500.00, -26546.90, -177726.16, 21461.05, -177992.72, -177148.34, 0.000, 0.000, 0.000, 15:31:47.668, 1578576707668
107, -187500.02, -170732.83, -187500.02, -187500.02, -187500.02, -187500.02, -176805.75, -187500.02, 0.000, 0.000, 0.000, 15:31:47.668, 1578576707668
108, 187500.00, 187500.00, 187500.00, -26548.02, -177703.42, 21458.79, -177973.61, -177150.42, 0.000, 0.000, 0.000, 15:31:47.668, 1578576707668
109, -187500.02, -170729.41, -187500.02, -187500.02, -187500.02, -187500.02, -176802.06, -187500.02, 0.000, 0.000, 0.000, 15:31:47.668, 1578576707668
110, 187500.00, 187500.00, 187500.00, -26547.59, -177735.08, 21461.88, -178032.27, -177152.30, 0.000, 0.000, 0.000, 15:31:47.668, 1578576707668
111, -187500.02, -170728.27, -187500.02, -187500.02, -187500.02, -187500.02, -176800.61, -187500.02, 0.000, 0.000, 0.000, 15:31:47.668, 1578576707668
112, 187500.00, 187500.00, 187500.00, -26556.46, -177721.03, 21455.44, -177993.02, -177133.33, 0.000, 0.000, 0.000, 15:31:47.668, 1578576707668
113, -187500.02, -170721.39, -187500.02, -187500.02, -187500.02, -187500.02, -176793.28, -187500.02, -0.012, -0.012, 0.980, 15:31:47.668, 1578576707668
114, 187500.00, 187500.00, 187500.00, -26555.08, -177704.75, 21461.21, -177969.36, -177127.88, 0.000, 0.000, 0.000, 15:31:47.668, 1578576707668
115, -187500.02, -170720.72, -187500.02, -187500.02, -187500.02, -187500.02, -176792.34, -187500.02, 0.000, 0.000, 0.000, 15:31:47.669, 1578576707669
116, 187500.00, 187500.00, 187500.00, -26550.92, -177753.78, 21463.06, -178056.22, -177159.11, 0.000, 0.000, 0.000, 15:31:47.669, 1578576707669
117, -187500.02, -170715.44, -187500.02, -187500.02, -187500.02, -187500.02, -176786.63, -187500.02, 0.000, 0.000, 0.000, 15:31:47.669, 1578576707669
118, 187500.00, 187500.00, 187500.00, -26561.07, -177679.58, 21444.33, -177969.80, -177123.91, 0.000, 0.000, 0.000, 15:31:47.669, 1578576707669
119, -187500.02, -170708.73, -187500.02, -187500.02, -187500.02, -187500.02, -176779.56, -187500.02, 0.000, 0.000, 0.000, 15:31:47.669, 1578576707669
120, 187500.00, 187500.00, 187500.00, -26555.35, -177691.25, 21447.46, -177974.42, -177155.38, 0.000, 0.000, 0.000, 15:31:47.669, 1578576707669
121, -187500.02, -170707.86, -187500.02, -187500.02, -187500.02, -187500.02, -176778.36, -187500.02, 0.000, 0.000, 0.000, 15:31:47.669, 1578576707669
122, 187500.00, 187500.00, 187500.00, -26554.25, -177684.58, 21448.04, -177961.81, -177172.23, -0.012, -0.014, 0.976, 15:31:47.669, 1578576707669
123, -187500.02, -170703.91, -187500.02, -187500.02, -187500.02, -187500.02, -176774.06, -187500.02, 0.000, 0.000, 0.000, 15:31:47.670, 1578576707670
124, 187500.00, 187500.00, 187500.00, -26545.13, -177717.75, 21456.06, -178009.08, -177130.69, 0.000, 0.000, 0.000, 15:31:47.670, 1578576707670
125, -187500.02, -170702.23, -187500.02, -187500.02, -187500.02, -187500.02, -176772.05, -187500.02, 0.000, 0.000, 0.000, 15:31:47.670, 1578576707670
126, 187500.00, 187500.00, 187500.00, -26550.14, -177727.16, 21454.97, -178072.03, -177137.02, 0.000, 0.000, 0.000, 15:31:47.670, 1578576707670
127, -187500.02, -170697.63, -187500.02, -187500.02, -187500.02, -187500.02, -176767.09, -187500.02, 0.000, 0.000, 0.000, 15:31:47.670, 1578576707670
128, 187500.00, 187500.00, 187500.00, -26547.52, -177730.97, 21461.52, -178038.52, -177140.27, 0.000, 0.000, 0.000, 15:31:47.670, 1578576707670
129, -187500.02, -170695.91, -187500.02, -187500.02, -187500.02, -187500.02, -176764.97, -187500.02, 0.000, 0.000, 0.000, 15:31:47.670, 1578576707670
130, 187500.00, 187500.00, 187500.00, -26551.10, -177754.36, 21462.66, -178042.80, -177122.92, 0.000, 0.000, 0.000, 15:31:47.670, 1578576707670
131, -187500.02, -170690.81, -187500.02, -187500.02, -187500.02, -187500.02, -176759.41, -187500.02, 0.000, 0.000, 0.000, 15:31:47.670, 1578576707670
132, 187500.00, 187500.00, 187500.00, -26550.21, -177683.67, 21459.82, -177946.41, -177108.13, -0.014, -0.012, 0.976, 15:31:47.670, 1578576707670
133, -187500.02, -170683.25, -187500.02, -187500.02, -187500.02, -187500.02, -176751.69, -187500.02, 0.000, 0.000, 0.000, 15:31:47.670, 1578576707670
134, 187500.00, 187500.00, 187500.00, -26545.89, -177665.09, 21459.80, -177914.11, -177106.30, 0.000, 0.000, 0.000, 15:31:47.670, 1578576707670
135, -187500.02, -170676.64, -187500.02, -187500.02, -187500.02, -187500.02, -176744.77, -187500.02, 0.000, 0.000, 0.000, 15:31:47.670, 1578576707670
136, 187500.00, 187500.00, 187500.00, -26546.23, -177643.17, 21456.98, -177919.97, -177091.50, 0.000, 0.000, 0.000, 15:31:47.671, 1578576707671
137, -187500.02, -170671.72, -187500.02, -187500.02, -187500.02, -187500.02, -176739.34, -187500.02, 0.000, 0.000, 0.000, 15:31:47.671, 1578576707671
138, 187500.00, 187500.00, 187500.00, -26542.36, -177682.69, 21462.32, -177975.45, -177121.81, 0.000, 0.000, 0.000, 15:31:47.671, 1578576707671
139, -187500.02, -170669.84, -187500.02, -187500.02, -187500.02, -187500.02, -176737.19, -187500.02, 0.000, 0.000, 0.000, 15:31:47.671, 1578576707671
140, 187500.00, 187500.00, 187500.00, -26555.23, -177658.45, 21449.18, -177922.36, -177095.38, 0.000, 0.000, 0.000, 15:31:47.671, 1578576707671
141, -187500.02, -170663.75, -187500.02, -187500.02, -187500.02, -187500.02, -176730.88, -187500.02, 0.000, 0.000, 0.000, 15:31:47.671, 1578576707671
142, 187500.00, 187500.00, 187500.00, -26543.77, -177689.20, 21459.87, -177956.14, -177118.13, -0.014, -0.010, 0.974, 15:31:47.671, 1578576707671
143, -187500.02, -170663.45, -187500.02, -187500.02, -187500.02, -187500.02, -176730.09, -187500.02, 0.000, 0.000, 0.000, 15:31:47.671, 1578576707671
144, 187500.00, 187500.00, 187500.00, -26555.57, -177662.61, 21445.78, -177907.39, -177094.03, 0.000, 0.000, 0.000, 15:31:47.671, 1578576707671
145, -187500.02, -170656.48, -187500.02, -187500.02, -187500.02, -187500.02, -176722.70, -187500.02, 0.000, 0.000, 0.000, 15:31:47.671, 1578576707671
146, 187500.00, 187500.00, 187500.00, -26538.40, -177680.06, 21459.08, -177976.66, -177092.69, 0.000, 0.000, 0.000, 15:31:47.671, 1578576707671
147, -187500.02, -170653.84, -187500.02, -187500.02, -187500.02, -187500.02, -176719.70, -187500.02, 0.000, 0.000, 0.000, 15:31:47.671, 1578576707671
148, 187500.00, 187500.00, 187500.00, -26539.54, -177697.50, 21458.66, -177994.92, -177109.25, 0.000, 0.000, 0.000, 15:31:47.671, 1578576707671
149, -187500.02, -170650.73, -187500.02, -187500.02, -187500.02, -187500.02, -176716.28, -187500.02, 0.000, 0.000, 0.000, 15:31:47.671, 1578576707671
150, 187500.00, 187500.00, 187500.00, -26543.14, -177700.39, 21456.76, -177963.95, -177096.70, 0.000, 0.000, 0.000, 15:31:47.672, 1578576707672
151, -187500.02, -170651.61, -187500.02, -187500.02, -187500.02, -187500.02, -176716.89, -187500.02, 0.000, 0.000, 0.000, 15:31:47.672, 1578576707672
152, 187500.00, 187500.00, 187500.00, -26542.90, -177703.69, 21460.58, -177990.11, -177118.91, -0.018, -0.016, 0.976, 15:31:47.672, 1578576707672
153, -187500.02, -170646.75, -187500.02, -187500.02, -187500.02, -187500.02, -176711.75, -187500.02, 0.000, 0.000, 0.000, 15:31:47.672, 1578576707672
154, 187500.00, 187500.00, 187500.00, -26541.51, -177684.66, 21459.33, -177953.81, -177110.36, 0.000, 0.000, 0.000, 15:31:47.672, 1578576707672
155, -187500.02, -170642.98, -187500.02, -187500.02, -187500.02, -187500.02, -176707.50, -187500.02, 0.000, 0.000, 0.000, 15:31:47.672, 1578576707672
156, 187500.00, 187500.00, 187500.00, -26540.93, -177659.13, 21461.65, -177950.48, -177109.00, 0.000, 0.000, 0.000, 15:31:47.672, 1578576707672
157, -187500.02, -170638.59, -187500.02, -187500.02, -187500.02, -187500.02, -176702.81, -187500.02, 0.000, 0.000, 0.000, 15:31:47.672, 1578576707672
158, 187500.00, 187500.00, 187500.00, -26542.65, -177626.33, 21459.30, -177898.00, -177088.53, 0.000, 0.000, 0.000, 15:31:47.672, 1578576707672
159, -187500.02, -170631.78, -187500.02, -187500.02, -187500.02, -187500.02, -176695.63, -187500.02, 0.000, 0.000, 0.000, 15:31:47.672, 1578576707672
160, 187500.00, 187500.00, 187500.00, -26543.63, -177626.98, 21457.72, -177913.42, -177085.42, 0.000, 0.000, 0.000, 15:31:47.672, 1578576707672
161, -187500.02, -170625.52, -187500.02, -187500.02, -187500.02, -187500.02, -176688.98, -187500.02, -0.022, -0.012, 0.976, 15:31:47.672, 1578576707672
162, 187500.00, 187500.00, 187500.00, -26545.47, -177638.94, 21457.03, -177907.03, -177070.63, 0.000, 0.000, 0.000, 15:31:47.672, 1578576707672
163, -187500.02, -170619.89, -187500.02, -187500.02, -187500.02, -187500.02, -176682.86, -187500.02, 0.000, 0.000, 0.000, 15:31:47.672, 1578576707672
164, 187500.00, 187500.00, 187500.00, -26538.36, -177632.70, 21461.05, -177893.69, -177088.70, 0.000, 0.000, 0.000, 15:31:47.672, 1578576707672
165, -187500.02, -170616.17, -187500.02, -187500.02, -187500.02, -187500.02, -176678.86, -187500.02, 0.000, 0.000, 0.000, 15:31:47.672, 1578576707672
166, 187500.00, 187500.00, 187500.00, -26542.90, -177615.89, 21458.14, -177865.28, -177016.72, 0.000, 0.000, 0.000, 15:31:47.672, 1578576707672
167, -187500.02, -170607.81, -187500.02, -187500.02, -187500.02, -187500.02, -176670.16, -187500.02, 0.000, 0.000, 0.000, 15:31:47.672, 1578576707672
168, 187500.00, 187500.00, 187500.00, -26531.70, -177649.33, 21472.74, -178022.97, -177073.06, 0.000, 0.000, 0.000, 15:31:47.672, 1578576707672
169, -187500.02, -170605.14, -187500.02, -187500.02, -187500.02, -187500.02, -176667.22, -187500.02, 0.000, 0.000, 0.000, 15:31:47.672, 1578576707672
170, 187500.00, 187500.00, 187500.00, -26540.53, -177610.83, 21453.52, -177956.33, -177066.02, 0.000, 0.000, 0.000, 15:31:47.673, 1578576707673
171, -187500.02, -170602.25, -187500.02, -187500.02, -187500.02, -187500.02, -176663.95, -187500.02, -0.018, -0.010, 0.980, 15:31:47.673, 1578576707673
172, 187500.00, 187500.00, 187500.00, -26529.96, -177634.27, 21460.45, -177964.92, -177072.88, 0.000, 0.000, 0.000, 15:31:47.673, 1578576707673
173, -187500.02, -170598.25, -187500.02, -187500.02, -187500.02, -187500.02, -176659.69, -187500.02, 0.000, 0.000, 0.000, 15:31:47.673, 1578576707673
174, 187500.00, 187500.00, 187500.00, -26541.09, -177626.27, 21451.39, -177936.31, -177089.25, 0.000, 0.000, 0.000, 15:31:47.673, 1578576707673
175, -187500.02, -170594.47, -187500.02, -187500.02, -187500.02, -187500.02, -176655.64, -187500.02, 0.000, 0.000, 0.000, 15:31:47.673, 1578576707673
176, 187500.00, 187500.00, 187500.00, -26541.55, -177596.11, 21449.09, -177865.36, -177054.36, 0.000, 0.000, 0.000, 15:31:47.673, 1578576707673
177, -187500.02, -170589.89, -187500.02, -187500.02, -187500.02, -187500.02, -176650.64, -187500.02, 0.000, 0.000, 0.000, 15:31:47.673, 1578576707673
178, 187500.00, 187500.00, 187500.00, -26531.47, -177604.75, 21458.93, -177915.14, -177028.05, 0.000, 0.000, 0.000, 15:31:47.673, 1578576707673
179, -187500.02, -170583.39, -187500.02, -187500.02, -187500.02, -187500.02, -176643.80, -187500.02, 0.000, 0.000, 0.000, 15:31:47.673, 1578576707673
180, 187500.00, 187500.00, 187500.00, -26531.43, -177643.28, 21455.21, -177964.06, -177053.84, 0.000, 0.000, 0.000, 15:31:47.674, 1578576707674
181, -187500.02, -170580.45, -187500.02, -187500.02, -187500.02, -187500.02, -176640.48, -187500.02, -0.016, -0.010, 0.980, 15:31:47.674, 1578576707674
182, 187500.00, 187500.00, 187500.00, -26527.99, -177620.30, 21457.58, -177937.41, -177068.92, 0.000, 0.000, 0.000, 15:31:47.675, 1578576707675
183, -187500.02, -170579.20, -187500.02, -187500.02, -187500.02, -187500.02, -176638.97, -187500.02, 0.000, 0.000, 0.000, 15:31:47.675, 1578576707675
184, 187500.00, 187500.00, 187500.00, -26537.89, -177596.42, 21443.21, -177912.38, -177041.81, 0.000, 0.000, 0.000, 15:31:47.675, 1578576707675
185, -187500.02, -170572.33, -187500.02, -187500.02, -187500.02, -187500.02, -176631.64, -187500.02, 0.000, 0.000, 0.000, 15:31:47.675, 1578576707675
186, 187500.00, 187500.00, 187500.00, -26530.07, -177566.25, 21447.82, -177880.67, -177019.00, 0.000, 0.000, 0.000, 15:31:47.675, 1578576707675
187, -187500.02, -170567.94, -187500.02, -187500.02, -187500.02, -187500.02, -176626.92, -187500.02, 0.000, 0.000, 0.000, 15:31:47.675, 1578576707675
188, 187500.00, 187500.00, 187500.00, -26519.29, -177619.36, 21460.74, -177920.38, -177047.17, 0.000, 0.000, 0.000, 15:31:47.675, 1578576707675
189, -187500.02, -170564.81, -187500.02, -187500.02, -187500.02, -187500.02, -176623.41, -187500.02, 0.000, 0.000, 0.000, 15:31:47.675, 1578576707675
190, 187500.00, 187500.00, 187500.00, -26532.21, -177584.52, 21447.46, -177840.52, -177024.95, 0.000, 0.000, 0.000, 15:31:47.675, 1578576707675
191, -187500.02, -170560.19, -187500.02, -187500.02, -187500.02, -187500.02, -176618.36, -187500.02, -0.024, -0.014, 0.976, 15:31:47.675, 1578576707675
192, 187500.00, 187500.00, 187500.00, -26532.66, -177591.52, 21446.50, -177885.17, -177029.30, 0.000, 0.000, 0.000, 15:31:47.676, 1578576707676
193, -187500.02, -170554.89, -187500.02, -187500.02, -187500.02, -187500.02, -176612.75, -187500.02, 0.000, 0.000, 0.000, 15:31:47.676, 1578576707676
194, 187500.00, 187500.00, 187500.00, -26532.37, -177556.02, 21447.06, -177849.06, -177011.77, 0.000, 0.000, 0.000, 15:31:47.676, 1578576707676
195, -187500.02, -170548.94, -187500.02, -187500.02, -187500.02, -187500.02, -176606.47, -187500.02, 0.000, 0.000, 0.000, 15:31:47.676, 1578576707676
196, 187500.00, 187500.00, 187500.00, -26525.57, -177617.84, 21454.28, -177949.92, -177033.19, 0.000, 0.000, 0.000, 15:31:47.676, 1578576707676
197, -187500.02, -170543.61, -187500.02, -187500.02, -187500.02, -187500.02, -176600.72, -187500.02, 0.000, 0.000, 0.000, 15:31:47.676, 1578576707676
198, 187500.00, 187500.00, 187500.00, -26534.02, -177584.89, 21446.16, -177871.23, -177009.92, 0.000, 0.000, 0.000, 15:31:47.676, 1578576707676
199, -187500.02, -170539.27, -187500.02, -187500.02, -187500.02, -187500.02, -176596.02, -187500.02, 0.000, 0.000, 0.000, 15:31:47.676, 1578576707676
200, 187500.00, 187500.00, 187500.00, -26536.79, -177555.34, 21441.11, -177833.84, -176970.98, -0.018, -0.014, 0.980, 15:31:47.676, 1578576707676
201, -187500.02, -170532.88, -187500.02, -187500.02, -187500.02, -187500.02, -176589.33, -187500.02, 0.000, 0.000, 0.000, 15:31:47.676, 1578576707676
202, 187500.00, 187500.00, 187500.00, -26529.75, -177544.91, 21449.07, -177817.89, -176966.91, 0.000, 0.000, 0.000, 15:31:47.676, 1578576707676
203, -187500.02, -170528.81, -187500.02, -187500.02, -187500.02, -187500.02, -176584.83, -187500.02, 0.000, 0.000, 0.000, 15:31:47.676, 1578576707676
204, 187500.00, 187500.00, 187500.00, -26531.12, -177555.56, 21442.61, -177845.45, -176988.17, 0.000, 0.000, 0.000, 15:31:47.676, 1578576707676
205, -187500.02, -170522.48, -187500.02, -187500.02, -187500.02, -187500.02, -176578.08, -187500.02, 0.000, 0.000, 0.000, 15:31:47.676, 1578576707676
206, 187500.00, 187500.00, 187500.00, -26527.34, -177560.78, 21443.68, -177877.28, -176993.69, 0.000, 0.000, 0.000, 15:31:47.676, 1578576707676
207, -187500.02, -170518.55, -187500.02, -187500.02, -187500.02, -187500.02, -176573.92, -187500.02, 0.000, 0.000, 0.000, 15:31:47.676, 1578576707676
208, 187500.00, 187500.00, 187500.00, -26522.38, -177574.39, 21451.37, -177872.11, -177021.67, 0.000, 0.000, 0.000, 15:31:47.676, 1578576707676
209, -187500.02, -170514.52, -187500.02, -187500.02, -187500.02, -187500.02, -176569.55, -187500.02, 0.000, 0.000, 0.000, 15:31:47.676, 1578576707676
210, 187500.00, 187500.00, 187500.00, -26527.79, -177543.86, 21446.16, -177818.36, -176993.78, -0.016, -0.014, 0.976, 15:31:47.676, 1578576707676
211, -187500.02, -170510.75, -187500.02, -187500.02, -187500.02, -187500.02, -176565.45, -187500.02, 0.000, 0.000, 0.000, 15:31:47.677, 1578576707677
212, 187500.00, 187500.00, 187500.00, -26523.61, -177550.88, 21453.16, -177831.36, -177000.86, 0.000, 0.000, 0.000, 15:31:47.677, 1578576707677
213, -187500.02, -170504.44, -187500.02, -187500.02, -187500.02, -187500.02, -176558.86, -187500.02, 0.000, 0.000, 0.000, 15:31:47.677, 1578576707677
214, 187500.00, 187500.00, 187500.00, -26528.35, -177544.66, 21450.37, -177813.06, -177006.25, 0.000, 0.000, 0.000, 15:31:47.677, 1578576707677
215, -187500.02, -170500.69, -187500.02, -187500.02, -187500.02, -187500.02, -176554.67, -187500.02, 0.000, 0.000, 0.000, 15:31:47.677, 1578576707677
216, 187500.00, 187500.00, 187500.00, -26520.23, -177599.95, 21461.92, -177903.09, -176976.09, 0.000, 0.000, 0.000, 15:31:47.677, 1578576707677
217, -187500.02, -170499.50, -187500.02, -187500.02, -187500.02, -187500.02, -176553.23, -187500.02, 0.000, 0.000, 0.000, 15:31:47.677, 1578576707677
218, 187500.00, 187500.00, 187500.00, -26530.76, -177606.28, 21451.48, -177916.27, -176986.41, 0.000, 0.000, 0.000, 15:31:47.677, 1578576707677
219, -187500.02, -170493.00, -187500.02, -187500.02, -187500.02, -187500.02, -176546.36, -187500.02, 0.000, 0.000, 0.000, 15:31:47.677, 1578576707677
220, 187500.00, 187500.00, 187500.00, -26539.68, -177528.33, 21439.75, -177803.16, -176945.91, -0.022, -0.012, 0.976, 15:31:47.677, 1578576707677
221, -187500.02, -170485.41, -187500.02, -187500.02, -187500.02, -187500.02, -176538.34, -187500.02, 0.000, 0.000, 0.000, 15:31:47.677, 1578576707677
222, 187500.00, 187500.00, 187500.00, -26530.85, -177539.03, 21450.39, -177783.28, -176960.09, 0.000, 0.000, 0.000, 15:31:47.677, 1578576707677
223, -187500.02, -170483.14, -187500.02, -187500.02, -187500.02, -187500.02, -176535.69, -187500.02, 0.000, 0.000, 0.000, 15:31:47.677, 1578576707677
224, 187500.00, 187500.00, 187500.00, -26527.07, -177535.83, 21447.57, -177780.73, -176952.70, 0.000, 0.000, 0.000, 15:31:47.677, 1578576707677
225, -187500.02, -170480.03, -187500.02, -187500.02, -187500.02, -187500.02, -176532.27, -187500.02, 0.000, 0.000, 0.000, 15:31:48.148, 1578576708148
226, 187500.00, 187500.00, 187500.00, -26520.10, -177601.77, 21451.73, -177926.97, -176996.78, 0.000, 0.000, 0.000, 15:31:48.148, 1578576708148
227, -187500.02, -170475.92, -187500.02, -187500.02, -187500.02, -187500.02, -176527.77, -187500.02, 0.000, 0.000, 0.000, 15:31:48.148, 1578576708148
228, 187500.00, 187500.00, 187500.00, -26532.32, -177546.30, 21441.31, -177858.05, -176983.91, 0.000, 0.000, 0.000, 15:31:48.148, 1578576708148
229, -187500.02, -170471.73, -187500.02, -187500.02, -187500.02, -187500.02, -176523.25, -187500.02, 0.000, 0.000, 0.000, 15:31:48.148, 1578576708148
230, 187500.00, 187500.00, 187500.00, -26525.55, -177520.88, 21447.66, -177803.69, -176983.59, -0.020, -0.016, 0.972, 15:31:48.149, 1578576708149
231, -187500.02, -170466.02, -187500.02, -187500.02, -187500.02, -187500.02, -176517.02, -187500.02, 0.000, 0.000, 0.000, 15:31:48.149, 1578576708149
232, 187500.00, 187500.00, 187500.00, -26527.79, -177489.75, 21453.00, -177786.58, -176981.13, 0.000, 0.000, 0.000, 15:31:48.149, 1578576708149
233, -187500.02, -170462.31, -187500.02, -187500.02, -187500.02, -187500.02, -176512.92, -187500.02, 0.000, 0.000, 0.000, 15:31:48.149, 1578576708149
234, 187500.00, 187500.00, 187500.00, -26530.83, -177474.03, 21448.80, -177787.16, -176960.44, 0.000, 0.000, 0.000, 15:31:48.149, 1578576708149
235, -187500.02, -170457.03, -187500.02, -187500.02, -187500.02, -187500.02, -176507.30, -187500.02, 0.000, 0.000, 0.000, 15:31:48.149, 1578576708149
236, 187500.00, 187500.00, 187500.00, -26525.28, -177475.39, 21454.90, -177748.52, -176965.69, 0.000, 0.000, 0.000, 15:31:48.149, 1578576708149
237, -187500.02, -170451.17, -187500.02, -187500.02, -187500.02, -187500.02, -176501.08, -187500.02, 0.000, 0.000, 0.000, 15:31:48.149, 1578576708149
238, 187500.00, 187500.00, 187500.00, -26516.59, -177508.31, 21465.23, -177839.81, -176984.09, 0.000, 0.000, 0.000, 15:31:48.149, 1578576708149
239, -187500.02, -170445.53, -187500.02, -187500.02, -187500.02, -187500.02, -176495.05, -187500.02, 0.000, 0.000, 0.000, 15:31:48.149, 1578576708149
240, 187500.00, 187500.00, 187500.00, -26513.30, -177528.13, 21466.88, -177822.98, -176951.42, -0.018, -0.014, 0.976, 15:31:48.149, 1578576708149
241, -187500.02, -170445.41, -187500.02, -187500.02, -187500.02, -187500.02, -176494.53, -187500.02, 0.000, 0.000, 0.000, 15:31:48.149, 1578576708149
242, 187500.00, 187500.00, 187500.00, -26517.42, -177517.61, 21464.60, -177774.42, -176941.05, 0.000, 0.000, 0.000, 15:31:48.149, 1578576708149
243, -187500.02, -170440.63, -187500.02, -187500.02, -187500.02, -187500.02, -176489.41, -187500.02, 0.000, 0.000, 0.000, 15:31:48.149, 1578576708149
244, 187500.00, 187500.00, 187500.00, -26505.50, -177531.08, 21473.34, -177843.23, -176940.11, 0.000, 0.000, 0.000, 15:31:48.150, 1578576708150
245, -187500.02, -170437.30, -187500.02, -187500.02, -187500.02, -187500.02, -176485.80, -187500.02, 0.000, 0.000, 0.000, 15:31:48.150, 1578576708150
246, 187500.00, 187500.00, 187500.00, -26518.33, -177507.17, 21442.18, -177803.42, -176949.70, 0.000, 0.000, 0.000, 15:31:48.150, 1578576708150
247, -187500.02, -170431.53, -187500.02, -187500.02, -187500.02, -187500.02, -176479.69, -187500.02, 0.000, 0.000, 0.000, 15:31:48.150, 1578576708150
248, 187500.00, 187500.00, 187500.00, -26511.49, -177484.11, 21441.04, -177751.84, -176927.22, 0.000, 0.000, 0.000, 15:31:48.150, 1578576708150
249, -187500.02, -170426.23, -187500.02, -187500.02, -187500.02, -187500.02, -176474.03, -187500.02, -0.016, -0.012, 0.980, 15:31:48.150, 1578576708150
250, 187500.00, 187500.00, 187500.00, -26505.08, -177468.70, 21437.42, -177728.61, -176890.58, 0.000, 0.000, 0.000, 15:31:48.150, 1578576708150
251, -187500.02, -170419.73, -187500.02, -187500.02, -187500.02, -187500.02, -176467.17, -187500.02, 0.000, 0.000, 0.000, 15:31:48.150, 1578576708150
252, 187500.00, 187500.00, 187500.00, -26488.60, -177521.58, 21446.95, -177790.48, -176923.06, 0.000, 0.000, 0.000, 15:31:48.150, 1578576708150
253, -187500.02, -170418.80, -187500.02, -187500.02, -187500.02, -187500.02, -176465.88, -187500.02, 0.000, 0.000, 0.000, 15:31:48.150, 1578576708150
254, 187500.00, 187500.00, 187500.00, -26493.30, -177541.52, 21445.31, -177822.69, -176936.22, 0.000, 0.000, 0.000, 15:31:48.150, 1578576708150
255, -187500.02, -170414.95, -187500.02, -187500.02, -187500.02, -187500.02, -176461.66, -187500.02, 0.000, 0.000, 0.000, 15:31:48.150, 1578576708150
0, 187500.00, 187500.00, 187500.00, -26506.11, -177480.59, 21438.07, -177731.81, -176923.64, 0.000, 0.000, 0.000, 15:31:48.150, 1578576708150
1, -187500.02, -170408.47, -187500.02, -187500.02, -187500.02, -187500.02, -176454.91, -187500.02, 0.000, 0.000, 0.000, 15:31:48.150, 1578576708150
2, 187500.00, 187500.00, 187500.00, -26502.24, -177467.72, 21446.68, -177759.59, -176878.11, 0.000, 0.000, 0.000, 15:31:48.151, 1578576708151
3, -187500.02, -170402.92, -187500.02, -187500.02, -187500.02, -187500.02, -176449.06, -187500.02, -0.016, -0.014, 0.978, 15:31:48.151, 1578576708151
4, 187500.00, 187500.00, 187500.00, -26491.82, -177513.61, 21463.06, -177815.08, -176898.45, 0.000, 0.000, 0.000, 15:31:48.151, 1578576708151
5, -187500.02, -170399.50, -187500.02, -187500.02, -187500.02, -187500.02, -176445.25, -187500.02, 0.000, 0.000, 0.000, 15:31:48.151, 1578576708151
6, 187500.00, 187500.00, 187500.00, -26501.88, -177460.69, 21453.49, -177726.16, -176845.75, 0.000, 0.000, 0.000, 15:31:48.151, 1578576708151
7, -187500.02, -170392.58, -187500.02, -187500.02, -187500.02, -187500.02, -176438.05, -187500.02, 0.000, 0.000, 0.000, 15:31:48.151, 1578576708151
8, 187500.00, 187500.00, 187500.00, -26488.58, -177484.48, 21471.31, -177775.47, -176904.59, 0.000, 0.000, 0.000, 15:31:48.151, 1578576708151
9, -187500.02, -170390.11, -187500.02, -187500.02, -187500.02, -187500.02, -176435.14, -187500.02, 0.000, 0.000, 0.000, 15:31:48.151, 1578576708151
10, 187500.00, 187500.00, 187500.00, -26495.42, -177464.73, 21468.13, -177718.20, -176927.16, 0.000, 0.000, 0.000, 15:31:48.151, 1578576708151
11, -187500.02, -170386.02, -187500.02, -187500.02, -187500.02, -187500.02, -176430.73, -187500.02, 0.000, 0.000, 0.000, 15:31:48.151, 1578576708151
12, 187500.00, 187500.00, 187500.00, -26489.86, -177466.09, 21474.44, -177691.91, -176896.53, 0.000, 0.000, 0.000, 15:31:48.151, 1578576708151
13, -187500.02, -170383.70, -187500.02, -187500.02, -187500.02, -187500.02, -176428.11, -187500.02, -0.020, -0.014, 0.974, 15:31:48.151, 1578576708151
14, 187500.00, 187500.00, 187500.00, -26485.77, -177501.34, 21475.94, -177778.34, -176886.00, 0.000, 0.000, 0.000, 15:31:48.151, 1578576708151
15, -187500.02, -170378.98, -187500.02, -187500.02, -187500.02, -187500.02, -176422.92, -187500.02, 0.000, 0.000, 0.000, 15:31:48.151, 1578576708151
16, 187500.00, 187500.00, 187500.00, -26500.54, -177440.84, 21457.52, -177715.81, -176832.33, 0.000, 0.000, 0.000, 15:31:48.151, 1578576708151
17, -187500.02, -170372.80, -187500.02, -187500.02, -187500.02, -187500.02, -176416.41, -187500.02, 0.000, 0.000, 0.000, 15:31:48.152, 1578576708152
18, 187500.00, 187500.00, 187500.00, -26492.58, -177449.63, 21467.11, -177757.03, -176879.20, 0.000, 0.000, 0.000, 15:31:48.152, 1578576708152
19, -187500.02, -170370.28, -187500.02, -187500.02, -187500.02, -187500.02, -176413.47, -187500.02, 0.000, 0.000, 0.000, 15:31:48.152, 1578576708152
20, 187500.00, 187500.00, 187500.00, -26489.95, -177467.88, 21463.75, -177773.23, -176897.84, 0.000, 0.000, 0.000, 15:31:48.152, 1578576708152
21, -187500.02, -170364.67, -187500.02, -187500.02, -187500.02, -187500.02, -176407.66, -187500.02, 0.000, 0.000, 0.000, 15:31:48.152, 1578576708152
22, 187500.00, 187500.00, 187500.00, -26491.18, -177415.89, 21464.22, -177734.06, -176855.64, 0.000, 0.000, 0.000, 15:31:48.152, 1578576708152
23, -187500.02, -170358.00, -187500.02, -187500.02, -187500.02, -187500.02, -176400.56, -187500.02, -0.022, -0.016, 0.966, 15:31:48.152, 1578576708152
24, 187500.00, 187500.00, 187500.00, -26476.94, -177435.25, 21475.71, -177771.94, -176883.31, 0.000, 0.000, 0.000, 15:31:48.152, 1578576708152
25, -187500.02, -170355.02, -187500.02, -187500.02, -187500.02, -187500.02, -176397.34, -187500.02, 0.000, 0.000, 0.000, 15:31:48.152, 1578576708152
26, 187500.00, 187500.00, 187500.00, -26483.93, -177414.06, 21473.83, -177718.05, -176856.97, 0.000, 0.000, 0.000, 15:31:48.152, 1578576708152
27, -187500.02, -170350.39, -187500.02, -187500.02, -187500.02, -187500.02, -176392.27, -187500.02, 0.000, 0.000, 0.000, 15:31:48.152, 1578576708152
28, 187500.00, 187500.00, 187500.00, -26478.95, -177449.20, 21476.43, -177810.09, -176895.66, 0.000, 0.000, 0.000, 15:31:48.152, 1578576708152
29, -187500.02, -170345.39, -187500.02, -187500.02, -187500.02, -187500.02, -176386.95, -187500.02, 0.000, 0.000, 0.000, 15:31:48.152, 1578576708152
30, 187500.00, 187500.00, 187500.00, -26485.27, -177413.95, 21468.51, -177767.95, -176899.66, 0.000, 0.000, 0.000, 15:31:48.152, 1578576708152
31, -187500.02, -170341.67, -187500.02, -187500.02, -187500.02, -187500.02, -176382.89, -187500.02, 0.000, 0.000, 0.000, 15:31:48.152, 1578576708152
32, 187500.00, 187500.00, 187500.00, -26485.38, -177393.63, 21468.54, -177718.63, -176848.38, -0.016, -0.016, 0.976, 15:31:48.152, 1578576708152
33, -187500.02, -170338.23, -187500.02, -187500.02, -187500.02, -187500.02, -176379.11, -187500.02, 0.000, 0.000, 0.000, 15:31:48.153, 1578576708153
34, 187500.00, 187500.00, 187500.00, -26476.98, -177451.23, 21471.04, -177801.84, -176881.28, 0.000, 0.000, 0.000, 15:31:48.153, 1578576708153
35, -187500.02, -170336.61, -187500.02, -187500.02, -187500.02, -187500.02, -176376.97, -187500.02, 0.000, 0.000, 0.000, 15:31:48.153, 1578576708153
36, 187500.00, 187500.00, 187500.00, -26479.51, -177464.53, 21472.43, -177783.17, -176875.67, 0.000, 0.000, 0.000, 15:31:48.153, 1578576708153
37, -187500.02, -170331.59, -187500.02, -187500.02, -187500.02, -187500.02, -176371.64, -187500.02, 0.000, 0.000, 0.000, 15:31:48.153, 1578576708153
38, 187500.00, 187500.00, 187500.00, -26487.11, -177414.06, 21465.36, -177689.97, -176860.88, 0.000, 0.000, 0.000, 15:31:48.153, 1578576708153
39, -187500.02, -170325.25, -187500.02, -187500.02, -187500.02, -187500.02, -176365.00, -187500.02, 0.000, 0.000, 0.000, 15:31:48.153, 1578576708153
40, 187500.00, 187500.00, 187500.00, -26480.11, -177383.61, 21470.26, -177680.56, -176833.03, 0.000, 0.000, 0.000, 15:31:48.153, 1578576708153
41, -187500.02, -170321.25, -187500.02, -187500.02, -187500.02, -187500.02, -176360.72, -187500.02, 0.000, 0.000, 0.000, 15:31:48.153, 1578576708153
42, 187500.00, 187500.00, 187500.00, -26469.34, -177453.06, 21484.03, -177784.66, -176874.17, -0.018, -0.014, 0.972, 15:31:48.153, 1578576708153
43, -187500.02, -170319.11, -187500.02, -187500.02, -187500.02, -187500.02, -176358.13, -187500.02, 0.000, 0.000, 0.000, 15:31:48.153, 1578576708153
44, 187500.00, 187500.00, 187500.00, -26478.23, -177408.58, 21474.15, -177703.42, -176853.91, 0.000, 0.000, 0.000, 15:31:48.153, 1578576708153
45, -187500.02, -170314.41, -187500.02, -187500.02, -187500.02, -187500.02, -176353.02, -187500.02, 0.000, 0.000, 0.000, 15:31:48.153, 1578576708153
46, 187500.00, 187500.00, 187500.00, -26478.59, -177390.86, 21473.61, -177705.23, -176834.88, 0.000, 0.000, 0.000, 15:31:48.153, 1578576708153
47, -187500.02, -170306.72, -187500.02, -187500.02, -187500.02, -187500.02, -176344.95, -187500.02, 0.000, 0.000, 0.000, 15:31:48.153, 1578576708153
48, 187500.00, 187500.00, 187500.00, -26479.91, -177389.42, 21470.24, -177693.36, -176806.98, 0.000, 0.000, 0.000, 15:31:48.153, 1578576708153
49, -187500.02, -170300.08, -187500.02, -187500.02, -187500.02, -187500.02, -176338.06, -187500.02, 0.000, 0.000, 0.000, 15:31:48.153, 1578576708153
50, 187500.00, 187500.00, 187500.00, -26467.06, -177407.53, 21481.75, -177703.00, -176813.45, 0.000, 0.000, 0.000, 15:31:48.153, 1578576708153
51, -187500.02, -170299.14, -187500.02, -187500.02, -187500.02, -187500.02, -176336.80, -187500.02, 0.000, 0.000, 0.000, 15:31:48.153, 1578576708153
52, 187500.00, 187500.00, 187500.00, -26467.26, -177474.88, 21482.39, -177813.94, -176863.17, -0.020, -0.012, 0.978, 15:31:48.154, 1578576708154
53, -187500.02, -170295.98, -187500.02, -187500.02, -187500.02, -187500.02, -176333.44, -187500.02, 0.000, 0.000, 0.000, 15:31:48.154, 1578576708154
54, 187500.00, 187500.00, 187500.00, -26478.46, -177405.83, 21470.01, -177715.63, -176843.36, 0.000, 0.000, 0.000, 15:31:48.154, 1578576708154
55, -187500.02, -170291.39, -187500.02, -187500.02, -187500.02, -187500.02, -176328.45, -187500.02, 0.000, 0.000, 0.000, 15:31:48.154, 1578576708154
56, 187500.00, 187500.00, 187500.00, -26464.06, -177393.50, 21479.18, -177719.11, -176841.30, 0.000, 0.000, 0.000, 15:31:48.154, 1578576708154
57, -187500.02, -170286.69, -187500.02, -187500.02, -187500.02, -187500.02, -176323.14, -187500.02, 0.000, 0.000, 0.000, 15:31:48.154, 1578576708154
58, 187500.00, 187500.00, 187500.00, -26458.41, -177412.61, 21484.74, -177729.53, -176811.59, 0.000, 0.000, 0.000, 15:31:48.154, 1578576708154
59, -187500.02, -170282.94, -187500.02, -187500.02, -187500.02, -187500.02, -176319.14, -187500.02, 0.000, 0.000, 0.000, 15:31:48.154, 1578576708154
60, 187500.00, 187500.00, 187500.00, -26465.45, -177373.22, 21477.92, -177666.14, -176807.17, 0.000, 0.000, 0.000, 15:31:48.154, 1578576708154
61, -187500.02, -170279.42, -187500.02, -187500.02, -187500.02, -187500.02, -176315.38, -187500.02, 0.000, 0.000, 0.000, 15:31:48.154, 1578576708154
62, 187500.00, 187500.00, 187500.00, -26466.92, -177397.20, 21478.53, -177728.14, -176853.56, -0.024, -0.012, 0.974, 15:31:48.154, 1578576708154
63, -187500.02, -170275.84, -187500.02, -187500.02, -187500.02, -187500.02, -176311.45, -187500.02, 0.000, 0.000, 0.000, 15:31:48.154, 1578576708154
64, 187500.00, 187500.00, 187500.00, -26471.57, -177398.56, 21467.42, -177688.97, -176798.53, 0.000, 0.000, 0.000, 15:31:48.154, 1578576708154
65, -187500.02, -170271.69, -187500.02, -187500.02, -187500.02, -187500.02, -176306.89, -187500.02, 0.000, 0.000, 0.000, 15:31:48.154, 1578576708154
66, 187500.00, 187500.00, 187500.00, -26468.04, -177468.39, 21469.43, -177813.89, -176805.78, 0.000, 0.000, 0.000, 15:31:48.154, 1578576708154
67, -187500.02, -170265.92, -187500.02, -187500.02, -187500.02, -187500.02, -176300.72, -187500.02, 0.000, 0.000, 0.000, 15:31:48.154, 1578576708154
68, 187500.00, 187500.00, 187500.00, -26471.93, -177381.25, 21465.09, -177699.67, -176801.11, 0.000, 0.000, 0.000, 15:31:48.154, 1578576708154
69, -187500.02, -170263.22, -187500.02, -187500.02, -187500.02, -187500.02, -176297.67, -187500.02, 0.000, 0.000, 0.000, 15:31:48.154, 1578576708154
70, 187500.00, 187500.00, 187500.00, -26465.49, -177400.92, 21469.01, -177742.45, -176843.52, 0.000, 0.000, 0.000, 15:31:48.154, 1578576708154
71, -187500.02, -170257.66, -187500.02, -187500.02, -187500.02, -187500.02, -176291.73, -187500.02, -0.024, -0.014, 0.974, 15:31:48.155, 1578576708155
72, 187500.00, 187500.00, 187500.00, -26470.34, -177358.63, 21467.51, -177657.22, -176820.80, 0.000, 0.000, 0.000, 15:31:48.155, 1578576708155
73, -187500.02, -170256.61, -187500.02, -187500.02, -187500.02, -187500.02, -176290.38, -187500.02, 0.000, 0.000, 0.000, 15:31:48.155, 1578576708155
74, 187500.00, 187500.00, 187500.00, -26447.12, -177477.66, 21492.25, -177748.31, -176817.73, 0.000, 0.000, 0.000, 15:31:48.155, 1578576708155
75, -187500.02, -170257.52, -187500.02, -187500.02, -187500.02, -187500.02, -176291.00, -187500.02, 0.000, 0.000, 0.000, 15:31:48.155, 1578576708155
76, 187500.00, 187500.00, 187500.00, -26471.33, -177407.44, 21471.51, -177666.59, -176788.55, 0.000, 0.000, 0.000, 15:31:48.155, 1578576708155
77, -187500.02, -170247.73, -187500.02, -187500.02, -187500.02, -187500.02, -176280.72, -187500.02, 0.000, 0.000, 0.000, 15:31:48.155, 1578576708155
78, 187500.00, 187500.00, 187500.00, -26474.70, -177339.72, 21472.98, -177635.98, -176762.84, 0.000, 0.000, 0.000, 15:31:48.155, 1578576708155
79, -187500.02, -170240.95, -187500.02, -187500.02, -187500.02, -187500.02, -176273.63, -187500.02, 0.000, 0.000, 0.000, 15:31:48.155, 1578576708155
80, 187500.00, 187500.00, 187500.00, -26466.48, -177364.64, 21483.09, -177666.97, -176730.45, 0.000, 0.000, 0.000, 15:31:48.155, 1578576708155
81, -187500.02, -170238.72, -187500.02, -187500.02, -187500.02, -187500.02, -176271.17, -187500.02, -0.022, -0.010, 0.980, 15:31:48.155, 1578576708155
82, 187500.00, 187500.00, 187500.00, -26472.44, -177377.41, 21474.17, -177729.23, -176782.05, 0.000, 0.000, 0.000, 15:31:48.155, 1578576708155
83, -187500.02, -170234.17, -187500.02, -187500.02, -187500.02, -187500.02, -176266.20, -187500.02, 0.000, 0.000, 0.000, 15:31:48.155, 1578576708155
84, 187500.00, 187500.00, 187500.00, -26474.05, -177338.80, 21470.19, -177642.36, -176758.34, 0.000, 0.000, 0.000, 15:31:48.155, 1578576708155
85, -187500.02, -170228.17, -187500.02, -187500.02, -187500.02, -187500.02, -176259.88, -187500.02, 0.000, 0.000, 0.000, 15:31:48.156, 1578576708156
86, 187500.00, 187500.00, 187500.00, -26473.16, -177346.92, 21468.47, -177643.13, -176779.56, 0.000, 0.000, 0.000, 15:31:48.156, 1578576708156
87, -187500.02, -170221.89, -187500.02, -187500.02, -187500.02, -187500.02, -176253.16, -187500.02, 0.000, 0.000, 0.000, 15:31:48.156, 1578576708156
88, 187500.00, 187500.00, 187500.00, -26464.40, -177332.13, 21475.91, -177607.31, -176750.80, 0.000, 0.000, 0.000, 15:31:48.156, 1578576708156
89, -187500.02, -170218.14, -187500.02, -187500.02, -187500.02, -187500.02, -176249.09, -187500.02, 0.000, 0.000, 0.000, 15:31:48.156, 1578576708156
90, 187500.00, 187500.00, 187500.00, -26467.10, -177355.30, 21482.08, -177636.77, -176722.67, 0.000, 0.000, 0.000, 15:31:48.631, 1578576708631
91, -187500.02, -170216.16, -187500.02, -187500.02, -187500.02, -187500.02, -176246.66, -187500.02, -0.020, -0.014, 0.978, 15:31:48.632, 1578576708632
92, 187500.00, 187500.00, 187500.00, -26456.78, -177376.44, 21489.70, -177706.69, -176785.63, 0.000, 0.000, 0.000, 15:31:48.632, 1578576708632
93, -187500.02, -170211.52, -187500.02, -187500.02, -187500.02, -187500.02, -176241.86, -187500.02, 0.000, 0.000, 0.000, 15:31:48.632, 1578576708632
94, 187500.00, 187500.00, 187500.00, -26465.04, -177338.88, 21480.34, -177650.52, -176798.67, 0.000, 0.000, 0.000, 15:31:48.632, 1578576708632
95, -187500.02, -170205.95, -187500.02, -187500.02, -187500.02, -187500.02, -176235.94, -187500.02, 0.000, 0.000, 0.000, 15:31:48.632, 1578576708632
96, 187500.00, 187500.00, 187500.00, -26470.43, -177311.08, 21481.97, -177623.16, -176771.25, 0.000, 0.000, 0.000, 15:31:48.632, 1578576708632
97, -187500.02, -170199.81, -187500.02, -187500.02, -187500.02, -187500.02, -176229.31, -187500.02, 0.000, 0.000, 0.000, 15:31:48.633, 1578576708633
98, 187500.00, 187500.00, 187500.00, -26469.79, -177332.47, 21478.26, -177647.45, -176760.14, 0.000, 0.000, 0.000, 15:31:48.633, 1578576708633
99, -187500.02, -170198.17, -187500.02, -187500.02, -187500.02, -187500.02, -176227.27, -187500.02, 0.000, 0.000, 0.000, 15:31:48.633, 1578576708633
100, 187500.00, 187500.00, 187500.00, -26463.32, -177381.47, 21480.81, -177696.08, -176781.73, 0.000, 0.000, 0.000, 15:31:48.633, 1578576708633
101, -187500.02, -170197.33, -187500.02, -187500.02, -187500.02, -187500.02, -176226.16, -187500.02, -0.020, -0.010, 0.980, 15:31:48.633, 1578576708633
102, 187500.00, 187500.00, 187500.00, -26475.01, -177353.28, 21465.97, -177639.44, -176763.36, 0.000, 0.000, 0.000, 15:31:48.633, 1578576708633
103, -187500.02, -170189.91, -187500.02, -187500.02, -187500.02, -187500.02, -176218.38, -187500.02, 0.000, 0.000, 0.000, 15:31:48.633, 1578576708633
104, 187500.00, 187500.00, 187500.00, -26474.57, -177303.69, 21463.91, -177574.52, -176736.88, 0.000, 0.000, 0.000, 15:31:48.633, 1578576708633
105, -187500.02, -170185.03, -187500.02, -187500.02, -187500.02, -187500.02, -176213.14, -187500.02, 0.000, 0.000, 0.000, 15:31:48.633, 1578576708633
106, 187500.00, 187500.00, 187500.00, -26463.15, -177355.67, 21478.01, -177634.53, -176760.38, 0.000, 0.000, 0.000, 15:31:48.633, 1578576708633
107, -187500.02, -170180.14, -187500.02, -187500.02, -187500.02, -187500.02, -176207.94, -187500.02, 0.000, 0.000, 0.000, 15:31:48.633, 1578576708633
108, 187500.00, 187500.00, 187500.00, -26462.61, -177289.06, 21476.27, -177554.30, -176736.95, 0.000, 0.000, 0.000, 15:31:48.634, 1578576708634
109, -187500.02, -170175.47, -187500.02, -187500.02, -187500.02, -187500.02, -176202.91, -187500.02, 0.000, 0.000, 0.000, 15:31:48.634, 1578576708634
110, 187500.00, 187500.00, 187500.00, -26465.09, -177281.02, 21476.23, -177558.45, -176726.56, -0.026, -0.014, 0.976, 15:31:48.634, 1578576708634
111, -187500.02, -170168.70, -187500.02, -187500.02, -187500.02, -187500.02, -176195.86, -187500.02, 0.000, 0.000, 0.000, 15:31:48.634, 1578576708634
112, 187500.00, 187500.00, 187500.00, -26458.56, -177273.84, 21484.59, -177609.95, -176705.13, 0.000, 0.000, 0.000, 15:31:48.634, 1578576708634
113, -187500.02, -170162.34, -187500.02, -187500.02, -187500.02, -187500.02, -176189.08, -187500.02, 0.000, 0.000, 0.000, 15:31:48.634, 1578576708634
114, 187500.00, 187500.00, 187500.00, -26453.89, -177300.98, 21485.81, -177612.30, -176745.27, 0.000, 0.000, 0.000, 15:31:48.634, 1578576708634
115, -187500.02, -170159.27, -187500.02, -187500.02, -187500.02, -187500.02, -176185.52, -187500.02, 0.000, 0.000, 0.000, 15:31:48.634, 1578576708634
116, 187500.00, 187500.00, 187500.00, -26459.17, -177313.41, 21485.72, -177583.78, -176744.52, 0.000, 0.000, 0.000, 15:31:48.634, 1578576708634
117, -187500.02, -170157.19, -187500.02, -187500.02, -187500.02, -187500.02, -176183.17, -187500.02, 0.000, 0.000, 0.000, 15:31:48.634, 1578576708634
118, 187500.00, 187500.00, 187500.00, -26460.08, -177314.95, 21481.84, -177557.94, -176771.88, 0.000, 0.000, 0.000, 15:31:48.634, 1578576708634
119, -187500.02, -170154.48, -187500.02, -187500.02, -187500.02, -187500.02, -176180.06, -187500.02, 0.000, 0.000, 0.000, 15:31:48.634, 1578576708634
120, 187500.00, 187500.00, 187500.00, -26464.82, -177289.72, 21476.99, -177517.55, -176733.38, -0.020, -0.012, 0.976, 15:31:48.634, 1578576708634
121, -187500.02, -170150.56, -187500.02, -187500.02, -187500.02, -187500.02, -176175.69, -187500.02, 0.000, 0.000, 0.000, 15:31:48.634, 1578576708634
122, 187500.00, 187500.00, 187500.00, -26447.32, -177310.45, 21492.25, -177635.30, -176735.22, 0.000, 0.000, 0.000, 15:31:48.635, 1578576708635
123, -187500.02, -170146.22, -187500.02, -187500.02, -187500.02, -187500.02, -176171.14, -187500.02, 0.000, 0.000, 0.000, 15:31:48.635, 1578576708635
124, 187500.00, 187500.00, 187500.00, -26467.95, -177273.31, 21480.07, -177572.63, -176720.89, 0.000, 0.000, 0.000, 15:31:48.635, 1578576708635
125, -187500.02, -170141.88, -187500.02, -187500.02, -187500.02, -187500.02, -176166.45, -187500.02, 0.000, 0.000, 0.000, 15:31:48.635, 1578576708635
126, 187500.00, 187500.00, 187500.00, -26482.23, -177281.92, 21481.03, -177571.86, -176733.31, 0.000, 0.000, 0.000, 15:31:48.635, 1578576708635
127, -187500.02, -170137.38, -187500.02, -187500.02, -187500.02, -187500.02, -176161.53, -187500.02, 0.000, 0.000, 0.000, 15:31:48.635, 1578576708635
128, 187500.00, 187500.00, 187500.00, -26487.29, -177286.72, 21488.45, -177568.13, -176722.08, 0.000, 0.000, 0.000, 15:31:48.635, 1578576708635
129, -187500.02, -170131.39, -187500.02, -187500.02, -187500.02, -187500.02, -176155.33, -187500.02, 0.000, 0.000, 0.000, 15:31:48.635, 1578576708635
130, 187500.00, 187500.00, 187500.00, -26492.16, -177276.16, 21486.64, -177566.05, -176713.02, -0.022, -0.014, 0.978, 15:31:48.635, 1578576708635
131, -187500.02, -170128.28, -187500.02, -187500.02, -187500.02, -187500.02, -176151.80, -187500.02, 0.000, 0.000, 0.000, 15:31:48.635, 1578576708635
132, 187500.00, 187500.00, 187500.00, -26482.19, -177297.36, 21502.71, -177570.55, -176728.64, 0.000, 0.000, 0.000, 15:31:48.635, 1578576708635
133, -187500.02, -170123.50, -187500.02, -187500.02, -187500.02, -187500.02, -176146.61, -187500.02, 0.000, 0.000, 0.000, 15:31:48.635, 1578576708635
134, 187500.00, 187500.00, 187500.00, -26490.48, -177252.03, 21499.29, -177496.45, -176703.75, 0.000, 0.000, 0.000, 15:31:48.636, 1578576708636
135, -187500.02, -170115.72, -187500.02, -187500.02, -187500.02, -187500.02, -176138.52, -187500.02, 0.000, 0.000, 0.000, 15:31:48.636, 1578576708636
136, 187500.00, 187500.00, 187500.00, -26484.07, -177254.38, 21504.59, -177547.17, -176669.25, 0.000, 0.000, 0.000, 15:31:48.636, 1578576708636
137, -187500.02, -170110.97, -187500.02, -187500.02, -187500.02, -187500.02, -176133.22, -187500.02, 0.000, 0.000, 0.000, 15:31:48.636, 1578576708636
138, 187500.00, 187500.00, 187500.00, -26487.55, -177284.73, 21495.16, -177592.97, -176697.28, 0.000, 0.000, 0.000, 15:31:48.636, 1578576708636
139, -187500.02, -170108.91, -187500.02, -187500.02, -187500.02, -187500.02, -176130.84, -187500.02, 0.000, 0.000, 0.000, 15:31:48.636, 1578576708636
140, 187500.00, 187500.00, 187500.00, -26486.08, -177283.95, 21498.89, -177602.28, -176699.83, -0.024, -0.016, 0.978, 15:31:48.636, 1578576708636
141, -187500.02, -170103.00, -187500.02, -187500.02, -187500.02, -187500.02, -176124.75, -187500.02, 0.000, 0.000, 0.000, 15:31:48.636, 1578576708636
142, 187500.00, 187500.00, 187500.00, -26491.04, -177229.56, 21498.91, -177516.61, -176708.75, 0.000, 0.000, 0.000, 15:31:48.636, 1578576708636
143, -187500.02, -170099.39, -187500.02, -187500.02, -187500.02, -187500.02, -176120.81, -187500.02, 0.000, 0.000, 0.000, 15:31:48.636, 1578576708636
144, 187500.00, 187500.00, 187500.00, -26481.32, -177275.61, 21511.36, -177601.28, -176676.45, 0.000, 0.000, 0.000, 15:31:48.636, 1578576708636
145, -187500.02, -170094.42, -187500.02, -187500.02, -187500.02, -187500.02, -176115.58, -187500.02, 0.000, 0.000, 0.000, 15:31:48.637, 1578576708637
146, 187500.00, 187500.00, 187500.00, -26489.57, -177235.56, 21509.57, -177530.52, -176675.98, 0.000, 0.000, 0.000, 15:31:48.637, 1578576708637
147, -187500.02, -170087.03, -187500.02, -187500.02, -187500.02, -187500.02, -176107.72, -187500.02, 0.000, 0.000, 0.000, 15:31:48.637, 1578576708637
148, 187500.00, 187500.00, 187500.00, -26488.04, -177219.73, 21508.99, -177494.19, -176640.00, 0.000, 0.000, 0.000, 15:31:48.637, 1578576708637
149, -187500.02, -170082.20, -187500.02, -187500.02, -187500.02, -187500.02, -176102.55, -187500.02, -0.020, -0.018, 0.978, 15:31:48.637, 1578576708637
150, 187500.00, 187500.00, 187500.00, -26471.82, -177255.20, 21520.53, -177525.44, -176661.86, 0.000, 0.000, 0.000, 15:31:48.637, 1578576708637
151, -187500.02, -170080.98, -187500.02, -187500.02, -187500.02, -187500.02, -176101.13, -187500.02, 0.000, 0.000, 0.000, 15:31:48.637, 1578576708637
152, 187500.00, 187500.00, 187500.00, -26473.52, -177280.23, 21523.59, -177548.55, -176673.19, 0.000, 0.000, 0.000, 15:31:48.637, 1578576708637
153, -187500.02, -170075.78, -187500.02, -187500.02, -187500.02, -187500.02, -176095.44, -187500.02, 0.000, 0.000, 0.000, 15:31:48.637, 1578576708637
154, 187500.00, 187500.00, 187500.00, -26480.83, -177259.23, 21517.78, -177543.13, -176660.78, 0.000, 0.000, 0.000, 15:31:48.637, 1578576708637
155, -187500.02, -170071.56, -187500.02, -187500.02, -187500.02, -187500.02, -176090.80, -187500.02, 0.000, 0.000, 0.000, 15:31:48.637, 1578576708637
156, 187500.00, 187500.00, 187500.00, -26477.23, -177227.38, 21524.82, -177509.25, -176640.38, 0.000, 0.000, 0.000, 15:31:48.637, 1578576708637
157, -187500.02, -170069.28, -187500.02, -187500.02, -187500.02, -187500.02, -176088.25, -187500.02, 0.000, 0.000, 0.000, 15:31:48.638, 1578576708638
158, 187500.00, 187500.00, 187500.00, -26482.28, -177252.84, 21512.68, -177600.94, -176688.20, 0.000, 0.000, 0.000, 15:31:48.638, 1578576708638
159, -187500.02, -170064.06, -187500.02, -187500.02, -187500.02, -187500.02, -176082.59, -187500.02, -0.018, -0.020, 0.980, 15:31:48.638, 1578576708638
160, 187500.00, 187500.00, 187500.00, -26484.60, -177216.17, 21509.78, -177510.75, -176632.58, 0.000, 0.000, 0.000, 15:31:48.638, 1578576708638
161, -187500.02, -170057.66, -187500.02, -187500.02, -187500.02, -187500.02, -176075.89, -187500.02, 0.000, 0.000, 0.000, 15:31:48.638, 1578576708638
162, 187500.00, 187500.00, 187500.00, -26472.89, -177196.11, 21524.04, -177558.52, -176645.27, 0.000, 0.000, 0.000, 15:31:48.638, 1578576708638
163, -187500.02, -170053.23, -187500.02, -187500.02, -187500.02, -187500.02, -176071.09, -187500.02, 0.000, 0.000, 0.000, 15:31:48.638, 1578576708638
164, 187500.00, 187500.00, 187500.00, -26459.81, -177230.50, 21534.79, -177594.94, -176677.34, 0.000, 0.000, 0.000, 15:31:48.638, 1578576708638
165, -187500.02, -170050.97, -187500.02, -187500.02, -187500.02, -187500.02, -176068.48, -187500.02, 0.000, 0.000, 0.000, 15:31:48.638, 1578576708638
166, 187500.00, 187500.00, 187500.00, -26468.35, -177238.17, 21528.60, -177556.80, -176664.42, 0.000, 0.000, 0.000, 15:31:48.638, 1578576708638
167, -187500.02, -170047.84, -187500.02, -187500.02, -187500.02, -187500.02, -176065.00, -187500.02, 0.000, 0.000, 0.000, 15:31:48.638, 1578576708638
168, 187500.00, 187500.00, 187500.00, -26465.40, -177225.14, 21529.58, -177502.86, -176674.31, 0.000, 0.000, 0.000, 15:31:48.639, 1578576708639
169, -187500.02, -170044.72, -187500.02, -187500.02, -187500.02, -187500.02, -176061.56, -187500.02, -0.018, -0.018, 0.978, 15:31:48.639, 1578576708639
170, 187500.00, 187500.00, 187500.00, -26471.66, -177196.56, 21522.31, -177429.30, -176639.84, 0.000, 0.000, 0.000, 15:31:48.639, 1578576708639
171, -187500.02, -170036.78, -187500.02, -187500.02, -187500.02, -187500.02, -176053.27, -187500.02, 0.000, 0.000, 0.000, 15:31:48.639, 1578576708639
172, 187500.00, 187500.00, 187500.00, -26470.41, -177197.06, 21526.58, -177497.83, -176620.75, 0.000, 0.000, 0.000, 15:31:48.639, 1578576708639
173, -187500.02, -170033.31, -187500.02, -187500.02, -187500.02, -187500.02, -176049.44, -187500.02, 0.000, 0.000, 0.000, 15:31:48.639, 1578576708639
174, 187500.00, 187500.00, 187500.00, -26474.41, -177225.80, 21518.89, -177527.63, -176641.42, 0.000, 0.000, 0.000, 15:31:48.639, 1578576708639
175, -187500.02, -170030.67, -187500.02, -187500.02, -187500.02, -187500.02, -176046.58, -187500.02, 0.000, 0.000, 0.000, 15:31:48.639, 1578576708639
176, 187500.00, 187500.00, 187500.00, -26480.63, -177188.91, 21517.49, -177443.03, -176633.38, 0.000, 0.000, 0.000, 15:31:48.639, 1578576708639
177, -187500.02, -170024.63, -187500.02, -187500.02, -187500.02, -187500.02, -176040.17, -187500.02, 0.000, 0.000, 0.000, 15:31:48.639, 1578576708639
178, 187500.00, 187500.00, 187500.00, -26478.97, -177183.30, 21519.74, -177469.31, -176597.34, 0.000, 0.000, 0.000, 15:31:48.639, 1578576708639
179, -187500.02, -170022.36, -187500.02, -187500.02, -187500.02, -187500.02, -176037.44, -187500.02, -0.020, -0.014, 0.972, 15:31:48.639, 1578576708639
180, 187500.00, 187500.00, 187500.00, -26469.83, -177261.36, 21527.01, -177628.55, -176665.08, 0.000, 0.000, 0.000, 15:31:48.639, 1578576708639
181, -187500.02, -170019.80, -187500.02, -187500.02, -187500.02, -187500.02, -176034.58, -187500.02, 0.000, 0.000, 0.000, 15:31:48.639, 1578576708639
182, 187500.00, 187500.00, 187500.00, -26475.44, -177222.64, 21522.03, -177579.50, -176678.20, 0.000, 0.000, 0.000, 15:31:48.640, 1578576708640
183, -187500.02, -170014.94, -187500.02, -187500.02, -187500.02, -187500.02, -176029.22, -187500.02, 0.000, 0.000, 0.000, 15:31:48.640, 1578576708640
184, 187500.00, 187500.00, 187500.00, -26477.00, -177173.69, 21521.44, -177491.89, -176663.94, 0.000, 0.000, 0.000, 15:31:48.640, 1578576708640
185, -187500.02, -170010.41, -187500.02, -187500.02, -187500.02, -187500.02, -176024.25, -187500.02, 0.000, 0.000, 0.000, 15:31:48.640, 1578576708640
186, 187500.00, 187500.00, 187500.00, -26470.75, -177177.80, 21525.51, -177443.00, -176653.27, 0.000, 0.000, 0.000, 15:31:48.640, 1578576708640
187, -187500.02, -170006.05, -187500.02, -187500.02, -187500.02, -187500.02, -176019.56, -187500.02, 0.000, 0.000, 0.000, 15:31:48.640, 1578576708640
188, 187500.00, 187500.00, 187500.00, -26473.16, -177180.97, 21519.39, -177463.56, -176609.52, 0.000, 0.000, 0.000, 15:31:48.640, 1578576708640
189, -187500.02, -169999.97, -187500.02, -187500.02, -187500.02, -187500.02, -176013.25, -187500.02, -0.018, -0.014, 0.964, 15:31:48.640, 1578576708640
190, 187500.00, 187500.00, 187500.00, -26479.22, -177167.98, 21510.13, -177457.75, -176611.41, 0.000, 0.000, 0.000, 15:31:48.640, 1578576708640
191, -187500.02, -169995.72, -187500.02, -187500.02, -187500.02, -187500.02, -176008.67, -187500.02, 0.000, 0.000, 0.000, 15:31:48.640, 1578576708640
192, 187500.00, 187500.00, 187500.00, -26473.58, -177205.19, 21518.34, -177477.56, -176614.47, 0.000, 0.000, 0.000, 15:31:48.640, 1578576708640
193, -187500.02, -169992.75, -187500.02, -187500.02, -187500.02, -187500.02, -176005.31, -187500.02, 0.000, 0.000, 0.000, 15:31:48.640, 1578576708640
194, 187500.00, 187500.00, 187500.00, -26472.73, -177242.64, 21515.77, -177534.88, -176634.77, 0.000, 0.000, 0.000, 15:31:48.640, 1578576708640
195, -187500.02, -169992.56, -187500.02, -187500.02, -187500.02, -187500.02, -176004.67, -187500.02, 0.000, 0.000, 0.000, 15:31:48.640, 1578576708640
196, 187500.00, 187500.00, 187500.00, -26481.21, -177199.81, 21510.92, -177481.94, -176628.50, 0.000, 0.000, 0.000, 15:31:48.640, 1578576708640
197, -187500.02, -169986.13, -187500.02, -187500.02, -187500.02, -187500.02, -175997.94, -187500.02, 0.000, 0.000, 0.000, 15:31:48.641, 1578576708641
198, 187500.00, 187500.00, 187500.00, -26470.07, -177213.91, 21519.99, -177543.16, -176613.47, -0.020, -0.014, 0.970, 15:31:48.641, 1578576708641
199, -187500.02, -169982.50, -187500.02, -187500.02, -187500.02, -187500.02, -175993.97, -187500.02, 0.000, 0.000, 0.000, 15:31:48.641, 1578576708641
200, 187500.00, 187500.00, 187500.00, -26475.95, -177170.50, 21513.58, -177487.66, -176586.73, 0.000, 0.000, 0.000, 15:31:48.641, 1578576708641
201, -187500.02, -169979.58, -187500.02, -187500.02, -187500.02, -187500.02, -175990.66, -187500.02, 0.000, 0.000, 0.000, 15:31:48.641, 1578576708641
202, 187500.00, 187500.00, 187500.00, -26471.42, -177167.98, 21515.50, -177501.28, -176607.47, 0.000, 0.000, 0.000, 15:31:48.641, 1578576708641
203, -187500.02, -169973.70, -187500.02, -187500.02, -187500.02, -187500.02, -175984.47, -187500.02, 0.000, 0.000, 0.000, 15:31:48.641, 1578576708641
204, 187500.00, 187500.00, 187500.00, -26473.29, -177137.09, 21515.90, -177412.23, -176584.19, 0.000, 0.000, 0.000, 15:31:48.641, 1578576708641
205, -187500.02, -169967.20, -187500.02, -187500.02, -187500.02, -187500.02, -175977.56, -187500.02, 0.000, 0.000, 0.000, 15:31:48.641, 1578576708641
206, 187500.00, 187500.00, 187500.00, -26474.03, -177132.14, 21521.20, -177427.63, -176574.58, 0.000, 0.000, 0.000, 15:31:48.641, 1578576708641
207, -187500.02, -169961.67, -187500.02, -187500.02, -187500.02, -187500.02, -175971.67, -187500.02, 0.000, 0.000, 0.000, 15:31:48.642, 1578576708642
208, 187500.00, 187500.00, 187500.00, -26473.76, -177150.23, 21520.79, -177410.48, -176599.42, -0.022, -0.014, 0.974, 15:31:48.642, 1578576708642
209, -187500.02, -169958.72, -187500.02, -187500.02, -187500.02, -187500.02, -175968.39, -187500.02, 0.000, 0.000, 0.000, 15:31:48.642, 1578576708642
210, 187500.00, 187500.00, 187500.00, -26468.49, -177186.05, 21522.45, -177449.47, -176604.38, 0.000, 0.000, 0.000, 15:31:49.108, 1578576709108
211, -187500.02, -169954.52, -187500.02, -187500.02, -187500.02, -187500.02, -175963.95, -187500.02, 0.000, 0.000, 0.000, 15:31:49.109, 1578576709109
212, 187500.00, 187500.00, 187500.00, -26471.73, -177140.34, 21517.60, -177408.36, -176567.05, 0.000, 0.000, 0.000, 15:31:49.109, 1578576709109
213, -187500.02, -169949.00, -187500.02, -187500.02, -187500.02, -187500.02, -175958.02, -187500.02, 0.000, 0.000, 0.000, 15:31:49.109, 1578576709109
214, 187500.00, 187500.00, 187500.00, -26469.61, -177134.19, 21516.62, -177404.41, -176564.47, 0.000, 0.000, 0.000, 15:31:49.109, 1578576709109
215, -187500.02, -169945.81, -187500.02, -187500.02, -187500.02, -187500.02, -175954.41, -187500.02, 0.000, 0.000, 0.000, 15:31:49.109, 1578576709109
216, 187500.00, 187500.00, 187500.00, -26470.23, -177179.70, 21513.71, -177486.02, -176606.25, 0.000, 0.000, 0.000, 15:31:49.109, 1578576709109
217, -187500.02, -169941.31, -187500.02, -187500.02, -187500.02, -187500.02, -175949.64, -187500.02, 0.000, 0.000, 0.000, 15:31:49.109, 1578576709109
218, 187500.00, 187500.00, 187500.00, -26476.56, -177124.38, 21507.41, -177383.27, -176542.34, -0.014, -0.012, 0.970, 15:31:49.109, 1578576709109
219, -187500.02, -169934.23, -187500.02, -187500.02, -187500.02, -187500.02, -175942.13, -187500.02, 0.000, 0.000, 0.000, 15:31:49.109, 1578576709109
220, 187500.00, 187500.00, 187500.00, -26467.62, -177143.36, 21516.15, -177427.11, -176537.94, 0.000, 0.000, 0.000, 15:31:49.109, 1578576709109
221, -187500.02, -169933.22, -187500.02, -187500.02, -187500.02, -187500.02, -175940.78, -187500.02, 0.000, 0.000, 0.000, 15:31:49.109, 1578576709109
222, 187500.00, 187500.00, 187500.00, -26468.51, -177156.59, 21515.81, -177465.58, -176580.67, 0.000, 0.000, 0.000, 15:31:49.109, 1578576709109
223, -187500.02, -169930.83, -187500.02, -187500.02, -187500.02, -187500.02, -175938.06, -187500.02, 0.000, 0.000, 0.000, 15:31:49.110, 1578576709110
224, 187500.00, 187500.00, 187500.00, -26471.39, -177143.20, 21516.46, -177399.05, -176584.20, 0.000, 0.000, 0.000, 15:31:49.110, 1578576709110
225, -187500.02, -169925.13, -187500.02, -187500.02, -187500.02, -187500.02, -175932.08, -187500.02, 0.000, 0.000, 0.000, 15:31:49.110, 1578576709110
226, 187500.00, 187500.00, 187500.00, -26476.15, -177104.64, 21511.21, -177367.84, -176532.94, 0.000, 0.000, 0.000, 15:31:49.110, 1578576709110
227, -187500.02, -169917.89, -187500.02, -187500.02, -187500.02, -187500.02, -175924.34, -187500.02, 0.000, 0.000, 0.000, 15:31:49.110, 1578576709110
228, 187500.00, 187500.00, 187500.00, -26473.92, -177100.42, 21514.76, -177404.20, -176537.06, -0.018, -0.014, 0.976, 15:31:49.110, 1578576709110
229, -187500.02, -169911.47, -187500.02, -187500.02, -187500.02, -187500.02, -175917.67, -187500.02, 0.000, 0.000, 0.000, 15:31:49.110, 1578576709110
230, 187500.00, 187500.00, 187500.00, -26468.35, -177139.53, 21524.35, -177424.08, -176588.83, 0.000, 0.000, 0.000, 15:31:49.110, 1578576709110
231, -187500.02, -169908.92, -187500.02, -187500.02, -187500.02, -187500.02, -175914.73, -187500.02, 0.000, 0.000, 0.000, 15:31:49.110, 1578576709110
232, 187500.00, 187500.00, 187500.00, -26468.53, -177132.86, 21517.80, -177420.81, -176586.84, 0.000, 0.000, 0.000, 15:31:49.110, 1578576709110
233, -187500.02, -169905.30, -187500.02, -187500.02, -187500.02, -187500.02, -175910.84, -187500.02, 0.000, 0.000, 0.000, 15:31:49.110, 1578576709110
234, 187500.00, 187500.00, 187500.00, -26468.87, -177132.31, 21515.14, -177428.88, -176550.08, 0.000, 0.000, 0.000, 15:31:49.110, 1578576709110
235, -187500.02, -169899.81, -187500.02, -187500.02, -187500.02, -187500.02, -175904.92, -187500.02, 0.000, 0.000, 0.000, 15:31:49.110, 1578576709110
236, 187500.00, 187500.00, 187500.00, -26471.39, -177124.05, 21512.50, -177438.11, -176554.14, 0.000, 0.000, 0.000, 15:31:49.110, 1578576709110
237, -187500.02, -169896.28, -187500.02, -187500.02, -187500.02, -187500.02, -175900.95, -187500.02, -0.016, -0.012, 0.976, 15:31:49.110, 1578576709110
238, 187500.00, 187500.00, 187500.00, -26470.63, -177116.31, 21510.98, -177416.88, -176559.00, 0.000, 0.000, 0.000, 15:31:49.111, 1578576709111
239, -187500.02, -169892.88, -187500.02, -187500.02, -187500.02, -187500.02, -175897.11, -187500.02, 0.000, 0.000, 0.000, 15:31:49.111, 1578576709111
240, 187500.00, 187500.00, 187500.00, -26465.60, -177117.52, 21519.23, -177405.03, -176551.30, 0.000, 0.000, 0.000, 15:31:49.111, 1578576709111
241, -187500.02, -169889.91, -187500.02, -187500.02, -187500.02, -187500.02, -175893.83, -187500.02, 0.000, 0.000, 0.000, 15:31:49.111, 1578576709111
242, 187500.00, 187500.00, 187500.00, -26469.29, -177089.83, 21515.03, -177366.14, -176543.80, 0.000, 0.000, 0.000, 15:31:49.111, 1578576709111
243, -187500.02, -169886.23, -187500.02, -187500.02, -187500.02, -187500.02, -175889.89, -187500.02, 0.000, 0.000, 0.000, 15:31:49.111, 1578576709111
244, 187500.00, 187500.00, 187500.00, -26463.26, -177125.13, 21523.50, -177388.27, -176547.28, 0.000, 0.000, 0.000, 15:31:49.111, 1578576709111
245, -187500.02, -169880.63, -187500.02, -187500.02, -187500.02, -187500.02, -175884.03, -187500.02, 0.000, 0.000, 0.000, 15:31:49.111, 1578576709111
246, 187500.00, 187500.00, 187500.00, -26473.09, -177072.25, 21515.77, -177330.13, -176533.45, 0.000, 0.000, 0.000, 15:31:49.111, 1578576709111
247, -187500.02, -169876.19, -187500.02, -187500.02, -187500.02, -187500.02, -175879.23, -187500.02, -0.020, -0.018, 0.976, 15:31:49.111, 1578576709111
248, 187500.00, 187500.00, 187500.00, -26464.84, -177083.34, 21520.73, -177384.75, -176531.91, 0.000, 0.000, 0.000, 15:31:49.111, 1578576709111
249, -187500.02, -169870.30, -187500.02, -187500.02, -187500.02, -187500.02, -175872.86, -187500.02, 0.000, 0.000, 0.000, 15:31:49.111, 1578576709111
250, 187500.00, 187500.00, 187500.00, -26460.22, -177102.36, 21521.55, -177437.28, -176511.27, 0.000, 0.000, 0.000, 15:31:49.111, 1578576709111
251, -187500.02, -169866.91, -187500.02, -187500.02, -187500.02, -187500.02, -175869.08, -187500.02, 0.000, 0.000, 0.000, 15:31:49.111, 1578576709111
252, 187500.00, 187500.00, 187500.00, -26464.82, -177081.83, 21520.50, -177410.73, -176531.19, 0.000, 0.000, 0.000, 15:31:49.112, 1578576709112
253, -187500.02, -169863.34, -187500.02, -187500.02, -187500.02, -187500.02, -175865.17, -187500.02, 0.000, 0.000, 0.000, 15:31:49.112, 1578576709112
254, 187500.00, 187500.00, 187500.00, -26466.23, -177068.03, 21516.32, -177346.89, -176521.84, 0.000, 0.000, 0.000, 15:31:49.112, 1578576709112
255, -187500.02, -169860.05, -187500.02, -187500.02, -187500.02, -187500.02, -175861.53, -187500.02, 0.000, 0.000, 0.000, 15:31:49.112, 1578576709112
0, 187500.00, 187500.00, 187500.00, -26462.52, -177086.05, 21526.83, -177349.63, -176533.16, 0.000, 0.000, 0.000, 15:31:49.112, 1578576709112
1, -187500.02, -169856.98, -187500.02, -187500.02, -187500.02, -187500.02, -175858.05, -187500.02, -0.018, -0.018, 0.978, 15:31:49.113, 1578576709113
2, 187500.00, 187500.00, 187500.00, -26456.91, -177107.73, 21531.28, -177401.31, -176536.11, 0.000, 0.000, 0.000, 15:31:49.113, 1578576709113
3, -187500.02, -169854.47, -187500.02, -187500.02, -187500.02, -187500.02, -175855.30, -187500.02, 0.000, 0.000, 0.000, 15:31:49.113, 1578576709113
4, 187500.00, 187500.00, 187500.00, -26462.59, -177089.88, 21526.81, -177378.83, -176535.44, 0.000, 0.000, 0.000, 15:31:49.113, 1578576709113
5, -187500.02, -169849.14, -187500.02, -187500.02, -187500.02, -187500.02, -175849.50, -187500.02, 0.000, 0.000, 0.000, 15:31:49.113, 1578576709113
6, 187500.00, 187500.00, 187500.00, -26460.22, -177072.53, 21528.19, -177366.31, -176522.06, 0.000, 0.000, 0.000, 15:31:49.113, 1578576709113
7, -187500.02, -169844.34, -187500.02, -187500.02, -187500.02, -187500.02, -175844.36, -187500.02, 0.000, 0.000, 0.000, 15:31:49.113, 1578576709113
8, 187500.00, 187500.00, 187500.00, -26461.67, -177055.78, 21519.48, -177361.44, -176537.14, 0.000, 0.000, 0.000, 15:31:49.113, 1578576709113
9, -187500.02, -169840.11, -187500.02, -187500.02, -187500.02, -187500.02, -175839.78, -187500.02, 0.000, 0.000, 0.000, 15:31:49.113, 1578576709113
10, 187500.00, 187500.00, 187500.00, -26457.87, -177042.97, 21522.79, -177337.44, -176525.25, 0.000, 0.000, 0.000, 15:31:49.113, 1578576709113
11, -187500.02, -169834.41, -187500.02, -187500.02, -187500.02, -187500.02, -175833.70, -187500.02, -0.014, -0.016, 0.974, 15:31:49.113, 1578576709113
12, 187500.00, 187500.00, 187500.00, -26455.01, -177045.45, 21526.21, -177341.97, -176488.97, 0.000, 0.000, 0.000, 15:31:49.114, 1578576709114
13, -187500.02, -169831.16, -187500.02, -187500.02, -187500.02, -187500.02, -175830.17, -187500.02, 0.000, 0.000, 0.000, 15:31:49.114, 1578576709114
14, 187500.00, 187500.00, 187500.00, -26451.34, -177115.89, 21530.43, -177449.22, -176495.73, 0.000, 0.000, 0.000, 15:31:49.114, 1578576709114
15, -187500.02, -169827.31, -187500.02, -187500.02, -187500.02, -187500.02, -175826.02, -187500.02, 0.000, 0.000, 0.000, 15:31:49.114, 1578576709114
16, 187500.00, 187500.00, 187500.00, -26461.92, -177038.28, 21515.34, -177357.22, -176472.92, 0.000, 0.000, 0.000, 15:31:49.114, 1578576709114
17, -187500.02, -169820.45, -187500.02, -187500.02, -187500.02, -187500.02, -175818.70, -187500.02, 0.000, 0.000, 0.000, 15:31:49.114, 1578576709114
18, 187500.00, 187500.00, 187500.00, -26454.94, -177042.73, 21516.06, -177337.39, -176511.25, 0.000, 0.000, 0.000, 15:31:49.114, 1578576709114
19, -187500.02, -169816.55, -187500.02, -187500.02, -187500.02, -187500.02, -175814.56, -187500.02, 0.000, 0.000, 0.000, 15:31:49.114, 1578576709114
20, 187500.00, 187500.00, 187500.00, -26461.27, -177042.95, 21513.20, -177321.25, -176494.08, -0.014, -0.018, 0.974, 15:31:49.114, 1578576709114
21, -187500.02, -169810.02, -187500.02, -187500.02, -187500.02, -187500.02, -175807.69, -187500.02, 0.000, 0.000, 0.000, 15:31:49.114, 1578576709114
22, 187500.00, 187500.00, 187500.00, -26458.92, -177014.25, 21519.57, -177305.67, -176457.67, 0.000, 0.000, 0.000, 15:31:49.114, 1578576709114
23, -187500.02, -169805.28, -187500.02, -187500.02, -187500.02, -187500.02, -175802.66, -187500.02, 0.000, 0.000, 0.000, 15:31:49.114, 1578576709114
24, 187500.00, 187500.00, 187500.00, -26453.78, -177055.27, 21520.50, -177392.95, -176479.91, 0.000, 0.000, 0.000, 15:31:49.114, 1578576709114
25, -187500.02, -169800.94, -187500.02, -187500.02, -187500.02, -187500.02, -175797.88, -187500.02, 0.000, 0.000, 0.000, 15:31:49.114, 1578576709114
26, 187500.00, 187500.00, 187500.00, -26454.50, -177030.14, 21516.59, -177338.44, -176475.53, 0.000, 0.000, 0.000, 15:31:49.114, 1578576709114
27, -187500.02, -169798.08, -187500.02, -187500.02, -187500.02, -187500.02, -175794.67, -187500.02, 0.000, 0.000, 0.000, 15:31:49.114, 1578576709114
28, 187500.00, 187500.00, 187500.00, -26454.18, -177042.53, 21512.41, -177355.20, -176513.83, 0.000, 0.000, 0.000, 15:31:49.114, 1578576709114
29, -187500.02, -169792.89, -187500.02, -187500.02, -187500.02, -187500.02, -175789.17, -187500.02, 0.000, 0.000, 0.000, 15:31:49.115, 1578576709115
30, 187500.00, 187500.00, 187500.00, -26458.14, -177051.48, 21508.05, -177308.33, -176473.83, -0.018, -0.018, 0.974, 15:31:49.115, 1578576709115
31, -187500.02, -169789.20, -187500.02, -187500.02, -187500.02, -187500.02, -175785.06, -187500.02, 0.000, 0.000, 0.000, 15:31:49.115, 1578576709115
32, 187500.00, 187500.00, 187500.00, -26459.97, -177046.80, 21505.08, -177286.14, -176442.63, 0.000, 0.000, 0.000, 15:31:49.115, 1578576709115
33, -187500.02, -169785.61, -187500.02, -187500.02, -187500.02, -187500.02, -175781.02, -187500.02, 0.000, 0.000, 0.000, 15:31:49.115, 1578576709115
34, 187500.00, 187500.00, 187500.00, -26455.32, -177051.17, 21507.94, -177309.78, -176470.59, 0.000, 0.000, 0.000, 15:31:49.115, 1578576709115
35, -187500.02, -169782.17, -187500.02, -187500.02, -187500.02, -187500.02, -175777.27, -187500.02, 0.000, 0.000, 0.000, 15:31:49.115, 1578576709115
36, 187500.00, 187500.00, 187500.00, -26458.27, -176996.58, 21510.56, -177241.50, -176468.73, 0.000, 0.000, 0.000, 15:31:49.115, 1578576709115
37, -187500.02, -169777.55, -187500.02, -187500.02, -187500.02, -187500.02, -175772.30, -187500.02, 0.000, 0.000, 0.000, 15:31:49.115, 1578576709115
38, 187500.00, 187500.00, 187500.00, -26453.56, -177026.95, 21517.31, -177257.27, -176435.36, 0.000, 0.000, 0.000, 15:31:49.115, 1578576709115
39, -187500.02, -169773.47, -187500.02, -187500.02, -187500.02, -187500.02, -175767.97, -187500.02, 0.000, 0.000, 0.000, 15:31:49.115, 1578576709115
40, 187500.00, 187500.00, 187500.00, -26457.29, -177007.03, 21514.96, -177262.67, -176443.53, -0.016, -0.016, 0.978, 15:31:49.115, 1578576709115
41, -187500.02, -169768.48, -187500.02, -187500.02, -187500.02, -187500.02, -175762.67, -187500.02, 0.000, 0.000, 0.000, 15:31:49.115, 1578576709115
42, 187500.00, 187500.00, 187500.00, -26458.92, -177021.41, 21513.62, -177289.88, -176452.11, 0.000, 0.000, 0.000, 15:31:49.115, 1578576709115
43, -187500.02, -169765.11, -187500.02, -187500.02, -187500.02, -187500.02, -175759.00, -187500.02, 0.000, 0.000, 0.000, 15:31:49.115, 1578576709115
44, 187500.00, 187500.00, 187500.00, -26458.25, -176999.41, 21508.46, -177281.31, -176446.75, 0.000, 0.000, 0.000, 15:31:49.115, 1578576709115
45, -187500.02, -169760.94, -187500.02, -187500.02, -187500.02, -187500.02, -175754.48, -187500.02, 0.000, 0.000, 0.000, 15:31:49.115, 1578576709115
46, 187500.00, 187500.00, 187500.00, -26458.83, -176994.00, 21508.32, -177270.81, -176427.39, 0.000, 0.000, 0.000, 15:31:49.115, 1578576709115
47, -187500.02, -169751.97, -187500.02, -187500.02, -187500.02, -187500.02, -175745.08, -187500.02, 0.000, 0.000, 0.000, 15:31:49.115, 1578576709115
