%OpenBCI Raw EEG Data
%Number of channels = 8
%Sample Rate = 250.0 Hz
%First Column = SampleIndex
%Last Column = Timestamp 
%Other Columns = EEG data in microvolts followed by Accel Data (in G) interleaved with Aux Data
0, 93649.85, 93629.13, 93743.52, -13904.35, -93750.01, 11816.56, -93750.01, -93750.01, -0.020, -0.012, 0.982, 15:29:54.089, 1578576594089
1, -93750.01, -93750.01, -93750.01, -93750.01, -93750.01, -93750.01, -93750.01, -93750.01, 0.000, 0.000, 0.000, 15:29:54.568, 1578576594568
2, 187500.00, 187500.00, 187500.00, -27789.43, -187500.02, 23580.80, -187500.02, -187500.02, 0.000, 0.000, 0.000, 15:29:54.568, 1578576594568
3, -187500.02, -187500.02, -187500.02, -187500.02, -187500.02, -187500.02, -187500.02, -187500.02, 0.000, 0.000, 0.000, 15:29:54.568, 1578576594568
4, 187500.00, 187500.00, 187500.00, -27784.67, -187500.02, 23585.85, -187500.02, -187500.02, 0.000, 0.000, 0.000, 15:29:54.568, 1578576594568
5, -187500.02, -187500.02, -187500.02, -187500.02, -187500.02, -187500.02, -187500.02, -187500.02, 0.000, 0.000, 0.000, 15:29:54.568, 1578576594568
6, 187500.00, 187500.00, 187500.00, -27779.55, -187500.02, 23592.33, -187500.02, -187500.02, 0.000, 0.000, 0.000, 15:29:54.568, 1578576594568
7, -187500.02, -187500.02, -187500.02, -187500.02, -187500.02, -187500.02, -187500.02, -187500.02, -0.016, -0.010, 0.980, 15:29:54.568, 1578576594568
8, 187500.00, 187500.00, 187500.00, -27775.86, -187500.02, 23596.56, -187500.02, -187500.02, 0.000, 0.000, 0.000, 15:29:54.568, 1578576594568
9, -187500.02, -187500.02, -187500.02, -187500.02, -187500.02, -187500.02, -187500.02, -187500.02, 0.000, 0.000, 0.000, 15:29:54.568, 1578576594568
10, 187500.00, 187500.00, 187500.00, -27782.75, -187500.02, 23589.70, -187500.02, -187500.02, 0.000, 0.000, 0.000, 15:29:54.568, 1578576594568
11, -187500.02, -187500.02, -187500.02, -187500.02, -187500.02, -187500.02, -187500.02, -187500.02, 0.000, 0.000, 0.000, 15:29:54.568, 1578576594568
12, 187500.00, 187500.00, 187500.00, -27782.19, -187500.02, 23586.81, -187500.02, -187500.02, 0.000, 0.000, 0.000, 15:29:54.568, 1578576594568
13, -187500.02, -187500.02, -187500.02, -187500.02, -187500.02, -187500.02, -187500.02, -187500.02, 0.000, 0.000, 0.000, 15:29:54.568, 1578576594568
14, 187500.00, 187500.00, 187500.00, -27776.89, -187500.02, 23595.24, -187500.02, -187500.02, 0.000, 0.000, 0.000, 15:29:54.568, 1578576594568
15, -187500.02, -187500.02, -187500.02, -187500.02, -187500.02, -187500.02, -187500.02, -187500.02, 0.000, 0.000, 0.000, 15:29:54.568, 1578576594568
16, 187500.00, 187500.00, 187500.00, -27777.63, -187500.02, 23596.51, -187500.02, -187500.02, 0.000, 0.000, 0.000, 15:29:54.568, 1578576594568
17, -187500.02, -187500.02, -187500.02, -187500.02, -187500.02, -187500.02, -187500.02, -187500.02, -0.022, -0.014, 0.982, 15:29:54.568, 1578576594568
18, 187500.00, 187500.00, 187500.00, -27780.58, -187500.02, 23589.63, -187500.02, -187500.02, 0.000, 0.000, 0.000, 15:29:54.568, 1578576594568
19, -187500.02, -187500.02, -187500.02, -187500.02, -187500.02, -187500.02, -187500.02, -187500.02, 0.000, 0.000, 0.000, 15:29:54.569, 1578576594569
20, 187500.00, 187500.00, 187500.00, -27786.46, -187500.02, 23592.87, -187500.02, -187500.02, 0.000, 0.000, 0.000, 15:29:54.569, 1578576594569
21, -187500.02, -187500.02, -187500.02, -187500.02, -187500.02, -187500.02, -187500.02, -187500.02, 0.000, 0.000, 0.000, 15:29:54.569, 1578576594569
22, 187500.00, 187500.00, 187500.00, -27789.88, -187500.02, 23591.84, -187500.02, -187500.02, 0.000, 0.000, 0.000, 15:29:54.569, 1578576594569
23, -187500.02, -187500.02, -187500.02, -187500.02, -187500.02, -187500.02, -187500.02, -187500.02, 0.000, 0.000, 0.000, 15:29:54.569, 1578576594569
24, 187500.00, 187500.00, 187500.00, -27787.20, -187500.02, 23587.91, -187500.02, -187500.02, 0.000, 0.000, 0.000, 15:29:54.569, 1578576594569
25, -187500.02, -187500.02, -187500.02, -187500.02, -187500.02, -187500.02, -187500.02, -187500.02, 0.000, 0.000, 0.000, 15:29:54.569, 1578576594569
26, 187500.00, 187500.00, 187500.00, -27780.31, -187500.02, 23587.15, -187500.02, -187500.02, 0.000, 0.000, 0.000, 15:29:54.569, 1578576594569
27, -187500.02, -187500.02, -187500.02, -187500.02, -187500.02, -187500.02, -187500.02, -187500.02, -0.026, -0.018, 0.986, 15:29:54.569, 1578576594569
28, 187500.00, 187500.00, 187500.00, -27781.12, -187500.02, 23589.07, -187500.02, -187500.02, 0.000, 0.000, 0.000, 15:29:54.569, 1578576594569
29, -187500.02, -187500.02, -187500.02, -187500.02, -187500.02, -187500.02, -187500.02, -187500.02, 0.000, 0.000, 0.000, 15:29:54.569, 1578576594569
30, 187500.00, 187500.00, 187500.00, -27774.72, -187500.02, 23598.88, -187500.02, -187500.02, 0.000, 0.000, 0.000, 15:29:54.569, 1578576594569
31, -187500.02, -187500.02, -187500.02, -187500.02, -187500.02, -187500.02, -187500.02, -187500.02, 0.000, 0.000, 0.000, 15:29:54.569, 1578576594569
32, 187500.00, 187500.00, 187500.00, -27778.50, -187500.02, 23595.44, -187500.02, -187500.02, 0.000, 0.000, 0.000, 15:29:54.569, 1578576594569
33, -187500.02, -187500.02, -187500.02, -187500.02, -187500.02, -187500.02, -187500.02, -187500.02, 0.000, 0.000, 0.000, 15:29:54.569, 1578576594569
34, 187500.00, 187500.00, 187500.00, -27780.49, -187500.02, 23576.60, -187500.02, -187500.02, 0.000, 0.000, 0.000, 15:29:54.569, 1578576594569
35, -187500.02, -187500.02, -187500.02, -187500.02, -187500.02, -187500.02, -187500.02, -187500.02, 0.000, 0.000, 0.000, 15:29:54.569, 1578576594569
36, 187500.00, 187500.00, 187500.00, -27772.87, -187500.02, 23576.89, -187500.02, -187500.02, 0.000, 0.000, 0.000, 15:29:54.569, 1578576594569
37, -187500.02, -187500.02, -187500.02, -187500.02, -187500.02, -187500.02, -187500.02, -187500.02, -0.022, -0.014, 0.982, 15:29:54.569, 1578576594569
38, 187500.00, 187500.00, 187500.00, -27776.31, -187500.02, 23577.89, -187500.02, -187500.02, 0.000, 0.000, 0.000, 15:29:54.569, 1578576594569
39, -187500.02, -187500.02, -187500.02, -187500.02, -187500.02, -187500.02, -187500.02, -187500.02, 0.000, 0.000, 0.000, 15:29:54.570, 1578576594570
40, 187500.00, 187500.00, 187500.00, -27777.03, -187500.02, 23580.38, -187500.02, -187500.02, 0.000, 0.000, 0.000, 15:29:54.570, 1578576594570
41, -187500.02, -187500.02, -187500.02, -187500.02, -187500.02, -187500.02, -187500.02, -187500.02, 0.000, 0.000, 0.000, 15:29:54.570, 1578576594570
42, 187500.00, 187500.00, 187500.00, -27770.95, -187500.02, 23582.70, -187500.02, -187500.02, 0.000, 0.000, 0.000, 15:29:54.570, 1578576594570
43, -187500.02, -187500.02, -187500.02, -187500.02, -187500.02, -187500.02, -187500.02, -187500.02, 0.000, 0.000, 0.000, 15:29:54.570, 1578576594570
44, 187500.00, 187500.00, 187500.00, -27773.61, -187500.02, 23587.30, -187500.02, -187500.02, 0.000, 0.000, 0.000, 15:29:54.570, 1578576594570
45, -187500.02, -187500.02, -187500.02, -187500.02, -187500.02, -187500.02, -187500.02, -187500.02, 0.000, 0.000, 0.000, 15:29:54.570, 1578576594570
46, 187500.00, 187500.00, 187500.00, -27771.77, -187500.02, 23592.22, -187500.02, -187500.02, -0.024, -0.012, 0.970, 15:29:54.570, 1578576594570
47, -187500.02, -187500.02, -187500.02, -187500.02, -187500.02, -187500.02, -187500.02, -187500.02, 0.000, 0.000, 0.000, 15:29:54.570, 1578576594570
48, 187500.00, 187500.00, 187500.00, -27776.62, -187500.02, 23583.82, -187500.02, -187500.02, 0.000, 0.000, 0.000, 15:29:54.570, 1578576594570
49, -187500.02, -187500.02, -187500.02, -187500.02, -187500.02, -187500.02, -187500.02, -187500.02, 0.000, 0.000, 0.000, 15:29:54.570, 1578576594570
50, 187500.00, 187500.00, 187500.00, -27765.47, -187500.02, 23586.88, -187500.02, -187500.02, 0.000, 0.000, 0.000, 15:29:54.570, 1578576594570
51, -187500.02, -187500.02, -187500.02, -187500.02, -187500.02, -187500.02, -187500.02, -187500.02, 0.000, 0.000, 0.000, 15:29:54.570, 1578576594570
52, 187500.00, 187500.00, 187500.00, -27770.21, -187500.02, 23586.23, -187500.02, -187500.02, 0.000, 0.000, 0.000, 15:29:54.570, 1578576594570
53, -187500.02, -187500.02, -187500.02, -187500.02, -187500.02, -187500.02, -187500.02, -187500.02, 0.000, 0.000, 0.000, 15:29:54.570, 1578576594570
54, 187500.00, 187500.00, 187500.00, -27771.33, -187500.02, 23585.52, -187500.02, -187500.02, 0.000, 0.000, 0.000, 15:29:54.570, 1578576594570
55, -187500.02, -187500.02, -187500.02, -187500.02, -187500.02, -187500.02, -187500.02, -187500.02, 0.000, 0.000, 0.000, 15:29:54.570, 1578576594570
56, 187500.00, 187500.00, 187500.00, -27769.02, -187500.02, 23593.99, -187500.02, -187500.02, -0.022, -0.016, 0.976, 15:29:54.570, 1578576594570
57, -187500.02, -187500.02, -187500.02, -187500.02, -187500.02, -187500.02, -187500.02, -187500.02, 0.000, 0.000, 0.000, 15:29:54.570, 1578576594570
58, 187500.00, 187500.00, 187500.00, -27773.96, -187500.02, 23588.91, -187500.02, -187500.02, 0.000, 0.000, 0.000, 15:29:54.570, 1578576594570
59, -187500.02, -187500.02, -187500.02, -187500.02, -187500.02, -187500.02, -187500.02, -187500.02, 0.000, 0.000, 0.000, 15:29:54.571, 1578576594571
60, 187500.00, 187500.00, 187500.00, -27777.61, -187500.02, 23587.24, -187500.02, -187500.02, 0.000, 0.000, 0.000, 15:29:54.571, 1578576594571
61, -187500.02, -187500.02, -187500.02, -187500.02, -187500.02, -187500.02, -187500.02, -187500.02, 0.000, 0.000, 0.000, 15:29:54.571, 1578576594571
62, 187500.00, 187500.00, 187500.00, -27780.45, -187500.02, 23582.63, -187500.02, -187500.02, 0.000, 0.000, 0.000, 15:29:54.571, 1578576594571
63, -187500.02, -187500.02, -187500.02, -187500.02, -187500.02, -187500.02, -187500.02, -187500.02, 0.000, 0.000, 0.000, 15:29:54.571, 1578576594571
64, 187500.00, 187500.00, 187500.00, -27769.40, -187500.02, 23593.92, -187500.02, -187500.02, 0.000, 0.000, 0.000, 15:29:54.571, 1578576594571
65, -187500.02, -187500.02, -187500.02, -187500.02, -187500.02, -187500.02, -187500.02, -187500.02, 0.000, 0.000, 0.000, 15:29:54.571, 1578576594571
66, 187500.00, 187500.00, 187500.00, -27762.81, -187500.02, 23603.35, -187500.02, -187500.02, -0.026, -0.018, 0.974, 15:29:54.571, 1578576594571
67, -187500.02, -187500.02, -187500.02, -187500.02, -187500.02, -187500.02, -187500.02, -187500.02, 0.000, 0.000, 0.000, 15:29:54.571, 1578576594571
68, 187500.00, 187500.00, 187500.00, -27772.91, -187500.02, 23595.15, -187500.02, -187500.02, 0.000, 0.000, 0.000, 15:29:54.571, 1578576594571
69, -187500.02, -187500.02, -187500.02, -187500.02, -187500.02, -187500.02, -187500.02, -187500.02, 0.000, 0.000, 0.000, 15:29:54.571, 1578576594571
70, 187500.00, 187500.00, 187500.00, -27776.62, -187500.02, 23596.18, -187500.02, -187500.02, 0.000, 0.000, 0.000, 15:29:54.571, 1578576594571
71, -187500.02, -187500.02, -187500.02, -187500.02, -187500.02, -187500.02, -187500.02, -187500.02, 0.000, 0.000, 0.000, 15:29:54.571, 1578576594571
72, 187500.00, 187500.00, 187500.00, -27767.59, -187500.02, 23604.60, -187500.02, -187500.02, 0.000, 0.000, 0.000, 15:29:54.571, 1578576594571
73, -187500.02, -187500.02, -187500.02, -187500.02, -187500.02, -187500.02, -187500.02, -187500.02, 0.000, 0.000, 0.000, 15:29:54.571, 1578576594571
74, 187500.00, 187500.00, 187500.00, -27770.46, -187500.02, 23600.31, -187500.02, -187500.02, 0.000, 0.000, 0.000, 15:29:54.571, 1578576594571
75, -187500.02, -187500.02, -187500.02, -187500.02, -187500.02, -187500.02, -187500.02, -187500.02, 0.000, 0.000, 0.000, 15:29:54.571, 1578576594571
76, 187500.00, 187500.00, 187500.00, -27774.97, -187500.02, 23595.44, -187500.02, -187500.02, -0.022, -0.010, 0.980, 15:29:54.571, 1578576594571
77, -187500.02, -187500.02, -187500.02, -187500.02, -187500.02, -187500.02, -187500.02, -187500.02, 0.000, 0.000, 0.000, 15:29:54.571, 1578576594571
78, 187500.00, 187500.00, 187500.00, -27771.66, -187500.02, 23600.51, -187500.02, -187500.02, 0.000, 0.000, 0.000, 15:29:54.571, 1578576594571
79, -187500.02, -187500.02, -187500.02, -187500.02, -187500.02, -187500.02, -187500.02, -187500.02, 0.000, 0.000, 0.000, 15:29:54.572, 1578576594572
80, 187500.00, 187500.00, 187500.00, -27771.93, -187500.02, 23597.18, -187500.02, -187500.02, 0.000, 0.000, 0.000, 15:29:54.572, 1578576594572
81, -187500.02, -187500.02, -187500.02, -187500.02, -187500.02, -187500.02, -187500.02, -187500.02, 0.000, 0.000, 0.000, 15:29:54.572, 1578576594572
82, 187500.00, 187500.00, 187500.00, -27774.90, -187500.02, 23595.04, -187500.02, -187500.02, 0.000, 0.000, 0.000, 15:29:54.572, 1578576594572
83, -187500.02, -187500.02, -187500.02, -187500.02, -187500.02, -187500.02, -187500.02, -187500.02, 0.000, 0.000, 0.000, 15:29:54.572, 1578576594572
84, 187500.00, 187500.00, 187500.00, -27771.66, -187500.02, 23596.06, -187500.02, -187500.02, 0.000, 0.000, 0.000, 15:29:54.572, 1578576594572
85, -187500.02, -187500.02, -187500.02, -187500.02, -187500.02, -187500.02, -187500.02, -187500.02, -0.020, -0.012, 0.982, 15:29:54.572, 1578576594572
86, 187500.00, 187500.00, 187500.00, -27767.77, -187500.02, 23599.69, -187500.02, -187500.02, 0.000, 0.000, 0.000, 15:29:54.572, 1578576594572
87, -187500.02, -187500.02, -187500.02, -187500.02, -187500.02, -187500.02, -187500.02, -187500.02, 0.000, 0.000, 0.000, 15:29:54.572, 1578576594572
88, 187500.00, 187500.00, 187500.00, -27779.51, -187500.02, 23591.10, -187500.02, -187500.02, 0.000, 0.000, 0.000, 15:29:54.572, 1578576594572
89, -187500.02, -187500.02, -187500.02, -187500.02, -187500.02, -187500.02, -187500.02, -187500.02, 0.000, 0.000, 0.000, 15:29:54.572, 1578576594572
90, 187500.00, 187500.00, 187500.00, -27766.48, -187500.02, 23600.67, -187500.02, -187500.02, 0.000, 0.000, 0.000, 15:29:54.572, 1578576594572
91, -187500.02, -187500.02, -187500.02, -187500.02, -187500.02, -187500.02, -187500.02, -187500.02, 0.000, 0.000, 0.000, 15:29:54.572, 1578576594572
92, 187500.00, 187500.00, 187500.00, -27768.11, -187500.02, 23597.50, -187500.02, -187500.02, 0.000, 0.000, 0.000, 15:29:54.572, 1578576594572
93, -187500.02, -187500.02, -187500.02, -187500.02, -187500.02, -187500.02, -187500.02, -187500.02, 0.000, 0.000, 0.000, 15:29:54.572, 1578576594572
94, 187500.00, 187500.00, 187500.00, -27769.54, -187500.02, 23595.71, -187500.02, -187500.02, 0.000, 0.000, 0.000, 15:29:54.572, 1578576594572
95, -187500.02, -187500.02, -187500.02, -187500.02, -187500.02, -187500.02, -187500.02, -187500.02, -0.026, -0.022, 0.980, 15:29:54.572, 1578576594572
96, 187500.00, 187500.00, 187500.00, -27770.95, -187500.02, 23597.90, -187500.02, -187500.02, 0.000, 0.000, 0.000, 15:29:54.572, 1578576594572
97, -187500.02, -187500.02, -187500.02, -187500.02, -187500.02, -187500.02, -187500.02, -187500.02, 0.000, 0.000, 0.000, 15:29:54.572, 1578576594572
98, 187500.00, 187500.00, 187500.00, -27769.07, -187500.02, 23594.10, -187500.02, -187500.02, 0.000, 0.000, 0.000, 15:29:54.572, 1578576594572
99, -187500.02, -187500.02, -187500.02, -187500.02, -187500.02, -187500.02, -187500.02, -187500.02, 0.000, 0.000, 0.000, 15:29:54.573, 1578576594573
100, 187500.00, 187500.00, 187500.00, -27771.55, -187500.02, 23590.68, -187500.02, -187500.02, 0.000, 0.000, 0.000, 15:29:54.573, 1578576594573
101, -187500.02, -187500.02, -187500.02, -187500.02, -187500.02, -187500.02, -187500.02, -187500.02, 0.000, 0.000, 0.000, 15:29:54.573, 1578576594573
102, 187500.00, 187500.00, 187500.00, -27767.10, -187500.02, 23595.22, -187500.02, -187500.02, 0.000, 0.000, 0.000, 15:29:54.573, 1578576594573
103, -187500.02, -187500.02, -187500.02, -187500.02, -187500.02, -187500.02, -187500.02, -187500.02, 0.000, 0.000, 0.000, 15:29:54.573, 1578576594573
104, 187500.00, 187500.00, 187500.00, -27775.39, -187500.02, 23589.34, -187500.02, -187500.02, 0.000, 0.000, 0.000, 15:29:54.573, 1578576594573
105, -187500.02, -187500.02, -187500.02, -187500.02, -187500.02, -187500.02, -187500.02, -187500.02, -0.022, -0.022, 0.976, 15:29:54.573, 1578576594573
106, 187500.00, 187500.00, 187500.00, -27767.73, -187500.02, 23600.60, -187500.02, -187500.02, 0.000, 0.000, 0.000, 15:29:54.573, 1578576594573
107, -187500.02, -187500.02, -187500.02, -187500.02, -187500.02, -187500.02, -187500.02, -187500.02, 0.000, 0.000, 0.000, 15:29:54.573, 1578576594573
108, 187500.00, 187500.00, 187500.00, -27776.80, -187500.02, 23585.85, -187500.02, -187500.02, 0.000, 0.000, 0.000, 15:29:54.573, 1578576594573
109, -187500.02, -187500.02, -187500.02, -187500.02, -187500.02, -187500.02, -187500.02, -187500.02, 0.000, 0.000, 0.000, 15:29:54.573, 1578576594573
110, 187500.00, 187500.00, 187500.00, -27764.17, -187500.02, 23599.13, -187500.02, -187500.02, 0.000, 0.000, 0.000, 15:29:54.573, 1578576594573
111, -187500.02, -187500.02, -187500.02, -187500.02, -187500.02, -187500.02, -187500.02, -187500.02, 0.000, 0.000, 0.000, 15:29:54.573, 1578576594573
112, 187500.00, 187500.00, 187500.00, -27770.95, -187500.02, 23592.67, -187500.02, -187500.02, 0.000, 0.000, 0.000, 15:29:54.573, 1578576594573
113, -187500.02, -187500.02, -187500.02, -187500.02, -187500.02, -187500.02, -187500.02, -187500.02, 0.000, 0.000, 0.000, 15:29:54.573, 1578576594573
114, 187500.00, 187500.00, 187500.00, -27767.41, -187500.02, 23589.36, -187500.02, -187500.02, 0.000, 0.000, 0.000, 15:29:54.573, 1578576594573
115, -187500.02, -187500.02, -187500.02, -187500.02, -187500.02, -187500.02, -187500.02, -187500.02, -0.016, -0.016, 0.974, 15:29:54.573, 1578576594573
116, 187500.00, 187500.00, 187500.00, -27768.49, -187500.02, 23588.24, -187500.02, -187500.02, 0.000, 0.000, 0.000, 15:29:54.573, 1578576594573
117, -187500.02, -187500.02, -187500.02, -187500.02, -187500.02, -187500.02, -187500.02, -187500.02, 0.000, 0.000, 0.000, 15:29:54.573, 1578576594573
118, 187500.00, 187500.00, 187500.00, -27773.74, -187500.02, 23583.93, -187500.02, -187500.02, 0.000, 0.000, 0.000, 15:29:54.574, 1578576594574
119, -187500.02, -187500.02, -187500.02, -187500.02, -187500.02, -187500.02, -187500.02, -187500.02, 0.000, 0.000, 0.000, 15:29:54.574, 1578576594574
120, 187500.00, 187500.00, 187500.00, -27779.39, -187500.02, 23581.98, -187500.02, -187500.02, 0.000, 0.000, 0.000, 15:29:54.574, 1578576594574
121, -187500.02, -187500.02, -187500.02, -187500.02, -187500.02, -187500.02, -187500.02, -187500.02, 0.000, 0.000, 0.000, 15:29:55.048, 1578576595048
122, 187500.00, 187500.00, 187500.00, -27772.64, -187500.02, 23586.81, -187500.02, -187500.02, 0.000, 0.000, 0.000, 15:29:55.048, 1578576595048
123, -187500.02, -187500.02, -187500.02, -187500.02, -187500.02, -187500.02, -187500.02, -187500.02, 0.000, 0.000, 0.000, 15:29:55.048, 1578576595048
124, 187500.00, 187500.00, 187500.00, -27772.13, -187500.02, 23587.88, -187500.02, -187500.02, 0.000, 0.000, 0.000, 15:29:55.048, 1578576595048
125, -187500.02, -187500.02, -187500.02, -187500.02, -187500.02, -187500.02, -187500.02, -187500.02, -0.018, -0.016, 0.974, 15:29:55.048, 1578576595048
126, 187500.00, 187500.00, 187500.00, -27776.45, -187500.02, 23585.07, -187500.02, -187500.02, 0.000, 0.000, 0.000, 15:29:55.049, 1578576595049
127, -187500.02, -187500.02, -187500.02, -187500.02, -187500.02, -187500.02, -187500.02, -187500.02, 0.000, 0.000, 0.000, 15:29:55.049, 1578576595049
128, 187500.00, 187500.00, 187500.00, -27766.54, -187500.02, 23594.52, -187500.02, -187500.02, 0.000, 0.000, 0.000, 15:29:55.049, 1578576595049
129, -187500.02, -187500.02, -187500.02, -187500.02, -187500.02, -187500.02, -187500.02, -187500.02, 0.000, 0.000, 0.000, 15:29:55.049, 1578576595049
130, 187500.00, 187500.00, 187500.00, -27764.35, -187500.02, 23592.96, -187500.02, -187500.02, 0.000, 0.000, 0.000, 15:29:55.049, 1578576595049
131, -187500.02, -187500.02, -187500.02, -187500.02, -187500.02, -187500.02, -187500.02, -187500.02, 0.000, 0.000, 0.000, 15:29:55.049, 1578576595049
132, 187500.00, 187500.00, 187500.00, -27760.20, -187500.02, 23594.66, -187500.02, -187500.02, 0.000, 0.000, 0.000, 15:29:55.049, 1578576595049
133, -187500.02, -187500.02, -187500.02, -187500.02, -187500.02, -187500.02, -187500.02, -187500.02, 0.000, 0.000, 0.000, 15:29:55.049, 1578576595049
134, 187500.00, 187500.00, 187500.00, -27769.31, -187500.02, 23585.18, -187500.02, -187500.02, -0.014, -0.014, 0.980, 15:29:55.049, 1578576595049
135, -187500.02, -187500.02, -187500.02, -187500.02, -187500.02, -187500.02, -187500.02, -187500.02, 0.000, 0.000, 0.000, 15:29:55.049, 1578576595049
136, 187500.00, 187500.00, 187500.00, -27764.26, -187500.02, 23593.96, -187500.02, -187500.02, 0.000, 0.000, 0.000, 15:29:55.049, 1578576595049
137, -187500.02, -187500.02, -187500.02, -187500.02, -187500.02, -187500.02, -187500.02, -187500.02, 0.000, 0.000, 0.000, 15:29:55.049, 1578576595049
138, 187500.00, 187500.00, 187500.00, -27764.44, -187500.02, 23593.23, -187500.02, -187500.02, 0.000, 0.000, 0.000, 15:29:55.049, 1578576595049
139, -187500.02, -187500.02, -187500.02, -187500.02, -187500.02, -187500.02, -187500.02, -187500.02, 0.000, 0.000, 0.000, 15:29:55.049, 1578576595049
140, 187500.00, 187500.00, 187500.00, -27769.11, -187500.02, 23592.91, -187500.02, -187500.02, 0.000, 0.000, 0.000, 15:29:55.049, 1578576595049
141, -187500.02, -187500.02, -187500.02, -187500.02, -187500.02, -187500.02, -187500.02, -187500.02, 0.000, 0.000, 0.000, 15:29:55.049, 1578576595049
142, 187500.00, 187500.00, 187500.00, -27770.77, -187500.02, 23587.33, -187500.02, -187500.02, 0.000, 0.000, 0.000, 15:29:55.049, 1578576595049
143, -187500.02, -187500.02, -187500.02, -187500.02, -187500.02, -187500.02, -187500.02, -187500.02, 0.000, 0.000, 0.000, 15:29:55.049, 1578576595049
144, 187500.00, 187500.00, 187500.00, -27764.02, -187500.02, 23594.43, -187500.02, -187500.02, -0.014, -0.014, 0.978, 15:29:55.049, 1578576595049
145, -187500.02, -187500.02, -187500.02, -187500.02, -187500.02, -187500.02, -187500.02, -187500.02, 0.000, 0.000, 0.000, 15:29:55.049, 1578576595049
146, 187500.00, 187500.00, 187500.00, -27762.38, -187500.02, 23600.09, -187500.02, -187500.02, 0.000, 0.000, 0.000, 15:29:55.049, 1578576595049
147, -187500.02, -187500.02, -187500.02, -187500.02, -187500.02, -187500.02, -187500.02, -187500.02, 0.000, 0.000, 0.000, 15:29:55.050, 1578576595050
148, 187500.00, 187500.00, 187500.00, -27770.90, -187500.02, 23590.16, -187500.02, -187500.02, 0.000, 0.000, 0.000, 15:29:55.050, 1578576595050
149, -187500.02, -187500.02, -187500.02, -187500.02, -187500.02, -187500.02, -187500.02, -187500.02, 0.000, 0.000, 0.000, 15:29:55.050, 1578576595050
150, 187500.00, 187500.00, 187500.00, -27768.26, -187500.02, 23590.37, -187500.02, -187500.02, 0.000, 0.000, 0.000, 15:29:55.050, 1578576595050
151, -187500.02, -187500.02, -187500.02, -187500.02, -187500.02, -187500.02, -187500.02, -187500.02, 0.000, 0.000, 0.000, 15:29:55.050, 1578576595050
152, 187500.00, 187500.00, 187500.00, -27765.11, -187500.02, 23590.88, -187500.02, -187500.02, 0.000, 0.000, 0.000, 15:29:55.050, 1578576595050
153, -187500.02, -187500.02, -187500.02, -187500.02, -187500.02, -187500.02, -187500.02, -187500.02, 0.000, 0.000, 0.000, 15:29:55.050, 1578576595050
154, 187500.00, 187500.00, 187500.00, -27759.32, -187500.02, 23598.57, -187500.02, -187500.02, -0.014, -0.014, 0.978, 15:29:55.050, 1578576595050
155, -187500.02, -187500.02, -187500.02, -187500.02, -187500.02, -187500.02, -187500.02, -187500.02, 0.000, 0.000, 0.000, 15:29:55.050, 1578576595050
156, 187500.00, 187500.00, 187500.00, -27760.06, -187500.02, 23595.55, -187500.02, -187500.02, 0.000, 0.000, 0.000, 15:29:55.050, 1578576595050
157, -187500.02, -187500.02, -187500.02, -187500.02, -187500.02, -187500.02, -187500.02, -187500.02, 0.000, 0.000, 0.000, 15:29:55.050, 1578576595050
158, 187500.00, 187500.00, 187500.00, -27761.25, -187500.02, 23594.10, -187500.02, -187500.02, 0.000, 0.000, 0.000, 15:29:55.050, 1578576595050
159, -187500.02, -187500.02, -187500.02, -187500.02, -187500.02, -187500.02, -187500.02, -187500.02, 0.000, 0.000, 0.000, 15:29:55.050, 1578576595050
160, 187500.00, 187500.00, 187500.00, -27766.21, -187500.02, 23587.88, -187500.02, -187500.02, 0.000, 0.000, 0.000, 15:29:55.050, 1578576595050
161, -187500.02, -187500.02, -187500.02, -187500.02, -187500.02, -187500.02, -187500.02, -187500.02, 0.000, 0.000, 0.000, 15:29:55.050, 1578576595050
162, 187500.00, 187500.00, 187500.00, -27761.16, -187500.02, 23596.98, -187500.02, -187500.02, 0.000, 0.000, 0.000, 15:29:55.051, 1578576595051
163, -187500.02, -187500.02, -187500.02, -187500.02, -187500.02, -187500.02, -187500.02, -187500.02, 0.000, 0.000, 0.000, 15:29:55.051, 1578576595051
164, 187500.00, 187500.00, 187500.00, -27765.52, -187500.02, 23593.34, -187500.02, -187500.02, -0.012, -0.018, 0.982, 15:29:55.051, 1578576595051
165, -187500.02, -187500.02, -187500.02, -187500.02, -187500.02, -187500.02, -187500.02, -187500.02, 0.000, 0.000, 0.000, 15:29:55.053, 1578576595053
166, 187500.00, 187500.00, 187500.00, -27762.70, -187500.02, 23598.55, -187500.02, -187500.02, 0.000, 0.000, 0.000, 15:29:55.053, 1578576595053
167, -187500.02, -187500.02, -187500.02, -187500.02, -187500.02, -187500.02, -187500.02, -187500.02, 0.000, 0.000, 0.000, 15:29:55.053, 1578576595053
168, 187500.00, 187500.00, 187500.00, -27763.39, -187500.02, 23595.17, -187500.02, -187500.02, 0.000, 0.000, 0.000, 15:29:55.053, 1578576595053
169, -187500.02, -187500.02, -187500.02, -187500.02, -187500.02, -187500.02, -187500.02, -187500.02, 0.000, 0.000, 0.000, 15:29:55.053, 1578576595053
170, 187500.00, 187500.00, 187500.00, -27757.96, -187500.02, 23602.23, -187500.02, -187500.02, 0.000, 0.000, 0.000, 15:29:55.053, 1578576595053
171, -187500.02, -187500.02, -187500.02, -187500.02, -187500.02, -187500.02, -187500.02, -187500.02, 0.000, 0.000, 0.000, 15:29:55.053, 1578576595053
172, 187500.00, 187500.00, 187500.00, -27764.42, -187500.02, 23591.80, -187500.02, -187500.02, 0.000, 0.000, 0.000, 15:29:55.054, 1578576595054
173, -187500.02, -187500.02, -187500.02, -187500.02, -187500.02, -187500.02, -187500.02, -187500.02, -0.018, -0.016, 0.982, 15:29:55.054, 1578576595054
174, 187500.00, 187500.00, 187500.00, -27757.94, -187500.02, 23596.89, -187500.02, -187500.02, 0.000, 0.000, 0.000, 15:29:55.054, 1578576595054
175, -187500.02, -187500.02, -187500.02, -187500.02, -187500.02, -187500.02, -187500.02, -187500.02, 0.000, 0.000, 0.000, 15:29:55.054, 1578576595054
176, 187500.00, 187500.00, 187500.00, -27761.49, -187500.02, 23594.37, -187500.02, -187500.02, 0.000, 0.000, 0.000, 15:29:55.054, 1578576595054
177, -187500.02, -187500.02, -187500.02, -187500.02, -187500.02, -187500.02, -187500.02, -187500.02, 0.000, 0.000, 0.000, 15:29:55.054, 1578576595054
178, 187500.00, 187500.00, 187500.00, -27758.03, -187500.02, 23596.13, -187500.02, -187500.02, 0.000, 0.000, 0.000, 15:29:55.054, 1578576595054
179, -187500.02, -187500.02, -187500.02, -187500.02, -187500.02, -187500.02, -187500.02, -187500.02, 0.000, 0.000, 0.000, 15:29:55.054, 1578576595054
180, 187500.00, 187500.00, 187500.00, -27766.56, -187500.02, 23594.46, -187500.02, -187500.02, 0.000, 0.000, 0.000, 15:29:55.054, 1578576595054
181, -187500.02, -187500.02, -187500.02, -187500.02, -187500.02, -187500.02, -187500.02, -187500.02, 0.000, 0.000, 0.000, 15:29:55.054, 1578576595054
182, 187500.00, 187500.00, 187500.00, -27757.94, -187500.02, 23604.31, -187500.02, -187500.02, 0.000, 0.000, 0.000, 15:29:55.054, 1578576595054
183, -187500.02, -187500.02, -187500.02, -187500.02, -187500.02, -187500.02, -187500.02, -187500.02, -0.012, -0.014, 0.980, 15:29:55.054, 1578576595054
184, 187500.00, 187500.00, 187500.00, -27753.85, -187500.02, 23608.34, -187500.02, -187500.02, 0.000, 0.000, 0.000, 15:29:55.054, 1578576595054
185, -187500.02, -187500.02, -187500.02, -187500.02, -187500.02, -187500.02, -187500.02, -187500.02, 0.000, 0.000, 0.000, 15:29:55.054, 1578576595054
186, 187500.00, 187500.00, 187500.00, -27756.15, -187500.02, 23611.44, -187500.02, -187500.02, 0.000, 0.000, 0.000, 15:29:55.054, 1578576595054
187, -187500.02, -187500.02, -187500.02, -187500.02, -187500.02, -187500.02, -187500.02, -187500.02, 0.000, 0.000, 0.000, 15:29:55.054, 1578576595054
188, 187500.00, 187500.00, 187500.00, -27758.61, -187500.02, 23608.96, -187500.02, -187500.02, 0.000, 0.000, 0.000, 15:29:55.054, 1578576595054
189, -187500.02, -187500.02, -187500.02, -187500.02, -187500.02, -187500.02, -187500.02, -187500.02, 0.000, 0.000, 0.000, 15:29:55.054, 1578576595054
190, 187500.00, 187500.00, 187500.00, -27754.70, -187500.02, 23610.35, -187500.02, -187500.02, 0.000, 0.000, 0.000, 15:29:55.054, 1578576595054
191, -187500.02, -187500.02, -187500.02, -187500.02, -187500.02, -187500.02, -187500.02, -187500.02, 0.000, 0.000, 0.000, 15:29:55.055, 1578576595055
192, 187500.00, 187500.00, 187500.00, -27751.23, -187500.02, 23612.49, -187500.02, -187500.02, 0.000, 0.000, 0.000, 15:29:55.055, 1578576595055
193, -187500.02, -187500.02, -187500.02, -187500.02, -187500.02, -187500.02, -187500.02, -187500.02, -0.014, -0.014, 0.974, 15:29:55.055, 1578576595055
194, 187500.00, 187500.00, 187500.00, -27761.92, -187500.02, 23608.43, -187500.02, -187500.02, 0.000, 0.000, 0.000, 15:29:55.055, 1578576595055
195, -187500.02, -187500.02, -187500.02, -187500.02, -187500.02, -187500.02, -187500.02, -187500.02, 0.000, 0.000, 0.000, 15:29:55.055, 1578576595055
196, 187500.00, 187500.00, 187500.00, -27753.91, -187500.02, 23610.08, -187500.02, -187500.02, 0.000, 0.000, 0.000, 15:29:55.055, 1578576595055
197, -187500.02, -187500.02, -187500.02, -187500.02, -187500.02, -187500.02, -187500.02, -187500.02, 0.000, 0.000, 0.000, 15:29:55.055, 1578576595055
198, 187500.00, 187500.00, 187500.00, -27747.41, -187500.02, 23612.40, -187500.02, -187500.02, 0.000, 0.000, 0.000, 15:29:55.055, 1578576595055
199, -187500.02, -187500.02, -187500.02, -187500.02, -187500.02, -187500.02, -187500.02, -187500.02, 0.000, 0.000, 0.000, 15:29:55.055, 1578576595055
200, 187500.00, 187500.00, 187500.00, -27762.79, -187500.02, 23565.53, -187500.02, -187500.02, 0.000, 0.000, 0.000, 15:29:55.055, 1578576595055
201, -187500.02, -187500.02, -187500.02, -187500.02, -187500.02, -187500.02, -187500.02, -187500.02, 0.000, 0.000, 0.000, 15:29:55.055, 1578576595055
202, 187500.00, 187500.00, 187500.00, -27757.58, -187500.02, 23543.31, -187500.02, -187500.02, 0.000, 0.000, 0.000, 15:29:55.055, 1578576595055
203, -187500.02, -187500.02, -187500.02, -187500.02, -187500.02, -187500.02, -187500.02, -187500.02, -0.018, -0.014, 0.978, 15:29:55.055, 1578576595055
204, 187500.00, 187500.00, 187500.00, -27772.02, -187500.02, 23506.77, -187500.02, -187500.02, 0.000, 0.000, 0.000, 15:29:55.055, 1578576595055
205, -187500.02, -187500.02, -187500.02, -187500.02, -187500.02, -187500.02, -187500.02, -187500.02, 0.000, 0.000, 0.000, 15:29:55.055, 1578576595055
206, 187500.00, 187500.00, 187500.00, -27765.25, -187500.02, 23496.82, -187500.02, -187500.02, 0.000, 0.000, 0.000, 15:29:55.055, 1578576595055
207, -187500.02, -187500.02, -187500.02, -187500.02, -187500.02, -187500.02, -187500.02, -187500.02, 0.000, 0.000, 0.000, 15:29:55.055, 1578576595055
208, 187500.00, 187500.00, 187500.00, -27763.01, -187500.02, 23490.47, -187500.02, -187500.02, 0.000, 0.000, 0.000, 15:29:55.056, 1578576595056
209, -187500.02, -187500.02, -187500.02, -187500.02, -187500.02, -187500.02, -187500.02, -187500.02, 0.000, 0.000, 0.000, 15:29:55.056, 1578576595056
210, 187500.00, 187500.00, 187500.00, -27765.38, -187500.02, 23492.71, -187500.02, -187500.02, 0.000, 0.000, 0.000, 15:29:55.056, 1578576595056
211, -187500.02, -187500.02, -187500.02, -187500.02, -187500.02, -187500.02, -187500.02, -187500.02, 0.000, 0.000, 0.000, 15:29:55.056, 1578576595056
212, 187500.00, 187500.00, 187500.00, -27770.41, -187500.02, 23498.86, -187500.02, -187500.02, -0.012, -0.014, 0.976, 15:29:55.056, 1578576595056
213, -187500.02, -187500.02, -187500.02, -187500.02, -187500.02, -187500.02, -187500.02, -187500.02, 0.000, 0.000, 0.000, 15:29:55.056, 1578576595056
214, 187500.00, 187500.00, 187500.00, -27772.11, -187500.02, 23505.99, -187500.02, -187500.02, 0.000, 0.000, 0.000, 15:29:55.056, 1578576595056
215, -187500.02, -187500.02, -187500.02, -187500.02, -187500.02, -187500.02, -187500.02, -187500.02, 0.000, 0.000, 0.000, 15:29:55.056, 1578576595056
216, 187500.00, 187500.00, 187500.00, -27772.09, -187500.02, 23509.29, -187500.02, -187500.02, 0.000, 0.000, 0.000, 15:29:55.056, 1578576595056
217, -187500.02, -187500.02, -187500.02, -187500.02, -187500.02, -187500.02, -187500.02, -187500.02, 0.000, 0.000, 0.000, 15:29:55.056, 1578576595056
218, 187500.00, 187500.00, 187500.00, -27775.28, -187500.02, 23505.14, -187500.02, -187500.02, 0.000, 0.000, 0.000, 15:29:55.056, 1578576595056
219, -187500.02, -187500.02, -187500.02, -187500.02, -187500.02, -187500.02, -187500.02, -187500.02, 0.000, 0.000, 0.000, 15:29:55.056, 1578576595056
220, 187500.00, 187500.00, 187500.00, -27760.06, -187500.02, 23521.63, -187500.02, -187500.02, 0.000, 0.000, 0.000, 15:29:55.056, 1578576595056
221, -187500.02, -187500.02, -187500.02, -187500.02, -187500.02, -187500.02, -187500.02, -187500.02, 0.000, 0.000, 0.000, 15:29:55.056, 1578576595056
222, 187500.00, 187500.00, 187500.00, -27769.54, -187500.02, 23513.27, -187500.02, -187500.02, -0.024, -0.016, 0.978, 15:29:55.056, 1578576595056
223, -187500.02, -187500.02, -187500.02, -187500.02, -187500.02, -187500.02, -187500.02, -187500.02, 0.000, 0.000, 0.000, 15:29:55.056, 1578576595056
224, 187500.00, 187500.00, 187500.00, -27763.57, -187500.02, 23519.18, -187500.02, -187500.02, 0.000, 0.000, 0.000, 15:29:55.056, 1578576595056
225, -187500.02, -187500.02, -187500.02, -187500.02, -187500.02, -187500.02, -187500.02, -187500.02, 0.000, 0.000, 0.000, 15:29:55.056, 1578576595056
226, 187500.00, 187500.00, 187500.00, -27756.57, -187500.02, 23519.15, -187500.02, -187500.02, 0.000, 0.000, 0.000, 15:29:55.057, 1578576595057
227, -187500.02, -187500.02, -187500.02, -187500.02, -187500.02, -187500.02, -187500.02, -187500.02, 0.000, 0.000, 0.000, 15:29:55.057, 1578576595057
228, 187500.00, 187500.00, 187500.00, -27764.44, -187500.02, 23517.43, -187500.02, -187500.02, 0.000, 0.000, 0.000, 15:29:55.057, 1578576595057
229, -187500.02, -187500.02, -187500.02, -187500.02, -187500.02, -187500.02, -187500.02, -187500.02, 0.000, 0.000, 0.000, 15:29:55.057, 1578576595057
230, 187500.00, 187500.00, 187500.00, -27759.95, -187500.02, 23525.05, -187500.02, -187500.02, 0.000, 0.000, 0.000, 15:29:55.057, 1578576595057
231, -187500.02, -187500.02, -187500.02, -187500.02, -187500.02, -187500.02, -187500.02, -187500.02, 0.000, 0.000, 0.000, 15:29:55.057, 1578576595057
232, 187500.00, 187500.00, 187500.00, -27763.32, -187500.02, 23516.96, -187500.02, -187500.02, -0.016, -0.018, 0.976, 15:29:55.057, 1578576595057
233, -187500.02, -187500.02, -187500.02, -187500.02, -187500.02, -187500.02, -187500.02, -187500.02, 0.000, 0.000, 0.000, 15:29:55.057, 1578576595057
234, 187500.00, 187500.00, 187500.00, -27759.73, -187500.02, 23518.26, -187500.02, -187500.02, 0.000, 0.000, 0.000, 15:29:55.057, 1578576595057
235, -187500.02, -187500.02, -187500.02, -187500.02, -187500.02, -187500.02, -187500.02, -187500.02, 0.000, 0.000, 0.000, 15:29:55.057, 1578576595057
236, 187500.00, 187500.00, 187500.00, -27766.54, -187500.02, 23520.92, -187500.02, -187500.02, 0.000, 0.000, 0.000, 15:29:55.057, 1578576595057
237, -187500.02, -187500.02, -187500.02, -187500.02, -187500.02, -187500.02, -187500.02, -187500.02, 0.000, 0.000, 0.000, 15:29:55.057, 1578576595057
238, 187500.00, 187500.00, 187500.00, -27763.30, -187500.02, 23518.77, -187500.02, -187500.02, 0.000, 0.000, 0.000, 15:29:55.057, 1578576595057
239, -187500.02, -187500.02, -187500.02, -187500.02, -187500.02, -187500.02, -187500.02, -187500.02, 0.000, 0.000, 0.000, 15:29:55.057, 1578576595057
240, 187500.00, 187500.00, 187500.00, -27747.46, -187500.02, 23532.43, -187500.02, -187500.02, 0.000, 0.000, 0.000, 15:29:55.057, 1578576595057
241, -187500.02, -187500.02, -187500.02, -187500.02, -187500.02, -187500.02, -187500.02, -187500.02, 0.000, 0.000, 0.000, 15:29:55.530, 1578576595530
242, 187500.00, 187500.00, 187500.00, -27753.51, -187500.02, 23529.39, -187500.02, -187500.02, -0.020, -0.018, 0.976, 15:29:55.530, 1578576595530
243, -187500.02, -187500.02, -187500.02, -187500.02, -187500.02, -187500.02, -187500.02, -187500.02, 0.000, 0.000, 0.000, 15:29:55.530, 1578576595530
244, 187500.00, 187500.00, 187500.00, -27759.14, -187500.02, 23530.96, -187500.02, -187500.02, 0.000, 0.000, 0.000, 15:29:55.530, 1578576595530
245, -187500.02, -187500.02, -187500.02, -187500.02, -187500.02, -187500.02, -187500.02, -187500.02, 0.000, 0.000, 0.000, 15:29:55.530, 1578576595530
246, 187500.00, 187500.00, 187500.00, -27755.21, -187500.02, 23537.41, -187500.02, -187500.02, 0.000, 0.000, 0.000, 15:29:55.530, 1578576595530
247, -187500.02, -187500.02, -187500.02, -187500.02, -187500.02, -187500.02, -187500.02, -187500.02, 0.000, 0.000, 0.000, 15:29:55.530, 1578576595530
248, 187500.00, 187500.00, 187500.00, -27755.95, -187500.02, 23532.99, -187500.02, -187500.02, 0.000, 0.000, 0.000, 15:29:55.530, 1578576595530
249, -187500.02, -187500.02, -187500.02, -187500.02, -187500.02, -187500.02, -187500.02, -187500.02, 0.000, 0.000, 0.000, 15:29:55.530, 1578576595530
250, 187500.00, 187500.00, 187500.00, -27759.21, -187500.02, 23533.84, -187500.02, -187500.02, 0.000, 0.000, 0.000, 15:29:55.530, 1578576595530
251, -187500.02, -187500.02, -187500.02, -187500.02, -187500.02, -187500.02, -187500.02, -187500.02, -0.020, -0.016, 0.976, 15:29:55.530, 1578576595530
252, 187500.00, 187500.00, 187500.00, -27753.96, -187500.02, 23540.92, -187500.02, -187500.02, 0.000, 0.000, 0.000, 15:29:55.530, 1578576595530
253, -187500.02, -187500.02, -187500.02, -187500.02, -187500.02, -187500.02, -187500.02, -187500.02, 0.000, 0.000, 0.000, 15:29:55.530, 1578576595530
254, 187500.00, 187500.00, 187500.00, -27768.35, -187500.02, 23530.80, -187500.02, -187500.02, 0.000, 0.000, 0.000, 15:29:55.530, 1578576595530
255, -187500.02, -187500.02, -187500.02, -187500.02, -187500.02, -187500.02, -187500.02, -187500.02, 0.000, 0.000, 0.000, 15:29:55.530, 1578576595530
0, 187500.00, 187500.00, 187500.00, -27754.43, -187500.02, 23550.15, -187500.02, -187500.02, 0.000, 0.000, 0.000, 15:29:55.530, 1578576595530
1, -187500.02, -187500.02, -187500.02, -187500.02, -187500.02, -187500.02, -187500.02, -187500.02, 0.000, 0.000, 0.000, 15:29:55.531, 1578576595531
2, 187500.00, 187500.00, 187500.00, -27752.06, -187500.02, 23554.24, -187500.02, -187500.02, 0.000, 0.000, 0.000, 15:29:55.531, 1578576595531
3, -187500.02, -187500.02, -187500.02, -187500.02, -187500.02, -187500.02, -187500.02, -187500.02, 0.000, 0.000, 0.000, 15:29:55.531, 1578576595531
4, 187500.00, 187500.00, 187500.00, -27763.35, -187500.02, 23547.34, -187500.02, -187500.02, 0.000, 0.000, 0.000, 15:29:55.531, 1578576595531
5, -187500.02, -187500.02, -187500.02, -187500.02, -187500.02, -187500.02, -187500.02, -187500.02, -0.012, -0.022, 0.964, 15:29:55.531, 1578576595531
6, 187500.00, 187500.00, 187500.00, -27762.34, -187500.02, 23550.22, -187500.02, -187500.02, 0.000, 0.000, 0.000, 15:29:55.531, 1578576595531
7, -187500.02, -187500.02, -187500.02, -187500.02, -187500.02, -187500.02, -187500.02, -187500.02, 0.000, 0.000, 0.000, 15:29:55.531, 1578576595531
8, 187500.00, 187500.00, 187500.00, -27763.77, -187500.02, 23548.63, -187500.02, -187500.02, 0.000, 0.000, 0.000, 15:29:55.531, 1578576595531
9, -187500.02, -187500.02, -187500.02, -187500.02, -187500.02, -187500.02, -187500.02, -187500.02, 0.000, 0.000, 0.000, 15:29:55.531, 1578576595531
10, 187500.00, 187500.00, 187500.00, -27757.47, -187500.02, 23552.28, -187500.02, -187500.02, 0.000, 0.000, 0.000, 15:29:55.531, 1578576595531
11, -187500.02, -187500.02, -187500.02, -187500.02, -187500.02, -187500.02, -187500.02, -187500.02, 0.000, 0.000, 0.000, 15:29:55.531, 1578576595531
12, 187500.00, 187500.00, 187500.00, -27761.25, -187500.02, 23548.77, -187500.02, -187500.02, 0.000, 0.000, 0.000, 15:29:55.531, 1578576595531
13, -187500.02, -187500.02, -187500.02, -187500.02, -187500.02, -187500.02, -187500.02, -187500.02, 0.000, 0.000, 0.000, 15:29:55.531, 1578576595531
14, 187500.00, 187500.00, 187500.00, -27759.90, -187500.02, 23553.13, -187500.02, -187500.02, 0.000, 0.000, 0.000, 15:29:55.531, 1578576595531
15, -187500.02, -187500.02, -187500.02, -187500.02, -187500.02, -187500.02, -187500.02, -187500.02, -0.018, -0.024, 0.976, 15:29:55.531, 1578576595531
16, 187500.00, 187500.00, 187500.00, -27757.80, -187500.02, 23560.50, -187500.02, -187500.02, 0.000, 0.000, 0.000, 15:29:55.531, 1578576595531
17, -187500.02, -187500.02, -187500.02, -187500.02, -187500.02, -187500.02, -187500.02, -187500.02, 0.000, 0.000, 0.000, 15:29:55.531, 1578576595531
18, 187500.00, 187500.00, 187500.00, -27752.55, -187500.02, 23564.91, -187500.02, -187500.02, 0.000, 0.000, 0.000, 15:29:55.532, 1578576595532
19, -187500.02, -187500.02, -187500.02, -187500.02, -187500.02, -187500.02, -187500.02, -187500.02, 0.000, 0.000, 0.000, 15:29:55.532, 1578576595532
20, 187500.00, 187500.00, 187500.00, -27747.79, -187500.02, 23568.82, -187500.02, -187500.02, 0.000, 0.000, 0.000, 15:29:55.532, 1578576595532
21, -187500.02, -187500.02, -187500.02, -187500.02, -187500.02, -187500.02, -187500.02, -187500.02, 0.000, 0.000, 0.000, 15:29:55.532, 1578576595532
22, 187500.00, 187500.00, 187500.00, -27763.19, -187500.02, 23546.80, -187500.02, -187500.02, 0.000, 0.000, 0.000, 15:29:55.532, 1578576595532
23, -187500.02, -187500.02, -187500.02, -187500.02, -187500.02, -187500.02, -187500.02, -187500.02, 0.000, 0.000, 0.000, 15:29:55.532, 1578576595532
24, 187500.00, 187500.00, 187500.00, -27759.35, -187500.02, 23551.76, -187500.02, -187500.02, 0.000, 0.000, 0.000, 15:29:55.532, 1578576595532
25, -187500.02, -187500.02, -187500.02, -187500.02, -187500.02, -187500.02, -187500.02, -187500.02, -0.016, -0.024, 0.972, 15:29:55.532, 1578576595532
26, 187500.00, 187500.00, 187500.00, -27757.98, -187500.02, 23550.85, -187500.02, -187500.02, 0.000, 0.000, 0.000, 15:29:55.532, 1578576595532
27, -187500.02, -187500.02, -187500.02, -187500.02, -187500.02, -187500.02, -187500.02, -187500.02, 0.000, 0.000, 0.000, 15:29:55.532, 1578576595532
28, 187500.00, 187500.00, 187500.00, -27753.49, -187500.02, 23555.77, -187500.02, -187500.02, 0.000, 0.000, 0.000, 15:29:55.532, 1578576595532
29, -187500.02, -187500.02, -187500.02, -187500.02, -187500.02, -187500.02, -187500.02, -187500.02, 0.000, 0.000, 0.000, 15:29:55.532, 1578576595532
30, 187500.00, 187500.00, 187500.00, -27757.78, -187500.02, 23550.65, -187500.02, -187500.02, 0.000, 0.000, 0.000, 15:29:55.532, 1578576595532
31, -187500.02, -187500.02, -187500.02, -187500.02, -187500.02, -187500.02, -187500.02, -187500.02, 0.000, 0.000, 0.000, 15:29:55.532, 1578576595532
32, 187500.00, 187500.00, 187500.00, -27761.54, -187500.02, 23544.68, -187500.02, -187500.02, 0.000, 0.000, 0.000, 15:29:55.533, 1578576595533
33, -187500.02, -187500.02, -187500.02, -187500.02, -187500.02, -187500.02, -187500.02, -187500.02, 0.000, 0.000, 0.000, 15:29:55.533, 1578576595533
34, 187500.00, 187500.00, 187500.00, -27763.71, -187500.02, 23541.59, -187500.02, -187500.02, -0.018, -0.010, 0.960, 15:29:55.533, 1578576595533
35, -187500.02, -187500.02, -187500.02, -187500.02, -187500.02, -187500.02, -187500.02, -187500.02, 0.000, 0.000, 0.000, 15:29:55.533, 1578576595533
36, 187500.00, 187500.00, 187500.00, -27757.74, -187500.02, 23544.50, -187500.02, -187500.02, 0.000, 0.000, 0.000, 15:29:55.533, 1578576595533
37, -187500.02, -187500.02, -187500.02, -187500.02, -187500.02, -187500.02, -187500.02, -187500.02, 0.000, 0.000, 0.000, 15:29:55.533, 1578576595533
38, 187500.00, 187500.00, 187500.00, -27764.44, -187500.02, 23542.13, -187500.02, -187500.02, 0.000, 0.000, 0.000, 15:29:55.533, 1578576595533
39, -187500.02, -187500.02, -187500.02, -187500.02, -187500.02, -187500.02, -187500.02, -187500.02, 0.000, 0.000, 0.000, 15:29:55.533, 1578576595533
40, 187500.00, 187500.00, 187500.00, -27761.16, -187500.02, 23545.08, -187500.02, -187500.02, 0.000, 0.000, 0.000, 15:29:55.533, 1578576595533
41, -187500.02, -187500.02, -187500.02, -187500.02, -187500.02, -187500.02, -187500.02, -187500.02, 0.000, 0.000, 0.000, 15:29:55.533, 1578576595533
42, 187500.00, 187500.00, 187500.00, -27753.20, -187500.02, 23547.23, -187500.02, -187500.02, 0.000, 0.000, 0.000, 15:29:55.533, 1578576595533
43, -187500.02, -187500.02, -187500.02, -187500.02, -187500.02, -187500.02, -187500.02, -187500.02, 0.000, 0.000, 0.000, 15:29:55.533, 1578576595533
44, 187500.00, 187500.00, 187500.00, -27748.75, -187500.02, 23550.89, -187500.02, -187500.02, -0.026, -0.024, 0.980, 15:29:55.533, 1578576595533
45, -187500.02, -187500.02, -187500.02, -187500.02, -187500.02, -187500.02, -187500.02, -187500.02, 0.000, 0.000, 0.000, 15:29:55.533, 1578576595533
46, 187500.00, 187500.00, 187500.00, -27753.24, -187500.02, 23545.53, -187500.02, -187500.02, 0.000, 0.000, 0.000, 15:29:55.533, 1578576595533
47, -187500.02, -187500.02, -187500.02, -187500.02, -187500.02, -187500.02, -187500.02, -187500.02, 0.000, 0.000, 0.000, 15:29:55.534, 1578576595534
48, 187500.00, 187500.00, 187500.00, -27753.91, -187500.02, 23543.99, -187500.02, -187500.02, 0.000, 0.000, 0.000, 15:29:55.534, 1578576595534
49, -187500.02, -187500.02, -187500.02, -187500.02, -187500.02, -187500.02, -187500.02, -187500.02, 0.000, 0.000, 0.000, 15:29:55.534, 1578576595534
50, 187500.00, 187500.00, 187500.00, -27742.89, -187500.02, 23546.76, -187500.02, -187500.02, 0.000, 0.000, 0.000, 15:29:55.534, 1578576595534
51, -187500.02, -187500.02, -187500.02, -187500.02, -187500.02, -187500.02, -187500.02, -187500.02, 0.000, 0.000, 0.000, 15:29:55.534, 1578576595534
52, 187500.00, 187500.00, 187500.00, -27759.12, -187500.02, 23532.47, -187500.02, -187500.02, 0.000, 0.000, 0.000, 15:29:55.534, 1578576595534
53, -187500.02, -187500.02, -187500.02, -187500.02, -187500.02, -187500.02, -187500.02, -187500.02, 0.000, 0.000, 0.000, 15:29:55.534, 1578576595534
54, 187500.00, 187500.00, 187500.00, -27756.62, -187500.02, 23529.50, -187500.02, -187500.02, -0.026, -0.024, 0.974, 15:29:55.534, 1578576595534
55, -187500.02, -187500.02, -187500.02, -187500.02, -187500.02, -187500.02, -187500.02, -187500.02, 0.000, 0.000, 0.000, 15:29:55.534, 1578576595534
56, 187500.00, 187500.00, 187500.00, -27751.41, -187500.02, 23545.01, -187500.02, -187500.02, 0.000, 0.000, 0.000, 15:29:55.534, 1578576595534
57, -187500.02, -187500.02, -187500.02, -187500.02, -187500.02, -187500.02, -187500.02, -187500.02, 0.000, 0.000, 0.000, 15:29:55.534, 1578576595534
58, 187500.00, 187500.00, 187500.00, -27759.30, -187500.02, 23539.40, -187500.02, -187500.02, 0.000, 0.000, 0.000, 15:29:55.534, 1578576595534
59, -187500.02, -187500.02, -187500.02, -187500.02, -187500.02, -187500.02, -187500.02, -187500.02, 0.000, 0.000, 0.000, 15:29:55.534, 1578576595534
60, 187500.00, 187500.00, 187500.00, -27753.76, -187500.02, 23541.28, -187500.02, -187500.02, 0.000, 0.000, 0.000, 15:29:55.534, 1578576595534
61, -187500.02, -187500.02, -187500.02, -187500.02, -187500.02, -187500.02, -187500.02, -187500.02, 0.000, 0.000, 0.000, 15:29:55.535, 1578576595535
62, 187500.00, 187500.00, 187500.00, -27757.56, -187500.02, 23533.19, -187500.02, -187500.02, 0.000, 0.000, 0.000, 15:29:55.535, 1578576595535
63, -187500.02, -187500.02, -187500.02, -187500.02, -187500.02, -187500.02, -187500.02, -187500.02, 0.000, 0.000, 0.000, 15:29:55.535, 1578576595535
64, 187500.00, 187500.00, 187500.00, -27753.69, -187500.02, 23542.89, -187500.02, -187500.02, -0.020, -0.014, 0.964, 15:29:55.535, 1578576595535
65, -187500.02, -187500.02, -187500.02, -187500.02, -187500.02, -187500.02, -187500.02, -187500.02, 0.000, 0.000, 0.000, 15:29:55.535, 1578576595535
66, 187500.00, 187500.00, 187500.00, -27759.59, -187500.02, 23541.71, -187500.02, -187500.02, 0.000, 0.000, 0.000, 15:29:55.535, 1578576595535
67, -187500.02, -187500.02, -187500.02, -187500.02, -187500.02, -187500.02, -187500.02, -187500.02, 0.000, 0.000, 0.000, 15:29:55.535, 1578576595535
68, 187500.00, 187500.00, 187500.00, -27760.40, -187500.02, 23538.87, -187500.02, -187500.02, 0.000, 0.000, 0.000, 15:29:55.535, 1578576595535
69, -187500.02, -187500.02, -187500.02, -187500.02, -187500.02, -187500.02, -187500.02, -187500.02, 0.000, 0.000, 0.000, 15:29:55.535, 1578576595535
70, 187500.00, 187500.00, 187500.00, -27751.93, -187500.02, 23545.88, -187500.02, -187500.02, 0.000, 0.000, 0.000, 15:29:55.535, 1578576595535
71, -187500.02, -187500.02, -187500.02, -187500.02, -187500.02, -187500.02, -187500.02, -187500.02, 0.000, 0.000, 0.000, 15:29:55.535, 1578576595535
72, 187500.00, 187500.00, 187500.00, -27756.17, -187500.02, 23540.32, -187500.02, -187500.02, 0.000, 0.000, 0.000, 15:29:55.535, 1578576595535
73, -187500.02, -187500.02, -187500.02, -187500.02, -187500.02, -187500.02, -187500.02, -187500.02, 0.000, 0.000, 0.000, 15:29:55.535, 1578576595535
74, 187500.00, 187500.00, 187500.00, -27758.92, -187500.02, 23538.04, -187500.02, -187500.02, -0.018, -0.014, 0.964, 15:29:55.535, 1578576595535
75, -187500.02, -187500.02, -187500.02, -187500.02, -187500.02, -187500.02, -187500.02, -187500.02, 0.000, 0.000, 0.000, 15:29:55.535, 1578576595535
76, 187500.00, 187500.00, 187500.00, -27754.18, -187500.02, 23537.79, -187500.02, -187500.02, 0.000, 0.000, 0.000, 15:29:55.535, 1578576595535
77, -187500.02, -187500.02, -187500.02, -187500.02, -187500.02, -187500.02, -187500.02, -187500.02, 0.000, 0.000, 0.000, 15:29:55.535, 1578576595535
78, 187500.00, 187500.00, 187500.00, -27753.89, -187500.02, 23538.80, -187500.02, -187500.02, 0.000, 0.000, 0.000, 15:29:55.535, 1578576595535
79, -187500.02, -187500.02, -187500.02, -187500.02, -187500.02, -187500.02, -187500.02, -187500.02, 0.000, 0.000, 0.000, 15:29:55.535, 1578576595535
80, 187500.00, 187500.00, 187500.00, -27748.19, -187500.02, 23543.49, -187500.02, -187500.02, 0.000, 0.000, 0.000, 15:29:55.535, 1578576595535
81, -187500.02, -187500.02, -187500.02, -187500.02, -187500.02, -187500.02, -187500.02, -187500.02, 0.000, 0.000, 0.000, 15:29:55.536, 1578576595536
82, 187500.00, 187500.00, 187500.00, -27753.82, -187500.02, 23537.91, -187500.02, -187500.02, 0.000, 0.000, 0.000, 15:29:55.536, 1578576595536
83, -187500.02, -187500.02, -187500.02, -187500.02, -187500.02, -187500.02, -187500.02, -187500.02, -0.014, -0.010, 0.976, 15:29:55.536, 1578576595536
84, 187500.00, 187500.00, 187500.00, -27745.89, -187500.02, 23538.67, -187500.02, -187500.02, 0.000, 0.000, 0.000, 15:29:55.536, 1578576595536
85, -187500.02, -187500.02, -187500.02, -187500.02, -187500.02, -187500.02, -187500.02, -187500.02, 0.000, 0.000, 0.000, 15:29:55.536, 1578576595536
86, 187500.00, 187500.00, 187500.00, -27748.55, -187500.02, 23538.35, -187500.02, -187500.02, 0.000, 0.000, 0.000, 15:29:55.536, 1578576595536
87, -187500.02, -187500.02, -187500.02, -187500.02, -187500.02, -187500.02, -187500.02, -187500.02, 0.000, 0.000, 0.000, 15:29:55.536, 1578576595536
88, 187500.00, 187500.00, 187500.00, -27747.68, -187500.02, 23540.03, -187500.02, -187500.02, 0.000, 0.000, 0.000, 15:29:55.536, 1578576595536
89, -187500.02, -187500.02, -187500.02, -187500.02, -187500.02, -187500.02, -187500.02, -187500.02, 0.000, 0.000, 0.000, 15:29:55.536, 1578576595536
90, 187500.00, 187500.00, 187500.00, -27750.40, -187500.02, 23548.52, -187500.02, -187500.02, 0.000, 0.000, 0.000, 15:29:55.536, 1578576595536
91, -187500.02, -187500.02, -187500.02, -187500.02, -187500.02, -187500.02, -187500.02, -187500.02, 0.000, 0.000, 0.000, 15:29:55.536, 1578576595536
92, 187500.00, 187500.00, 187500.00, -27763.99, -187500.02, 23562.65, -187500.02, -187500.02, 0.000, 0.000, 0.000, 15:29:55.536, 1578576595536
93, -187500.02, -187500.02, -187500.02, -187500.02, -187500.02, -187500.02, -187500.02, -187500.02, -0.018, -0.014, 0.976, 15:29:55.536, 1578576595536
94, 187500.00, 187500.00, 187500.00, -27777.81, -187500.02, 23586.72, -187500.02, -187500.02, 0.000, 0.000, 0.000, 15:29:55.536, 1578576595536
95, -187500.02, -187500.02, -187500.02, -187500.02, -187500.02, -187500.02, -187500.02, -187500.02, 0.000, 0.000, 0.000, 15:29:55.536, 1578576595536
96, 187500.00, 187500.00, 187500.00, -27778.54, -187500.02, 23619.00, -187500.02, -187500.02, 0.000, 0.000, 0.000, 15:29:55.536, 1578576595536
97, -187500.02, -187500.02, -187500.02, -187500.02, -187500.02, -187500.02, -187500.02, -187500.02, 0.000, 0.000, 0.000, 15:29:55.536, 1578576595536
98, 187500.00, 187500.00, 187500.00, -27783.51, -187500.02, 23649.26, -187500.02, -187500.02, 0.000, 0.000, 0.000, 15:29:55.536, 1578576595536
99, -187500.02, -187500.02, -187500.02, -187500.02, -187500.02, -187500.02, -187500.02, -187500.02, 0.000, 0.000, 0.000, 15:29:55.536, 1578576595536
100, 187500.00, 187500.00, 187500.00, -27789.48, -187500.02, 23680.13, -187500.02, -187500.02, 0.000, 0.000, 0.000, 15:29:55.536, 1578576595536
101, -187500.02, -187500.02, -187500.02, -187500.02, -187500.02, -187500.02, -187500.02, -187500.02, 0.000, 0.000, 0.000, 15:29:55.537, 1578576595537
102, 187500.00, 187500.00, 187500.00, -27787.80, -187500.02, 23709.41, -187500.02, -187500.02, 0.000, 0.000, 0.000, 15:29:55.537, 1578576595537
103, -187500.02, -187500.02, -187500.02, -187500.02, -187500.02, -187500.02, -187500.02, -187500.02, -0.020, -0.018, 0.976, 15:29:55.537, 1578576595537
104, 187500.00, 187500.00, 187500.00, -27793.23, -187500.02, 23724.59, -187500.02, -187500.02, 0.000, 0.000, 0.000, 15:29:55.537, 1578576595537
105, -187500.02, -187500.02, -187500.02, -187500.02, -187500.02, -187500.02, -187500.02, -187500.02, 0.000, 0.000, 0.000, 15:29:56.008, 1578576596008
106, 187500.00, 187500.00, 187500.00, -27791.31, -187500.02, 23739.07, -187500.02, -187500.02, 0.000, 0.000, 0.000, 15:29:56.008, 1578576596008
107, -187500.02, -187500.02, -187500.02, -187500.02, -187500.02, -187500.02, -187500.02, -187500.02, 0.000, 0.000, 0.000, 15:29:56.008, 1578576596008
108, 187500.00, 187500.00, 187500.00, -27787.62, -187500.02, 23745.44, -187500.02, -187500.02, 0.000, 0.000, 0.000, 15:29:56.008, 1578576596008
109, -187500.02, -187500.02, -187500.02, -187500.02, -187500.02, -187500.02, -187500.02, -187500.02, 0.000, 0.000, 0.000, 15:29:56.008, 1578576596008
110, 187500.00, 187500.00, 187500.00, -27791.15, -187500.02, 23740.68, -187500.02, -187500.02, 0.000, 0.000, 0.000, 15:29:56.009, 1578576596009
111, -187500.02, -187500.02, -187500.02, -187500.02, -187500.02, -187500.02, -187500.02, -187500.02, 0.000, 0.000, 0.000, 15:29:56.009, 1578576596009
112, 187500.00, 187500.00, 187500.00, -27785.14, -187500.02, 23742.60, -187500.02, -187500.02, 0.000, 0.000, 0.000, 15:29:56.009, 1578576596009
113, -187500.02, -187500.02, -187500.02, -187500.02, -187500.02, -187500.02, -187500.02, -187500.02, -0.018, -0.016, 0.976, 15:29:56.009, 1578576596009
114, 187500.00, 187500.00, 187500.00, -27779.66, -187500.02, 23749.46, -187500.02, -187500.02, 0.000, 0.000, 0.000, 15:29:56.009, 1578576596009
115, -187500.02, -187500.02, -187500.02, -187500.02, -187500.02, -187500.02, -187500.02, -187500.02, 0.000, 0.000, 0.000, 15:29:56.009, 1578576596009
116, 187500.00, 187500.00, 187500.00, -27781.41, -187500.02, 23748.17, -187500.02, -187500.02, 0.000, 0.000, 0.000, 15:29:56.009, 1578576596009
117, -187500.02, -187500.02, -187500.02, -187500.02, -187500.02, -187500.02, -187500.02, -187500.02, 0.000, 0.000, 0.000, 15:29:56.009, 1578576596009
118, 187500.00, 187500.00, 187500.00, -27781.21, -187500.02, 23745.33, -187500.02, -187500.02, 0.000, 0.000, 0.000, 15:29:56.009, 1578576596009
119, -187500.02, -187500.02, -187500.02, -187500.02, -187500.02, -187500.02, -187500.02, -187500.02, 0.000, 0.000, 0.000, 15:29:56.009, 1578576596009
120, 187500.00, 187500.00, 187500.00, -27777.63, -187500.02, 23748.35, -187500.02, -187500.02, 0.000, 0.000, 0.000, 15:29:56.009, 1578576596009
121, -187500.02, -187500.02, -187500.02, -187500.02, -187500.02, -187500.02, -187500.02, -187500.02, 0.000, 0.000, 0.000, 15:29:56.009, 1578576596009
122, 187500.00, 187500.00, 187500.00, -27772.24, -187500.02, 23753.62, -187500.02, -187500.02, -0.018, -0.016, 0.978, 15:29:56.009, 1578576596009
123, -187500.02, -187500.02, -187500.02, -187500.02, -187500.02, -187500.02, -187500.02, -187500.02, 0.000, 0.000, 0.000, 15:29:56.009, 1578576596009
124, 187500.00, 187500.00, 187500.00, -27772.71, -187500.02, 23753.42, -187500.02, -187500.02, 0.000, 0.000, 0.000, 15:29:56.009, 1578576596009
125, -187500.02, -187500.02, -187500.02, -187500.02, -187500.02, -187500.02, -187500.02, -187500.02, 0.000, 0.000, 0.000, 15:29:56.009, 1578576596009
126, 187500.00, 187500.00, 187500.00, -27778.32, -187500.02, 23748.19, -187500.02, -187500.02, 0.000, 0.000, 0.000, 15:29:56.009, 1578576596009
127, -187500.02, -187500.02, -187500.02, -187500.02, -187500.02, -187500.02, -187500.02, -187500.02, 0.000, 0.000, 0.000, 15:29:56.009, 1578576596009
128, 187500.00, 187500.00, 187500.00, -27775.80, -187500.02, 23749.91, -187500.02, -187500.02, 0.000, 0.000, 0.000, 15:29:56.009, 1578576596009
129, -187500.02, -187500.02, -187500.02, -187500.02, -187500.02, -187500.02, -187500.02, -187500.02, 0.000, 0.000, 0.000, 15:29:56.010, 1578576596010
130, 187500.00, 187500.00, 187500.00, -27773.47, -187500.02, 23752.51, -187500.02, -187500.02, 0.000, 0.000, 0.000, 15:29:56.010, 1578576596010
131, -187500.02, -187500.02, -187500.02, -187500.02, -187500.02, -187500.02, -187500.02, -187500.02, 0.000, 0.000, 0.000, 15:29:56.010, 1578576596010
132, 187500.00, 187500.00, 187500.00, -27772.27, -187500.02, 23746.09, -187500.02, -187500.02, -0.020, -0.016, 0.980, 15:29:56.010, 1578576596010
133, -187500.02, -187500.02, -187500.02, -187500.02, -187500.02, -187500.02, -187500.02, -187500.02, 0.000, 0.000, 0.000, 15:29:56.010, 1578576596010
134, 187500.00, 187500.00, 187500.00, -27763.30, -187500.02, 23754.07, -187500.02, -187500.02, 0.000, 0.000, 0.000, 15:29:56.010, 1578576596010
135, -187500.02, -187500.02, -187500.02, -187500.02, -187500.02, -187500.02, -187500.02, -187500.02, 0.000, 0.000, 0.000, 15:29:56.010, 1578576596010
136, 187500.00, 187500.00, 187500.00, -27772.42, -187500.02, 23746.36, -187500.02, -187500.02, 0.000, 0.000, 0.000, 15:29:56.010, 1578576596010
137, -187500.02, -187500.02, -187500.02, -187500.02, -187500.02, -187500.02, -187500.02, -187500.02, 0.000, 0.000, 0.000, 15:29:56.010, 1578576596010
138, 187500.00, 187500.00, 187500.00, -27776.54, -187500.02, 23732.59, -187500.02, -187500.02, 0.000, 0.000, 0.000, 15:29:56.010, 1578576596010
139, -187500.02, -187500.02, -187500.02, -187500.02, -187500.02, -187500.02, -187500.02, -187500.02, 0.000, 0.000, 0.000, 15:29:56.010, 1578576596010
140, 187500.00, 187500.00, 187500.00, -27761.40, -187500.02, 23744.21, -187500.02, -187500.02, 0.000, 0.000, 0.000, 15:29:56.010, 1578576596010
141, -187500.02, -187500.02, -187500.02, -187500.02, -187500.02, -187500.02, -187500.02, -187500.02, 0.000, 0.000, 0.000, 15:29:56.010, 1578576596010
142, 187500.00, 187500.00, 187500.00, -27762.68, -187500.02, 23739.85, -187500.02, -187500.02, -0.018, -0.020, 0.982, 15:29:56.010, 1578576596010
143, -187500.02, -187500.02, -187500.02, -187500.02, -187500.02, -187500.02, -187500.02, -187500.02, 0.000, 0.000, 0.000, 15:29:56.010, 1578576596010
144, 187500.00, 187500.00, 187500.00, -27769.90, -187500.02, 23726.06, -187500.02, -187500.02, 0.000, 0.000, 0.000, 15:29:56.010, 1578576596010
145, -187500.02, -187500.02, -187500.02, -187500.02, -187500.02, -187500.02, -187500.02, -187500.02, 0.000, 0.000, 0.000, 15:29:56.010, 1578576596010
146, 187500.00, 187500.00, 187500.00, -27770.28, -187500.02, 23731.32, -187500.02, -187500.02, 0.000, 0.000, 0.000, 15:29:56.010, 1578576596010
147, -187500.02, -187500.02, -187500.02, -187500.02, -187500.02, -187500.02, -187500.02, -187500.02, 0.000, 0.000, 0.000, 15:29:56.011, 1578576596011
148, 187500.00, 187500.00, 187500.00, -27772.71, -187500.02, 23726.87, -187500.02, -187500.02, 0.000, 0.000, 0.000, 15:29:56.011, 1578576596011
149, -187500.02, -187500.02, -187500.02, -187500.02, -187500.02, -187500.02, -187500.02, -187500.02, 0.000, 0.000, 0.000, 15:29:56.011, 1578576596011
150, 187500.00, 187500.00, 187500.00, -27770.05, -187500.02, 23727.00, -187500.02, -187500.02, 0.000, 0.000, 0.000, 15:29:56.011, 1578576596011
151, -187500.02, -187500.02, -187500.02, -187500.02, -187500.02, -187500.02, -187500.02, -187500.02, 0.000, 0.000, 0.000, 15:29:56.011, 1578576596011
152, 187500.00, 187500.00, 187500.00, -27772.04, -187500.02, 23720.36, -187500.02, -187500.02, -0.018, -0.022, 0.978, 15:29:56.011, 1578576596011
153, -187500.02, -187500.02, -187500.02, -187500.02, -187500.02, -187500.02, -187500.02, -187500.02, 0.000, 0.000, 0.000, 15:29:56.011, 1578576596011
154, 187500.00, 187500.00, 187500.00, -27765.83, -187500.02, 23719.27, -187500.02, -187500.02, 0.000, 0.000, 0.000, 15:29:56.011, 1578576596011
155, -187500.02, -187500.02, -187500.02, -187500.02, -187500.02, -187500.02, -187500.02, -187500.02, 0.000, 0.000, 0.000, 15:29:56.011, 1578576596011
156, 187500.00, 187500.00, 187500.00, -27766.03, -187500.02, 23720.07, -187500.02, -187500.02, 0.000, 0.000, 0.000, 15:29:56.011, 1578576596011
157, -187500.02, -187500.02, -187500.02, -187500.02, -187500.02, -187500.02, -187500.02, -187500.02, 0.000, 0.000, 0.000, 15:29:56.011, 1578576596011
158, 187500.00, 187500.00, 187500.00, -27765.80, -187500.02, 23716.36, -187500.02, -187500.02, 0.000, 0.000, 0.000, 15:29:56.011, 1578576596011
159, -187500.02, -187500.02, -187500.02, -187500.02, -187500.02, -187500.02, -187500.02, -187500.02, 0.000, 0.000, 0.000, 15:29:56.011, 1578576596011
160, 187500.00, 187500.00, 187500.00, -27762.03, -187500.02, 23719.76, -187500.02, -187500.02, 0.000, 0.000, 0.000, 15:29:56.011, 1578576596011
161, -187500.02, -187500.02, -187500.02, -187500.02, -187500.02, -187500.02, -187500.02, -187500.02, -0.016, -0.018, 0.978, 15:29:56.011, 1578576596011
162, 187500.00, 187500.00, 187500.00, -27763.01, -187500.02, 23720.54, -187500.02, -187500.02, 0.000, 0.000, 0.000, 15:29:56.011, 1578576596011
163, -187500.02, -187500.02, -187500.02, -187500.02, -187500.02, -187500.02, -187500.02, -187500.02, 0.000, 0.000, 0.000, 15:29:56.011, 1578576596011
164, 187500.00, 187500.00, 187500.00, -27762.88, -187500.02, 23717.03, -187500.02, -187500.02, 0.000, 0.000, 0.000, 15:29:56.011, 1578576596011
165, -187500.02, -187500.02, -187500.02, -187500.02, -187500.02, -187500.02, -187500.02, -187500.02, 0.000, 0.000, 0.000, 15:29:56.011, 1578576596011
166, 187500.00, 187500.00, 187500.00, -27764.98, -187500.02, 23715.85, -187500.02, -187500.02, 0.000, 0.000, 0.000, 15:29:56.012, 1578576596012
167, -187500.02, -187500.02, -187500.02, -187500.02, -187500.02, -187500.02, -187500.02, -187500.02, 0.000, 0.000, 0.000, 15:29:56.012, 1578576596012
168, 187500.00, 187500.00, 187500.00, -27769.09, -187500.02, 23708.96, -187500.02, -187500.02, 0.000, 0.000, 0.000, 15:29:56.012, 1578576596012
169, -187500.02, -187500.02, -187500.02, -187500.02, -187500.02, -187500.02, -187500.02, -187500.02, 0.000, 0.000, 0.000, 15:29:56.012, 1578576596012
170, 187500.00, 187500.00, 187500.00, -27763.68, -187500.02, 23715.98, -187500.02, -187500.02, 0.000, 0.000, 0.000, 15:29:56.012, 1578576596012
171, -187500.02, -187500.02, -187500.02, -187500.02, -187500.02, -187500.02, -187500.02, -187500.02, -0.016, -0.016, 0.978, 15:29:56.012, 1578576596012
172, 187500.00, 187500.00, 187500.00, -27768.96, -187500.02, 23706.79, -187500.02, -187500.02, 0.000, 0.000, 0.000, 15:29:56.012, 1578576596012
173, -187500.02, -187500.02, -187500.02, -187500.02, -187500.02, -187500.02, -187500.02, -187500.02, 0.000, 0.000, 0.000, 15:29:56.012, 1578576596012
174, 187500.00, 187500.00, 187500.00, -27752.24, -187500.02, 23715.40, -187500.02, -187500.02, 0.000, 0.000, 0.000, 15:29:56.012, 1578576596012
175, -187500.02, -187500.02, -187500.02, -187500.02, -187500.02, -187500.02, -187500.02, -187500.02, 0.000, 0.000, 0.000, 15:29:56.012, 1578576596012
176, 187500.00, 187500.00, 187500.00, -27767.82, -187500.02, 23703.49, -187500.02, -187500.02, 0.000, 0.000, 0.000, 15:29:56.012, 1578576596012
177, -187500.02, -187500.02, -187500.02, -187500.02, -187500.02, -187500.02, -187500.02, -187500.02, 0.000, 0.000, 0.000, 15:29:56.012, 1578576596012
178, 187500.00, 187500.00, 187500.00, -27759.26, -187500.02, 23707.53, -187500.02, -187500.02, 0.000, 0.000, 0.000, 15:29:56.012, 1578576596012
179, -187500.02, -187500.02, -187500.02, -187500.02, -187500.02, -187500.02, -187500.02, -187500.02, 0.000, 0.000, 0.000, 15:29:56.012, 1578576596012
180, 187500.00, 187500.00, 187500.00, -27760.93, -187500.02, 23711.36, -187500.02, -187500.02, 0.000, 0.000, 0.000, 15:29:56.012, 1578576596012
181, -187500.02, -187500.02, -187500.02, -187500.02, -187500.02, -187500.02, -187500.02, -187500.02, -0.016, -0.018, 0.974, 15:29:56.012, 1578576596012
182, 187500.00, 187500.00, 187500.00, -27766.97, -187500.02, 23706.30, -187500.02, -187500.02, 0.000, 0.000, 0.000, 15:29:56.012, 1578576596012
183, -187500.02, -187500.02, -187500.02, -187500.02, -187500.02, -187500.02, -187500.02, -187500.02, 0.000, 0.000, 0.000, 15:29:56.012, 1578576596012
184, 187500.00, 187500.00, 187500.00, -27761.94, -187500.02, 23707.85, -187500.02, -187500.02, 0.000, 0.000, 0.000, 15:29:56.012, 1578576596012
185, -187500.02, -187500.02, -187500.02, -187500.02, -187500.02, -187500.02, -187500.02, -187500.02, 0.000, 0.000, 0.000, 15:29:56.013, 1578576596013
186, 187500.00, 187500.00, 187500.00, -27753.56, -187500.02, 23720.03, -187500.02, -187500.02, 0.000, 0.000, 0.000, 15:29:56.013, 1578576596013
187, -187500.02, -187500.02, -187500.02, -187500.02, -187500.02, -187500.02, -187500.02, -187500.02, 0.000, 0.000, 0.000, 15:29:56.013, 1578576596013
188, 187500.00, 187500.00, 187500.00, -27754.50, -187500.02, 23703.96, -187500.02, -187500.02, 0.000, 0.000, 0.000, 15:29:56.013, 1578576596013
189, -187500.02, -187500.02, -187500.02, -187500.02, -187500.02, -187500.02, -187500.02, -187500.02, 0.000, 0.000, 0.000, 15:29:56.013, 1578576596013
190, 187500.00, 187500.00, 187500.00, -27761.63, -187500.02, 23689.50, -187500.02, -187500.02, 0.000, 0.000, 0.000, 15:29:56.013, 1578576596013
191, -187500.02, -187500.02, -187500.02, -187500.02, -187500.02, -187500.02, -187500.02, -187500.02, -0.018, -0.020, 0.980, 15:29:56.013, 1578576596013
192, 187500.00, 187500.00, 187500.00, -27754.23, -187500.02, 23693.16, -187500.02, -187500.02, 0.000, 0.000, 0.000, 15:29:56.013, 1578576596013
193, -187500.02, -187500.02, -187500.02, -187500.02, -187500.02, -187500.02, -187500.02, -187500.02, 0.000, 0.000, 0.000, 15:29:56.013, 1578576596013
194, 187500.00, 187500.00, 187500.00, -27749.98, -187500.02, 23698.26, -187500.02, -187500.02, 0.000, 0.000, 0.000, 15:29:56.013, 1578576596013
195, -187500.02, -187500.02, -187500.02, -187500.02, -187500.02, -187500.02, -187500.02, -187500.02, 0.000, 0.000, 0.000, 15:29:56.013, 1578576596013
196, 187500.00, 187500.00, 187500.00, -27750.72, -187500.02, 23699.69, -187500.02, -187500.02, 0.000, 0.000, 0.000, 15:29:56.013, 1578576596013
197, -187500.02, -187500.02, -187500.02, -187500.02, -187500.02, -187500.02, -187500.02, -187500.02, 0.000, 0.000, 0.000, 15:29:56.013, 1578576596013
198, 187500.00, 187500.00, 187500.00, -27756.89, -187500.02, 23690.77, -187500.02, -187500.02, 0.000, 0.000, 0.000, 15:29:56.013, 1578576596013
199, -187500.02, -187500.02, -187500.02, -187500.02, -187500.02, -187500.02, -187500.02, -187500.02, 0.000, 0.000, 0.000, 15:29:56.013, 1578576596013
200, 187500.00, 187500.00, 187500.00, -27755.50, -187500.02, 23692.24, -187500.02, -187500.02, -0.022, -0.020, 0.978, 15:29:56.013, 1578576596013
201, -187500.02, -187500.02, -187500.02, -187500.02, -187500.02, -187500.02, -187500.02, -187500.02, 0.000, 0.000, 0.000, 15:29:56.013, 1578576596013
202, 187500.00, 187500.00, 187500.00, -27750.99, -187500.02, 23693.70, -187500.02, -187500.02, 0.000, 0.000, 0.000, 15:29:56.013, 1578576596013
203, -187500.02, -187500.02, -187500.02, -187500.02, -187500.02, -187500.02, -187500.02, -187500.02, 0.000, 0.000, 0.000, 15:29:56.013, 1578576596013
204, 187500.00, 187500.00, 187500.00, -27749.27, -187500.02, 23692.02, -187500.02, -187500.02, 0.000, 0.000, 0.000, 15:29:56.013, 1578576596013
205, -187500.02, -187500.02, -187500.02, -187500.02, -187500.02, -187500.02, -187500.02, -187500.02, 0.000, 0.000, 0.000, 15:29:56.014, 1578576596014
206, 187500.00, 187500.00, 187500.00, -27757.22, -187500.02, 23682.46, -187500.02, -187500.02, 0.000, 0.000, 0.000, 15:29:56.014, 1578576596014
207, -187500.02, -187500.02, -187500.02, -187500.02, -187500.02, -187500.02, -187500.02, -187500.02, 0.000, 0.000, 0.000, 15:29:56.014, 1578576596014
208, 187500.00, 187500.00, 187500.00, -27744.93, -187500.02, 23693.90, -187500.02, -187500.02, 0.000, 0.000, 0.000, 15:29:56.014, 1578576596014
209, -187500.02, -187500.02, -187500.02, -187500.02, -187500.02, -187500.02, -187500.02, -187500.02, 0.000, 0.000, 0.000, 15:29:56.014, 1578576596014
210, 187500.00, 187500.00, 187500.00, -27747.12, -187500.02, 23694.30, -187500.02, -187500.02, -0.016, -0.020, 0.976, 15:29:56.014, 1578576596014
211, -187500.02, -187500.02, -187500.02, -187500.02, -187500.02, -187500.02, -187500.02, -187500.02, 0.000, 0.000, 0.000, 15:29:56.014, 1578576596014
212, 187500.00, 187500.00, 187500.00, -27757.94, -187500.02, 23681.92, -187500.02, -187500.02, 0.000, 0.000, 0.000, 15:29:56.014, 1578576596014
213, -187500.02, -187500.02, -187500.02, -187500.02, -187500.02, -187500.02, -187500.02, -187500.02, 0.000, 0.000, 0.000, 15:29:56.014, 1578576596014
214, 187500.00, 187500.00, 187500.00, -27754.50, -187500.02, 23682.97, -187500.02, -187500.02, 0.000, 0.000, 0.000, 15:29:56.014, 1578576596014
215, -187500.02, -187500.02, -187500.02, -187500.02, -187500.02, -187500.02, -187500.02, -187500.02, 0.000, 0.000, 0.000, 15:29:56.014, 1578576596014
216, 187500.00, 187500.00, 187500.00, -27751.16, -187500.02, 23686.59, -187500.02, -187500.02, 0.000, 0.000, 0.000, 15:29:56.014, 1578576596014
217, -187500.02, -187500.02, -187500.02, -187500.02, -187500.02, -187500.02, -187500.02, -187500.02, 0.000, 0.000, 0.000, 15:29:56.014, 1578576596014
218, 187500.00, 187500.00, 187500.00, -27748.93, -187500.02, 23687.98, -187500.02, -187500.02, 0.000, 0.000, 0.000, 15:29:56.014, 1578576596014
219, -187500.02, -187500.02, -187500.02, -187500.02, -187500.02, -187500.02, -187500.02, -187500.02, 0.000, 0.000, 0.000, 15:29:56.014, 1578576596014
220, 187500.00, 187500.00, 187500.00, -27748.59, -187500.02, 23683.84, -187500.02, -187500.02, -0.022, -0.018, 0.976, 15:29:56.014, 1578576596014
221, -187500.02, -187500.02, -187500.02, -187500.02, -187500.02, -187500.02, -187500.02, -187500.02, 0.000, 0.000, 0.000, 15:29:56.014, 1578576596014
222, 187500.00, 187500.00, 187500.00, -27736.93, -187500.02, 23690.14, -187500.02, -187500.02, 0.000, 0.000, 0.000, 15:29:56.014, 1578576596014
223, -187500.02, -187500.02, -187500.02, -187500.02, -187500.02, -187500.02, -187500.02, -187500.02, 0.000, 0.000, 0.000, 15:29:56.014, 1578576596014
224, 187500.00, 187500.00, 187500.00, -27740.50, -187500.02, 23691.66, -187500.02, -187500.02, 0.000, 0.000, 0.000, 15:29:56.014, 1578576596014
225, -187500.02, -187500.02, -187500.02, -187500.02, -187500.02, -187500.02, -187500.02, -187500.02, 0.000, 0.000, 0.000, 15:29:56.015, 1578576596015
226, 187500.00, 187500.00, 187500.00, -27753.22, -187500.02, 23684.36, -187500.02, -187500.02, 0.000, 0.000, 0.000, 15:29:56.493, 1578576596493
227, -187500.02, -187500.02, -187500.02, -187500.02, -187500.02, -187500.02, -187500.02, -187500.02, 0.000, 0.000, 0.000, 15:29:56.493, 1578576596493
228, 187500.00, 187500.00, 187500.00, -27744.37, -187500.02, 23691.55, -187500.02, -187500.02, 0.000, 0.000, 0.000, 15:29:56.493, 1578576596493
229, -187500.02, -187500.02, -187500.02, -187500.02, -187500.02, -187500.02, -187500.02, -187500.02, 0.000, 0.000, 0.000, 15:29:56.493, 1578576596493
230, 187500.00, 187500.00, 187500.00, -27750.90, -187500.02, 23684.62, -187500.02, -187500.02, -0.020, -0.014, 0.970, 15:29:56.493, 1578576596493
231, -187500.02, -187500.02, -187500.02, -187500.02, -187500.02, -187500.02, -187500.02, -187500.02, 0.000, 0.000, 0.000, 15:29:56.494, 1578576596494
232, 187500.00, 187500.00, 187500.00, -27748.86, -187500.02, 23676.87, -187500.02, -187500.02, 0.000, 0.000, 0.000, 15:29:56.494, 1578576596494
233, -187500.02, -187500.02, -187500.02, -187500.02, -187500.02, -187500.02, -187500.02, -187500.02, 0.000, 0.000, 0.000, 15:29:56.494, 1578576596494
234, 187500.00, 187500.00, 187500.00, -27735.81, -187500.02, 23695.75, -187500.02, -187500.02, 0.000, 0.000, 0.000, 15:29:56.494, 1578576596494
235, -187500.02, -187500.02, -187500.02, -187500.02, -187500.02, -187500.02, -187500.02, -187500.02, 0.000, 0.000, 0.000, 15:29:56.494, 1578576596494
236, 187500.00, 187500.00, 187500.00, -27737.84, -187500.02, 23695.55, -187500.02, -187500.02, 0.000, 0.000, 0.000, 15:29:56.494, 1578576596494
237, -187500.02, -187500.02, -187500.02, -187500.02, -187500.02, -187500.02, -187500.02, -187500.02, 0.000, 0.000, 0.000, 15:29:56.494, 1578576596494
238, 187500.00, 187500.00, 187500.00, -27737.29, -187500.02, 23693.16, -187500.02, -187500.02, 0.000, 0.000, 0.000, 15:29:56.494, 1578576596494
239, -187500.02, -187500.02, -187500.02, -187500.02, -187500.02, -187500.02, -187500.02, -187500.02, -0.022, -0.008, 0.966, 15:29:56.494, 1578576596494
240, 187500.00, 187500.00, 187500.00, -27727.43, -187500.02, 23698.71, -187500.02, -187500.02, 0.000, 0.000, 0.000, 15:29:56.494, 1578576596494
241, -187500.02, -187500.02, -187500.02, -187500.02, -187500.02, -187500.02, -187500.02, -187500.02, 0.000, 0.000, 0.000, 15:29:56.494, 1578576596494
242, 187500.00, 187500.00, 187500.00, -27728.37, -187500.02, 23696.27, -187500.02, -187500.02, 0.000, 0.000, 0.000, 15:29:56.494, 1578576596494
243, -187500.02, -187500.02, -187500.02, -187500.02, -187500.02, -187500.02, -187500.02, -187500.02, 0.000, 0.000, 0.000, 15:29:56.494, 1578576596494
244, 187500.00, 187500.00, 187500.00, -27735.14, -187500.02, 23687.24, -187500.02, -187500.02, 0.000, 0.000, 0.000, 15:29:56.494, 1578576596494
245, -187500.02, -187500.02, -187500.02, -187500.02, -187500.02, -187500.02, -187500.02, -187500.02, 0.000, 0.000, 0.000, 15:29:56.494, 1578576596494
246, 187500.00, 187500.00, 187500.00, -27732.81, -187500.02, 23692.07, -187500.02, -187500.02, 0.000, 0.000, 0.000, 15:29:56.494, 1578576596494
247, -187500.02, -187500.02, -187500.02, -187500.02, -187500.02, -187500.02, -187500.02, -187500.02, 0.000, 0.000, 0.000, 15:29:56.494, 1578576596494
248, 187500.00, 187500.00, 187500.00, -27738.96, -187500.02, 23688.00, -187500.02, -187500.02, 0.000, 0.000, 0.000, 15:29:56.494, 1578576596494
249, -187500.02, -187500.02, -187500.02, -187500.02, -187500.02, -187500.02, -187500.02, -187500.02, -0.022, -0.016, 0.976, 15:29:56.494, 1578576596494
250, 187500.00, 187500.00, 187500.00, -27736.03, -187500.02, 23688.96, -187500.02, -187500.02, 0.000, 0.000, 0.000, 15:29:56.494, 1578576596494
251, -187500.02, -187500.02, -187500.02, -187500.02, -187500.02, -187500.02, -187500.02, -187500.02, 0.000, 0.000, 0.000, 15:29:56.495, 1578576596495
252, 187500.00, 187500.00, 187500.00, -27728.08, -187500.02, 23695.26, -187500.02, -187500.02, 0.000, 0.000, 0.000, 15:29:56.495, 1578576596495
253, -187500.02, -187500.02, -187500.02, -187500.02, -187500.02, -187500.02, -187500.02, -187500.02, 0.000, 0.000, 0.000, 15:29:56.495, 1578576596495
254, 187500.00, 187500.00, 187500.00, -27733.80, -187500.02, 23688.87, -187500.02, -187500.02, 0.000, 0.000, 0.000, 15:29:56.495, 1578576596495
255, -187500.02, -187500.02, -187500.02, -187500.02, -187500.02, -187500.02, -187500.02, -187500.02, 0.000, 0.000, 0.000, 15:29:56.495, 1578576596495
0, 187500.00, 187500.00, 187500.00, -27729.51, -187500.02, 23699.55, -187500.02, -187500.02, 0.000, 0.000, 0.000, 15:29:56.495, 1578576596495
1, -187500.02, -187500.02, -187500.02, -187500.02, -187500.02, -187500.02, -187500.02, -187500.02, 0.000, 0.000, 0.000, 15:29:56.495, 1578576596495
2, 187500.00, 187500.00, 187500.00, -27733.71, -187500.02, 23691.96, -187500.02, -187500.02, 0.000, 0.000, 0.000, 15:29:56.495, 1578576596495
3, -187500.02, -187500.02, -187500.02, -187500.02, -187500.02, -187500.02, -187500.02, -187500.02, -0.020, -0.014, 0.976, 15:29:56.495, 1578576596495
4, 187500.00, 187500.00, 187500.00, -27739.41, -187500.02, 23686.19, -187500.02, -187500.02, 0.000, 0.000, 0.000, 15:29:56.495, 1578576596495
5, -187500.02, -187500.02, -187500.02, -187500.02, -187500.02, -187500.02, -187500.02, -187500.02, 0.000, 0.000, 0.000, 15:29:56.495, 1578576596495
6, 187500.00, 187500.00, 187500.00, -27726.18, -187500.02, 23700.31, -187500.02, -187500.02, 0.000, 0.000, 0.000, 15:29:56.495, 1578576596495
7, -187500.02, -187500.02, -187500.02, -187500.02, -187500.02, -187500.02, -187500.02, -187500.02, 0.000, 0.000, 0.000, 15:29:56.495, 1578576596495
8, 187500.00, 187500.00, 187500.00, -27736.21, -187500.02, 23699.71, -187500.02, -187500.02, 0.000, 0.000, 0.000, 15:29:56.495, 1578576596495
9, -187500.02, -187500.02, -187500.02, -187500.02, -187500.02, -187500.02, -187500.02, -187500.02, 0.000, 0.000, 0.000, 15:29:56.495, 1578576596495
10, 187500.00, 187500.00, 187500.00, -27726.64, -187500.02, 23699.78, -187500.02, -187500.02, 0.000, 0.000, 0.000, 15:29:56.495, 1578576596495
11, -187500.02, -187500.02, -187500.02, -187500.02, -187500.02, -187500.02, -187500.02, -187500.02, 0.000, 0.000, 0.000, 15:29:56.495, 1578576596495
12, 187500.00, 187500.00, 187500.00, -27725.46, -187500.02, 23703.04, -187500.02, -187500.02, 0.000, 0.000, 0.000, 15:29:56.495, 1578576596495
13, -187500.02, -187500.02, -187500.02, -187500.02, -187500.02, -187500.02, -187500.02, -187500.02, -0.018, -0.014, 0.978, 15:29:56.496, 1578576596496
14, 187500.00, 187500.00, 187500.00, -27731.79, -187500.02, 23704.20, -187500.02, -187500.02, 0.000, 0.000, 0.000, 15:29:56.496, 1578576596496
15, -187500.02, -187500.02, -187500.02, -187500.02, -187500.02, -187500.02, -187500.02, -187500.02, 0.000, 0.000, 0.000, 15:29:56.496, 1578576596496
16, 187500.00, 187500.00, 187500.00, -27733.55, -187500.02, 23703.33, -187500.02, -187500.02, 0.000, 0.000, 0.000, 15:29:56.496, 1578576596496
17, -187500.02, -187500.02, -187500.02, -187500.02, -187500.02, -187500.02, -187500.02, -187500.02, 0.000, 0.000, 0.000, 15:29:56.496, 1578576596496
18, 187500.00, 187500.00, 187500.00, -27732.93, -187500.02, 23701.65, -187500.02, -187500.02, 0.000, 0.000, 0.000, 15:29:56.496, 1578576596496
19, -187500.02, -187500.02, -187500.02, -187500.02, -187500.02, -187500.02, -187500.02, -187500.02, 0.000, 0.000, 0.000, 15:29:56.496, 1578576596496
20, 187500.00, 187500.00, 187500.00, -27732.88, -187500.02, 23702.48, -187500.02, -187500.02, 0.000, 0.000, 0.000, 15:29:56.496, 1578576596496
21, -187500.02, -187500.02, -187500.02, -187500.02, -187500.02, -187500.02, -187500.02, -187500.02, 0.000, 0.000, 0.000, 15:29:56.496, 1578576596496
22, 187500.00, 187500.00, 187500.00, -27734.38, -187500.02, 23696.13, -187500.02, -187500.02, 0.000, 0.000, 0.000, 15:29:56.496, 1578576596496
23, -187500.02, -187500.02, -187500.02, -187500.02, -187500.02, -187500.02, -187500.02, -187500.02, -0.022, -0.014, 0.976, 15:29:56.496, 1578576596496
24, 187500.00, 187500.00, 187500.00, -27726.51, -187500.02, 23708.16, -187500.02, -187500.02, 0.000, 0.000, 0.000, 15:29:56.496, 1578576596496
25, -187500.02, -187500.02, -187500.02, -187500.02, -187500.02, -187500.02, -187500.02, -187500.02, 0.000, 0.000, 0.000, 15:29:56.496, 1578576596496
26, 187500.00, 187500.00, 187500.00, -27735.70, -187500.02, 23703.49, -187500.02, -187500.02, 0.000, 0.000, 0.000, 15:29:56.496, 1578576596496
27, -187500.02, -187500.02, -187500.02, -187500.02, -187500.02, -187500.02, -187500.02, -187500.02, 0.000, 0.000, 0.000, 15:29:56.496, 1578576596496
28, 187500.00, 187500.00, 187500.00, -27739.36, -187500.02, 23698.57, -187500.02, -187500.02, 0.000, 0.000, 0.000, 15:29:56.496, 1578576596496
29, -187500.02, -187500.02, -187500.02, -187500.02, -187500.02, -187500.02, -187500.02, -187500.02, 0.000, 0.000, 0.000, 15:29:56.496, 1578576596496
30, 187500.00, 187500.00, 187500.00, -27734.56, -187500.02, 23701.70, -187500.02, -187500.02, 0.000, 0.000, 0.000, 15:29:56.497, 1578576596497
31, -187500.02, -187500.02, -187500.02, -187500.02, -187500.02, -187500.02, -187500.02, -187500.02, 0.000, 0.000, 0.000, 15:29:56.497, 1578576596497
32, 187500.00, 187500.00, 187500.00, -27732.26, -187500.02, 23700.76, -187500.02, -187500.02, -0.016, -0.012, 0.972, 15:29:56.497, 1578576596497
33, -187500.02, -187500.02, -187500.02, -187500.02, -187500.02, -187500.02, -187500.02, -187500.02, 0.000, 0.000, 0.000, 15:29:56.497, 1578576596497
34, 187500.00, 187500.00, 187500.00, -27732.43, -187500.02, 23699.08, -187500.02, -187500.02, 0.000, 0.000, 0.000, 15:29:56.497, 1578576596497
35, -187500.02, -187500.02, -187500.02, -187500.02, -187500.02, -187500.02, -187500.02, -187500.02, 0.000, 0.000, 0.000, 15:29:56.497, 1578576596497
36, 187500.00, 187500.00, 187500.00, -27734.07, -187500.02, 23703.82, -187500.02, -187500.02, 0.000, 0.000, 0.000, 15:29:56.497, 1578576596497
37, -187500.02, -187500.02, -187500.02, -187500.02, -187500.02, -187500.02, -187500.02, -187500.02, 0.000, 0.000, 0.000, 15:29:56.497, 1578576596497
38, 187500.00, 187500.00, 187500.00, -27741.17, -187500.02, 23701.10, -187500.02, -187500.02, 0.000, 0.000, 0.000, 15:29:56.497, 1578576596497
39, -187500.02, -187500.02, -187500.02, -187500.02, -187500.02, -187500.02, -187500.02, -187500.02, 0.000, 0.000, 0.000, 15:29:56.497, 1578576596497
40, 187500.00, 187500.00, 187500.00, -27740.86, -187500.02, 23700.18, -187500.02, -187500.02, 0.000, 0.000, 0.000, 15:29:56.497, 1578576596497
41, -187500.02, -187500.02, -187500.02, -187500.02, -187500.02, -187500.02, -187500.02, -187500.02, 0.000, 0.000, 0.000, 15:29:56.497, 1578576596497
42, 187500.00, 187500.00, 187500.00, -27739.38, -187500.02, 23700.69, -187500.02, -187500.02, -0.004, -0.014, 0.994, 15:29:56.497, 1578576596497
43, -187500.02, -187500.02, -187500.02, -187500.02, -187500.02, -187500.02, -187500.02, -187500.02, 0.000, 0.000, 0.000, 15:29:56.497, 1578576596497
44, 187500.00, 187500.00, 187500.00, -27747.25, -187500.02, 23693.54, -187500.02, -187500.02, 0.000, 0.000, 0.000, 15:29:56.497, 1578576596497
45, -187500.02, -187500.02, -187500.02, -187500.02, -187500.02, -187500.02, -187500.02, -187500.02, 0.000, 0.000, 0.000, 15:29:56.497, 1578576596497
46, 187500.00, 187500.00, 187500.00, -27724.83, -187500.02, 23709.17, -187500.02, -187500.02, 0.000, 0.000, 0.000, 15:29:56.497, 1578576596497
47, -187500.02, -187500.02, -187500.02, -187500.02, -187500.02, -187500.02, -187500.02, -187500.02, 0.000, 0.000, 0.000, 15:29:56.498, 1578576596498
48, 187500.00, 187500.00, 187500.00, -27723.52, -187500.02, 23710.33, -187500.02, -187500.02, 0.000, 0.000, 0.000, 15:29:56.498, 1578576596498
49, -187500.02, -187500.02, -187500.02, -187500.02, -187500.02, -187500.02, -187500.02, -187500.02, 0.000, 0.000, 0.000, 15:29:56.498, 1578576596498
50, 187500.00, 187500.00, 187500.00, -27735.07, -187500.02, 23706.19, -187500.02, -187500.02, 0.000, 0.000, 0.000, 15:29:56.498, 1578576596498
51, -187500.02, -187500.02, -187500.02, -187500.02, -187500.02, -187500.02, -187500.02, -187500.02, 0.000, 0.000, 0.000, 15:29:56.498, 1578576596498
52, 187500.00, 187500.00, 187500.00, -27733.84, -187500.02, 23702.84, -187500.02, -187500.02, -0.026, -0.026, 0.970, 15:29:56.498, 1578576596498
53, -187500.02, -187500.02, -187500.02, -187500.02, -187500.02, -187500.02, -187500.02, -187500.02, 0.000, 0.000, 0.000, 15:29:56.498, 1578576596498
54, 187500.00, 187500.00, 187500.00, -27741.78, -187500.02, 23696.34, -187500.02, -187500.02, 0.000, 0.000, 0.000, 15:29:56.498, 1578576596498
55, -187500.02, -187500.02, -187500.02, -187500.02, -187500.02, -187500.02, -187500.02, -187500.02, 0.000, 0.000, 0.000, 15:29:56.498, 1578576596498
56, 187500.00, 187500.00, 187500.00, -27727.56, -187500.02, 23706.53, -187500.02, -187500.02, 0.000, 0.000, 0.000, 15:29:56.498, 1578576596498
57, -187500.02, -187500.02, -187500.02, -187500.02, -187500.02, -187500.02, -187500.02, -187500.02, 0.000, 0.000, 0.000, 15:29:56.498, 1578576596498
58, 187500.00, 187500.00, 187500.00, -27728.08, -187500.02, 23705.50, -187500.02, -187500.02, 0.000, 0.000, 0.000, 15:29:56.498, 1578576596498
59, -187500.02, -187500.02, -187500.02, -187500.02, -187500.02, -187500.02, -187500.02, -187500.02, 0.000, 0.000, 0.000, 15:29:56.498, 1578576596498
60, 187500.00, 187500.00, 187500.00, -27732.90, -187500.02, 23702.91, -187500.02, -187500.02, 0.000, 0.000, 0.000, 15:29:56.499, 1578576596499
61, -187500.02, -187500.02, -187500.02, -187500.02, -187500.02, -187500.02, -187500.02, -187500.02, 0.000, 0.000, 0.000, 15:29:56.499, 1578576596499
62, 187500.00, 187500.00, 187500.00, -27736.32, -187500.02, 23696.83, -187500.02, -187500.02, -0.026, -0.028, 0.972, 15:29:56.499, 1578576596499
63, -187500.02, -187500.02, -187500.02, -187500.02, -187500.02, -187500.02, -187500.02, -187500.02, 0.000, 0.000, 0.000, 15:29:56.499, 1578576596499
64, 187500.00, 187500.00, 187500.00, -27730.38, -187500.02, 23697.47, -187500.02, -187500.02, 0.000, 0.000, 0.000, 15:29:56.499, 1578576596499
65, -187500.02, -187500.02, -187500.02, -187500.02, -187500.02, -187500.02, -187500.02, -187500.02, 0.000, 0.000, 0.000, 15:29:56.499, 1578576596499
66, 187500.00, 187500.00, 187500.00, -27716.45, -187500.02, 23711.94, -187500.02, -187500.02, 0.000, 0.000, 0.000, 15:29:56.499, 1578576596499
67, -187500.02, -187500.02, -187500.02, -187500.02, -187500.02, -187500.02, -187500.02, -187500.02, 0.000, 0.000, 0.000, 15:29:56.499, 1578576596499
68, 187500.00, 187500.00, 187500.00, -27718.38, -187500.02, 23695.29, -187500.02, -187500.02, 0.000, 0.000, 0.000, 15:29:56.499, 1578576596499
69, -187500.02, -187500.02, -187500.02, -187500.02, -187500.02, -187500.02, -187500.02, -187500.02, 0.000, 0.000, 0.000, 15:29:56.500, 1578576596500
70, 187500.00, 187500.00, 187500.00, -27728.68, -187500.02, 23638.04, -187500.02, -187500.02, 0.000, 0.000, 0.000, 15:29:56.500, 1578576596500
71, -187500.02, -187500.02, -187500.02, -187500.02, -187500.02, -187500.02, -187500.02, -187500.02, -0.020, -0.018, 0.974, 15:29:56.500, 1578576596500
72, 187500.00, 187500.00, 187500.00, -27720.83, -187500.02, 23602.62, -187500.02, -187500.02, 0.000, 0.000, 0.000, 15:29:56.501, 1578576596501
73, -187500.02, -187500.02, -187500.02, -187500.02, -187500.02, -187500.02, -187500.02, -187500.02, 0.000, 0.000, 0.000, 15:29:56.501, 1578576596501
74, 187500.00, 187500.00, 187500.00, -27730.69, -187500.02, 23570.63, -187500.02, -187500.02, 0.000, 0.000, 0.000, 15:29:56.501, 1578576596501
75, -187500.02, -187500.02, -187500.02, -187500.02, -187500.02, -187500.02, -187500.02, -187500.02, 0.000, 0.000, 0.000, 15:29:56.501, 1578576596501
76, 187500.00, 187500.00, 187500.00, -27729.24, -187500.02, 23548.99, -187500.02, -187500.02, 0.000, 0.000, 0.000, 15:29:56.501, 1578576596501
77, -187500.02, -187500.02, -187500.02, -187500.02, -187500.02, -187500.02, -187500.02, -187500.02, 0.000, 0.000, 0.000, 15:29:56.501, 1578576596501
78, 187500.00, 187500.00, 187500.00, -27717.17, -187500.02, 23541.84, -187500.02, -187500.02, 0.000, 0.000, 0.000, 15:29:56.501, 1578576596501
79, -187500.02, -187500.02, -187500.02, -187500.02, -187500.02, -187500.02, -187500.02, -187500.02, 0.000, 0.000, 0.000, 15:29:56.501, 1578576596501
80, 187500.00, 187500.00, 187500.00, -27721.77, -187500.02, 23546.11, -187500.02, -187500.02, 0.000, 0.000, 0.000, 15:29:56.502, 1578576596502
81, -187500.02, -187500.02, -187500.02, -187500.02, -187500.02, -187500.02, -187500.02, -187500.02, -0.028, -0.016, 0.972, 15:29:56.502, 1578576596502
82, 187500.00, 187500.00, 187500.00, -27730.09, -187500.02, 23549.44, -187500.02, -187500.02, 0.000, 0.000, 0.000, 15:29:56.502, 1578576596502
83, -187500.02, -187500.02, -187500.02, -187500.02, -187500.02, -187500.02, -187500.02, -187500.02, 0.000, 0.000, 0.000, 15:29:56.502, 1578576596502
84, 187500.00, 187500.00, 187500.00, -27721.59, -187500.02, 23563.48, -187500.02, -187500.02, 0.000, 0.000, 0.000, 15:29:56.502, 1578576596502
85, -187500.02, -187500.02, -187500.02, -187500.02, -187500.02, -187500.02, -187500.02, -187500.02, 0.000, 0.000, 0.000, 15:29:56.502, 1578576596502
86, 187500.00, 187500.00, 187500.00, -27719.80, -187500.02, 23565.67, -187500.02, -187500.02, 0.000, 0.000, 0.000, 15:29:56.502, 1578576596502
87, -187500.02, -187500.02, -187500.02, -187500.02, -187500.02, -187500.02, -187500.02, -187500.02, 0.000, 0.000, 0.000, 15:29:56.502, 1578576596502
88, 187500.00, 187500.00, 187500.00, -27721.17, -187500.02, 23566.27, -187500.02, -187500.02, 0.000, 0.000, 0.000, 15:29:56.502, 1578576596502
89, -187500.02, -187500.02, -187500.02, -187500.02, -187500.02, -187500.02, -187500.02, -187500.02, 0.000, 0.000, 0.000, 15:29:56.502, 1578576596502
90, 187500.00, 187500.00, 187500.00, -27717.82, -187500.02, 23570.90, -187500.02, -187500.02, 0.000, 0.000, 0.000, 15:29:56.968, 1578576596968
91, -187500.02, -187500.02, -187500.02, -187500.02, -187500.02, -187500.02, -187500.02, -187500.02, -0.022, -0.018, 0.976, 15:29:56.969, 1578576596969
92, 187500.00, 187500.00, 187500.00, -27712.70, -187500.02, 23573.65, -187500.02, -187500.02, 0.000, 0.000, 0.000, 15:29:56.969, 1578576596969
93, -187500.02, -187500.02, -187500.02, -187500.02, -187500.02, -187500.02, -187500.02, -187500.02, 0.000, 0.000, 0.000, 15:29:56.969, 1578576596969
94, 187500.00, 187500.00, 187500.00, -27720.72, -187500.02, 23568.44, -187500.02, -187500.02, 0.000, 0.000, 0.000, 15:29:56.969, 1578576596969
95, -187500.02, -187500.02, -187500.02, -187500.02, -187500.02, -187500.02, -187500.02, -187500.02, 0.000, 0.000, 0.000, 15:29:56.969, 1578576596969
96, 187500.00, 187500.00, 187500.00, -27714.15, -187500.02, 23581.54, -187500.02, -187500.02, 0.000, 0.000, 0.000, 15:29:56.969, 1578576596969
97, -187500.02, -187500.02, -187500.02, -187500.02, -187500.02, -187500.02, -187500.02, -187500.02, 0.000, 0.000, 0.000, 15:29:56.969, 1578576596969
98, 187500.00, 187500.00, 187500.00, -27713.44, -187500.02, 23578.90, -187500.02, -187500.02, 0.000, 0.000, 0.000, 15:29:56.969, 1578576596969
99, -187500.02, -187500.02, -187500.02, -187500.02, -187500.02, -187500.02, -187500.02, -187500.02, 0.000, 0.000, 0.000, 15:29:56.969, 1578576596969
100, 187500.00, 187500.00, 187500.00, -27719.94, -187500.02, 23580.93, -187500.02, -187500.02, 0.000, 0.000, 0.000, 15:29:56.969, 1578576596969
101, -187500.02, -187500.02, -187500.02, -187500.02, -187500.02, -187500.02, -187500.02, -187500.02, -0.018, -0.020, 0.980, 15:29:56.969, 1578576596969
102, 187500.00, 187500.00, 187500.00, -27720.88, -187500.02, 23586.34, -187500.02, -187500.02, 0.000, 0.000, 0.000, 15:29:56.969, 1578576596969
103, -187500.02, -187500.02, -187500.02, -187500.02, -187500.02, -187500.02, -187500.02, -187500.02, 0.000, 0.000, 0.000, 15:29:56.969, 1578576596969
104, 187500.00, 187500.00, 187500.00, -27715.80, -187500.02, 23594.72, -187500.02, -187500.02, 0.000, 0.000, 0.000, 15:29:56.969, 1578576596969
105, -187500.02, -187500.02, -187500.02, -187500.02, -187500.02, -187500.02, -187500.02, -187500.02, 0.000, 0.000, 0.000, 15:29:56.969, 1578576596969
106, 187500.00, 187500.00, 187500.00, -27704.43, -187500.02, 23603.38, -187500.02, -187500.02, 0.000, 0.000, 0.000, 15:29:56.970, 1578576596970
107, -187500.02, -187500.02, -187500.02, -187500.02, -187500.02, -187500.02, -187500.02, -187500.02, 0.000, 0.000, 0.000, 15:29:56.970, 1578576596970
108, 187500.00, 187500.00, 187500.00, -27709.17, -187500.02, 23593.32, -187500.02, -187500.02, 0.000, 0.000, 0.000, 15:29:56.970, 1578576596970
109, -187500.02, -187500.02, -187500.02, -187500.02, -187500.02, -187500.02, -187500.02, -187500.02, 0.000, 0.000, 0.000, 15:29:56.970, 1578576596970
110, 187500.00, 187500.00, 187500.00, -27710.17, -187500.02, 23597.23, -187500.02, -187500.02, -0.018, -0.026, 0.978, 15:29:56.970, 1578576596970
111, -187500.02, -187500.02, -187500.02, -187500.02, -187500.02, -187500.02, -187500.02, -187500.02, 0.000, 0.000, 0.000, 15:29:56.970, 1578576596970
112, 187500.00, 187500.00, 187500.00, -27714.11, -187500.02, 23592.02, -187500.02, -187500.02, 0.000, 0.000, 0.000, 15:29:56.970, 1578576596970
113, -187500.02, -187500.02, -187500.02, -187500.02, -187500.02, -187500.02, -187500.02, -187500.02, 0.000, 0.000, 0.000, 15:29:56.970, 1578576596970
114, 187500.00, 187500.00, 187500.00, -27707.42, -187500.02, 23603.51, -187500.02, -187500.02, 0.000, 0.000, 0.000, 15:29:56.970, 1578576596970
115, -187500.02, -187500.02, -187500.02, -187500.02, -187500.02, -187500.02, -187500.02, -187500.02, 0.000, 0.000, 0.000, 15:29:56.970, 1578576596970
116, 187500.00, 187500.00, 187500.00, -27709.35, -187500.02, 23595.10, -187500.02, -187500.02, 0.000, 0.000, 0.000, 15:29:56.970, 1578576596970
117, -187500.02, -187500.02, -187500.02, -187500.02, -187500.02, -187500.02, -187500.02, -187500.02, 0.000, 0.000, 0.000, 15:29:56.970, 1578576596970
118, 187500.00, 187500.00, 187500.00, -27701.30, -187500.02, 23597.76, -187500.02, -187500.02, 0.000, 0.000, 0.000, 15:29:56.970, 1578576596970
119, -187500.02, -187500.02, -187500.02, -187500.02, -187500.02, -187500.02, -187500.02, -187500.02, 0.000, 0.000, 0.000, 15:29:56.970, 1578576596970
120, 187500.00, 187500.00, 187500.00, -27706.42, -187500.02, 23598.68, -187500.02, -187500.02, -0.016, -0.024, 0.972, 15:29:56.970, 1578576596970
121, -187500.02, -187500.02, -187500.02, -187500.02, -187500.02, -187500.02, -187500.02, -187500.02, 0.000, 0.000, 0.000, 15:29:56.970, 1578576596970
122, 187500.00, 187500.00, 187500.00, -27717.28, -187500.02, 23560.88, -187500.02, -187500.02, 0.000, 0.000, 0.000, 15:29:56.970, 1578576596970
123, -187500.02, -187500.02, -187500.02, -187500.02, -187500.02, -187500.02, -187500.02, -187500.02, 0.000, 0.000, 0.000, 15:29:56.970, 1578576596970
124, 187500.00, 187500.00, 187500.00, -27702.59, -187500.02, 23570.43, -187500.02, -187500.02, 0.000, 0.000, 0.000, 15:29:56.970, 1578576596970
125, -187500.02, -187500.02, -187500.02, -187500.02, -187500.02, -187500.02, -187500.02, -187500.02, 0.000, 0.000, 0.000, 15:29:56.970, 1578576596970
126, 187500.00, 187500.00, 187500.00, -27711.69, -187500.02, 23561.51, -187500.02, -187500.02, 0.000, 0.000, 0.000, 15:29:56.970, 1578576596970
127, -187500.02, -187500.02, -187500.02, -187500.02, -187500.02, -187500.02, -187500.02, -187500.02, 0.000, 0.000, 0.000, 15:29:56.970, 1578576596970
128, 187500.00, 187500.00, 187500.00, -27703.02, -187500.02, 23571.61, -187500.02, -187500.02, 0.000, 0.000, 0.000, 15:29:56.970, 1578576596970
129, -187500.02, -187500.02, -187500.02, -187500.02, -187500.02, -187500.02, -187500.02, -187500.02, 0.000, 0.000, 0.000, 15:29:56.970, 1578576596970
130, 187500.00, 187500.00, 187500.00, -27716.63, -187500.02, 23572.86, -187500.02, -187500.02, -0.016, -0.018, 0.974, 15:29:56.971, 1578576596971
131, -187500.02, -187500.02, -187500.02, -187500.02, -187500.02, -187500.02, -187500.02, -187500.02, 0.000, 0.000, 0.000, 15:29:56.971, 1578576596971
132, 187500.00, 187500.00, 187500.00, -27705.57, -187500.02, 23578.68, -187500.02, -187500.02, 0.000, 0.000, 0.000, 15:29:56.971, 1578576596971
133, -187500.02, -187500.02, -187500.02, -187500.02, -187500.02, -187500.02, -187500.02, -187500.02, 0.000, 0.000, 0.000, 15:29:56.971, 1578576596971
134, 187500.00, 187500.00, 187500.00, -27706.44, -187500.02, 23574.90, -187500.02, -187500.02, 0.000, 0.000, 0.000, 15:29:56.971, 1578576596971
135, -187500.02, -187500.02, -187500.02, -187500.02, -187500.02, -187500.02, -187500.02, -187500.02, 0.000, 0.000, 0.000, 15:29:56.971, 1578576596971
136, 187500.00, 187500.00, 187500.00, -27704.63, -187500.02, 23575.37, -187500.02, -187500.02, 0.000, 0.000, 0.000, 15:29:56.971, 1578576596971
137, -187500.02, -187500.02, -187500.02, -187500.02, -187500.02, -187500.02, -187500.02, -187500.02, 0.000, 0.000, 0.000, 15:29:56.971, 1578576596971
138, 187500.00, 187500.00, 187500.00, -27699.46, -187500.02, 23578.79, -187500.02, -187500.02, 0.000, 0.000, 0.000, 15:29:56.971, 1578576596971
139, -187500.02, -187500.02, -187500.02, -187500.02, -187500.02, -187500.02, -187500.02, -187500.02, 0.000, 0.000, 0.000, 15:29:56.971, 1578576596971
140, 187500.00, 187500.00, 187500.00, -27703.29, -187500.02, 23577.29, -187500.02, -187500.02, -0.014, -0.018, 0.968, 15:29:56.971, 1578576596971
141, -187500.02, -187500.02, -187500.02, -187500.02, -187500.02, -187500.02, -187500.02, -187500.02, 0.000, 0.000, 0.000, 15:29:56.971, 1578576596971
142, 187500.00, 187500.00, 187500.00, -27699.82, -187500.02, 23577.07, -187500.02, -187500.02, 0.000, 0.000, 0.000, 15:29:56.971, 1578576596971
143, -187500.02, -187500.02, -187500.02, -187500.02, -187500.02, -187500.02, -187500.02, -187500.02, 0.000, 0.000, 0.000, 15:29:56.972, 1578576596972
144, 187500.00, 187500.00, 187500.00, -27697.28, -187500.02, 23581.49, -187500.02, -187500.02, 0.000, 0.000, 0.000, 15:29:56.972, 1578576596972
145, -187500.02, -187500.02, -187500.02, -187500.02, -187500.02, -187500.02, -187500.02, -187500.02, 0.000, 0.000, 0.000, 15:29:56.972, 1578576596972
146, 187500.00, 187500.00, 187500.00, -27696.27, -187500.02, 23576.98, -187500.02, -187500.02, 0.000, 0.000, 0.000, 15:29:56.972, 1578576596972
147, -187500.02, -187500.02, -187500.02, -187500.02, -187500.02, -187500.02, -187500.02, -187500.02, 0.000, 0.000, 0.000, 15:29:56.973, 1578576596973
148, 187500.00, 187500.00, 187500.00, -27691.51, -187500.02, 23588.73, -187500.02, -187500.02, 0.000, 0.000, 0.000, 15:29:56.973, 1578576596973
149, -187500.02, -187500.02, -187500.02, -187500.02, -187500.02, -187500.02, -187500.02, -187500.02, -0.016, -0.014, 0.978, 15:29:56.973, 1578576596973
150, 187500.00, 187500.00, 187500.00, -27697.81, -187500.02, 23580.35, -187500.02, -187500.02, 0.000, 0.000, 0.000, 15:29:56.973, 1578576596973
151, -187500.02, -187500.02, -187500.02, -187500.02, -187500.02, -187500.02, -187500.02, -187500.02, 0.000, 0.000, 0.000, 15:29:56.973, 1578576596973
152, 187500.00, 187500.00, 187500.00, -27691.78, -187500.02, 23583.75, -187500.02, -187500.02, 0.000, 0.000, 0.000, 15:29:56.973, 1578576596973
153, -187500.02, -187500.02, -187500.02, -187500.02, -187500.02, -187500.02, -187500.02, -187500.02, 0.000, 0.000, 0.000, 15:29:56.973, 1578576596973
154, 187500.00, 187500.00, 187500.00, -27693.16, -187500.02, 23583.32, -187500.02, -187500.02, 0.000, 0.000, 0.000, 15:29:56.973, 1578576596973
155, -187500.02, -187500.02, -187500.02, -187500.02, -187500.02, -187500.02, -187500.02, -187500.02, 0.000, 0.000, 0.000, 15:29:56.973, 1578576596973
156, 187500.00, 187500.00, 187500.00, -27691.73, -187500.02, 23587.48, -187500.02, -187500.02, 0.000, 0.000, 0.000, 15:29:56.973, 1578576596973
157, -187500.02, -187500.02, -187500.02, -187500.02, -187500.02, -187500.02, -187500.02, -187500.02, 0.000, 0.000, 0.000, 15:29:56.973, 1578576596973
158, 187500.00, 187500.00, 187500.00, -27698.57, -187500.02, 23583.46, -187500.02, -187500.02, 0.000, 0.000, 0.000, 15:29:56.973, 1578576596973
159, -187500.02, -187500.02, -187500.02, -187500.02, -187500.02, -187500.02, -187500.02, -187500.02, -0.024, -0.014, 0.980, 15:29:56.973, 1578576596973
160, 187500.00, 187500.00, 187500.00, -27696.89, -187500.02, 23577.11, -187500.02, -187500.02, 0.000, 0.000, 0.000, 15:29:56.973, 1578576596973
161, -187500.02, -187500.02, -187500.02, -187500.02, -187500.02, -187500.02, -187500.02, -187500.02, 0.000, 0.000, 0.000, 15:29:56.973, 1578576596973
162, 187500.00, 187500.00, 187500.00, -27691.87, -187500.02, 23578.90, -187500.02, -187500.02, 0.000, 0.000, 0.000, 15:29:56.973, 1578576596973
163, -187500.02, -187500.02, -187500.02, -187500.02, -187500.02, -187500.02, -187500.02, -187500.02, 0.000, 0.000, 0.000, 15:29:56.973, 1578576596973
164, 187500.00, 187500.00, 187500.00, -27693.38, -187500.02, 23574.47, -187500.02, -187500.02, 0.000, 0.000, 0.000, 15:29:56.973, 1578576596973
165, -187500.02, -187500.02, -187500.02, -187500.02, -187500.02, -187500.02, -187500.02, -187500.02, 0.000, 0.000, 0.000, 15:29:56.973, 1578576596973
166, 187500.00, 187500.00, 187500.00, -27695.17, -187500.02, 23576.20, -187500.02, -187500.02, 0.000, 0.000, 0.000, 15:29:56.973, 1578576596973
167, -187500.02, -187500.02, -187500.02, -187500.02, -187500.02, -187500.02, -187500.02, -187500.02, 0.000, 0.000, 0.000, 15:29:56.973, 1578576596973
168, 187500.00, 187500.00, 187500.00, -27684.04, -187500.02, 23582.70, -187500.02, -187500.02, 0.000, 0.000, 0.000, 15:29:56.973, 1578576596973
169, -187500.02, -187500.02, -187500.02, -187500.02, -187500.02, -187500.02, -187500.02, -187500.02, -0.018, -0.012, 0.978, 15:29:56.973, 1578576596973
170, 187500.00, 187500.00, 187500.00, -27684.74, -187500.02, 23584.08, -187500.02, -187500.02, 0.000, 0.000, 0.000, 15:29:56.973, 1578576596973
171, -187500.02, -187500.02, -187500.02, -187500.02, -187500.02, -187500.02, -187500.02, -187500.02, 0.000, 0.000, 0.000, 15:29:56.974, 1578576596974
172, 187500.00, 187500.00, 187500.00, -27690.17, -187500.02, 23576.89, -187500.02, -187500.02, 0.000, 0.000, 0.000, 15:29:56.974, 1578576596974
173, -187500.02, -187500.02, -187500.02, -187500.02, -187500.02, -187500.02, -187500.02, -187500.02, 0.000, 0.000, 0.000, 15:29:56.974, 1578576596974
174, 187500.00, 187500.00, 187500.00, -27691.87, -187500.02, 23581.94, -187500.02, -187500.02, 0.000, 0.000, 0.000, 15:29:56.974, 1578576596974
175, -187500.02, -187500.02, -187500.02, -187500.02, -187500.02, -187500.02, -187500.02, -187500.02, 0.000, 0.000, 0.000, 15:29:56.974, 1578576596974
176, 187500.00, 187500.00, 187500.00, -27693.86, -187500.02, 23581.76, -187500.02, -187500.02, 0.000, 0.000, 0.000, 15:29:56.974, 1578576596974
177, -187500.02, -187500.02, -187500.02, -187500.02, -187500.02, -187500.02, -187500.02, -187500.02, 0.000, 0.000, 0.000, 15:29:56.974, 1578576596974
178, 187500.00, 187500.00, 187500.00, -27692.89, -187500.02, 23577.31, -187500.02, -187500.02, 0.000, 0.000, 0.000, 15:29:56.974, 1578576596974
179, -187500.02, -187500.02, -187500.02, -187500.02, -187500.02, -187500.02, -187500.02, -187500.02, -0.018, -0.018, 0.982, 15:29:56.974, 1578576596974
180, 187500.00, 187500.00, 187500.00, -27691.11, -187500.02, 23577.45, -187500.02, -187500.02, 0.000, 0.000, 0.000, 15:29:56.974, 1578576596974
181, -187500.02, -187500.02, -187500.02, -187500.02, -187500.02, -187500.02, -187500.02, -187500.02, 0.000, 0.000, 0.000, 15:29:56.974, 1578576596974
182, 187500.00, 187500.00, 187500.00, -27689.34, -187500.02, 23576.06, -187500.02, -187500.02, 0.000, 0.000, 0.000, 15:29:56.974, 1578576596974
183, -187500.02, -187500.02, -187500.02, -187500.02, -187500.02, -187500.02, -187500.02, -187500.02, 0.000, 0.000, 0.000, 15:29:56.974, 1578576596974
184, 187500.00, 187500.00, 187500.00, -27692.78, -187500.02, 23579.82, -187500.02, -187500.02, 0.000, 0.000, 0.000, 15:29:56.974, 1578576596974
185, -187500.02, -187500.02, -187500.02, -187500.02, -187500.02, -187500.02, -187500.02, -187500.02, 0.000, 0.000, 0.000, 15:29:56.974, 1578576596974
186, 187500.00, 187500.00, 187500.00, -27696.43, -187500.02, 23578.43, -187500.02, -187500.02, 0.000, 0.000, 0.000, 15:29:56.974, 1578576596974
187, -187500.02, -187500.02, -187500.02, -187500.02, -187500.02, -187500.02, -187500.02, -187500.02, 0.000, 0.000, 0.000, 15:29:56.974, 1578576596974
188, 187500.00, 187500.00, 187500.00, -27699.71, -187500.02, 23574.25, -187500.02, -187500.02, -0.030, -0.014, 1.000, 15:29:56.974, 1578576596974
189, -187500.02, -187500.02, -187500.02, -187500.02, -187500.02, -187500.02, -187500.02, -187500.02, 0.000, 0.000, 0.000, 15:29:56.974, 1578576596974
190, 187500.00, 187500.00, 187500.00, -27693.86, -187500.02, 23575.50, -187500.02, -187500.02, 0.000, 0.000, 0.000, 15:29:56.974, 1578576596974
191, -187500.02, -187500.02, -187500.02, -187500.02, -187500.02, -187500.02, -187500.02, -187500.02, 0.000, 0.000, 0.000, 15:29:56.974, 1578576596974
192, 187500.00, 187500.00, 187500.00, -27691.80, -187500.02, 23574.83, -187500.02, -187500.02, 0.000, 0.000, 0.000, 15:29:56.974, 1578576596974
193, -187500.02, -187500.02, -187500.02, -187500.02, -187500.02, -187500.02, -187500.02, -187500.02, 0.000, 0.000, 0.000, 15:29:56.974, 1578576596974
194, 187500.00, 187500.00, 187500.00, -27697.90, -187500.02, 23570.81, -187500.02, -187500.02, 0.000, 0.000, 0.000, 15:29:56.974, 1578576596974
195, -187500.02, -187500.02, -187500.02, -187500.02, -187500.02, -187500.02, -187500.02, -187500.02, 0.000, 0.000, 0.000, 15:29:56.975, 1578576596975
196, 187500.00, 187500.00, 187500.00, -27693.12, -187500.02, 23573.33, -187500.02, -187500.02, 0.000, 0.000, 0.000, 15:29:56.975, 1578576596975
197, -187500.02, -187500.02, -187500.02, -187500.02, -187500.02, -187500.02, -187500.02, -187500.02, 0.000, 0.000, 0.000, 15:29:56.975, 1578576596975
198, 187500.00, 187500.00, 187500.00, -27694.57, -187500.02, 23571.46, -187500.02, -187500.02, -0.024, -0.014, 0.996, 15:29:56.975, 1578576596975
199, -187500.02, -187500.02, -187500.02, -187500.02, -187500.02, -187500.02, -187500.02, -187500.02, 0.000, 0.000, 0.000, 15:29:56.975, 1578576596975
200, 187500.00, 187500.00, 187500.00, -27689.27, -187500.02, 23571.57, -187500.02, -187500.02, 0.000, 0.000, 0.000, 15:29:56.975, 1578576596975
201, -187500.02, -187500.02, -187500.02, -187500.02, -187500.02, -187500.02, -187500.02, -187500.02, 0.000, 0.000, 0.000, 15:29:56.975, 1578576596975
202, 187500.00, 187500.00, 187500.00, -27700.52, -187500.02, 23563.99, -187500.02, -187500.02, 0.000, 0.000, 0.000, 15:29:56.975, 1578576596975
203, -187500.02, -187500.02, -187500.02, -187500.02, -187500.02, -187500.02, -187500.02, -187500.02, 0.000, 0.000, 0.000, 15:29:56.975, 1578576596975
204, 187500.00, 187500.00, 187500.00, -27697.90, -187500.02, 23568.66, -187500.02, -187500.02, 0.000, 0.000, 0.000, 15:29:56.975, 1578576596975
205, -187500.02, -187500.02, -187500.02, -187500.02, -187500.02, -187500.02, -187500.02, -187500.02, 0.000, 0.000, 0.000, 15:29:56.975, 1578576596975
206, 187500.00, 187500.00, 187500.00, -27696.04, -187500.02, 23567.41, -187500.02, -187500.02, 0.000, 0.000, 0.000, 15:29:56.975, 1578576596975
207, -187500.02, -187500.02, -187500.02, -187500.02, -187500.02, -187500.02, -187500.02, -187500.02, 0.000, 0.000, 0.000, 15:29:56.975, 1578576596975
208, 187500.00, 187500.00, 187500.00, -27681.61, -187500.02, 23574.99, -187500.02, -187500.02, -0.026, -0.014, 0.976, 15:29:56.975, 1578576596975
209, -187500.02, -187500.02, -187500.02, -187500.02, -187500.02, -187500.02, -187500.02, -187500.02, 0.000, 0.000, 0.000, 15:29:56.975, 1578576596975
210, 187500.00, 187500.00, 187500.00, -27703.31, -187500.02, 23562.69, -187500.02, -187500.02, 0.000, 0.000, 0.000, 15:29:57.451, 1578576597451
211, -187500.02, -187500.02, -187500.02, -187500.02, -187500.02, -187500.02, -187500.02, -187500.02, 0.000, 0.000, 0.000, 15:29:57.451, 1578576597451
212, 187500.00, 187500.00, 187500.00, -27694.73, -187500.02, 23569.42, -187500.02, -187500.02, 0.000, 0.000, 0.000, 15:29:57.451, 1578576597451
213, -187500.02, -187500.02, -187500.02, -187500.02, -187500.02, -187500.02, -187500.02, -187500.02, 0.000, 0.000, 0.000, 15:29:57.452, 1578576597452
214, 187500.00, 187500.00, 187500.00, -27693.95, -187500.02, 23567.95, -187500.02, -187500.02, 0.000, 0.000, 0.000, 15:29:57.452, 1578576597452
215, -187500.02, -187500.02, -187500.02, -187500.02, -187500.02, -187500.02, -187500.02, -187500.02, 0.000, 0.000, 0.000, 15:29:57.452, 1578576597452
216, 187500.00, 187500.00, 187500.00, -27692.71, -187500.02, 23565.98, -187500.02, -187500.02, 0.000, 0.000, 0.000, 15:29:57.452, 1578576597452
217, -187500.02, -187500.02, -187500.02, -187500.02, -187500.02, -187500.02, -187500.02, -187500.02, 0.000, 0.000, 0.000, 15:29:57.452, 1578576597452
218, 187500.00, 187500.00, 187500.00, -27686.77, -187500.02, 23570.25, -187500.02, -187500.02, -0.020, -0.014, 0.978, 15:29:57.452, 1578576597452
219, -187500.02, -187500.02, -187500.02, -187500.02, -187500.02, -187500.02, -187500.02, -187500.02, 0.000, 0.000, 0.000, 15:29:57.452, 1578576597452
220, 187500.00, 187500.00, 187500.00, -27683.28, -187500.02, 23572.26, -187500.02, -187500.02, 0.000, 0.000, 0.000, 15:29:57.452, 1578576597452
221, -187500.02, -187500.02, -187500.02, -187500.02, -187500.02, -187500.02, -187500.02, -187500.02, 0.000, 0.000, 0.000, 15:29:57.452, 1578576597452
222, 187500.00, 187500.00, 187500.00, -27688.56, -187500.02, 23564.13, -187500.02, -187500.02, 0.000, 0.000, 0.000, 15:29:57.452, 1578576597452
223, -187500.02, -187500.02, -187500.02, -187500.02, -187500.02, -187500.02, -187500.02, -187500.02, 0.000, 0.000, 0.000, 15:29:57.452, 1578576597452
224, 187500.00, 187500.00, 187500.00, -27690.81, -187500.02, 23562.31, -187500.02, -187500.02, 0.000, 0.000, 0.000, 15:29:57.452, 1578576597452
225, -187500.02, -187500.02, -187500.02, -187500.02, -187500.02, -187500.02, -187500.02, -187500.02, 0.000, 0.000, 0.000, 15:29:57.452, 1578576597452
226, 187500.00, 187500.00, 187500.00, -27688.85, -187500.02, 23570.85, -187500.02, -187500.02, 0.000, 0.000, 0.000, 15:29:57.452, 1578576597452
227, -187500.02, -187500.02, -187500.02, -187500.02, -187500.02, -187500.02, -187500.02, -187500.02, 0.000, 0.000, 0.000, 15:29:57.452, 1578576597452
228, 187500.00, 187500.00, 187500.00, -27680.87, -187500.02, 23572.35, -187500.02, -187500.02, -0.018, -0.016, 0.978, 15:29:57.452, 1578576597452
229, -187500.02, -187500.02, -187500.02, -187500.02, -187500.02, -187500.02, -187500.02, -187500.02, 0.000, 0.000, 0.000, 15:29:57.453, 1578576597453
230, 187500.00, 187500.00, 187500.00, -27680.87, -187500.02, 23563.77, -187500.02, -187500.02, 0.000, 0.000, 0.000, 15:29:57.453, 1578576597453
231, -187500.02, -187500.02, -187500.02, -187500.02, -187500.02, -187500.02, -187500.02, -187500.02, 0.000, 0.000, 0.000, 15:29:57.453, 1578576597453
232, 187500.00, 187500.00, 187500.00, -27685.12, -187500.02, 23547.94, -187500.02, -187500.02, 0.000, 0.000, 0.000, 15:29:57.453, 1578576597453
233, -187500.02, -187500.02, -187500.02, -187500.02, -187500.02, -187500.02, -187500.02, -187500.02, 0.000, 0.000, 0.000, 15:29:57.453, 1578576597453
234, 187500.00, 187500.00, 187500.00, -27692.54, -187500.02, 23537.28, -187500.02, -187500.02, 0.000, 0.000, 0.000, 15:29:57.453, 1578576597453
235, -187500.02, -187500.02, -187500.02, -187500.02, -187500.02, -187500.02, -187500.02, -187500.02, 0.000, 0.000, 0.000, 15:29:57.453, 1578576597453
236, 187500.00, 187500.00, 187500.00, -27688.31, -187500.02, 23540.59, -187500.02, -187500.02, 0.000, 0.000, 0.000, 15:29:57.453, 1578576597453
237, -187500.02, -187500.02, -187500.02, -187500.02, -187500.02, -187500.02, -187500.02, -187500.02, -0.020, -0.016, 0.984, 15:29:57.453, 1578576597453
238, 187500.00, 187500.00, 187500.00, -27690.93, -187500.02, 23541.66, -187500.02, -187500.02, 0.000, 0.000, 0.000, 15:29:57.453, 1578576597453
239, -187500.02, -187500.02, -187500.02, -187500.02, -187500.02, -187500.02, -187500.02, -187500.02, 0.000, 0.000, 0.000, 15:29:57.453, 1578576597453
240, 187500.00, 187500.00, 187500.00, -27684.74, -187500.02, 23548.59, -187500.02, -187500.02, 0.000, 0.000, 0.000, 15:29:57.453, 1578576597453
241, -187500.02, -187500.02, -187500.02, -187500.02, -187500.02, -187500.02, -187500.02, -187500.02, 0.000, 0.000, 0.000, 15:29:57.453, 1578576597453
242, 187500.00, 187500.00, 187500.00, -27686.95, -187500.02, 23546.33, -187500.02, -187500.02, 0.000, 0.000, 0.000, 15:29:57.453, 1578576597453
243, -187500.02, -187500.02, -187500.02, -187500.02, -187500.02, -187500.02, -187500.02, -187500.02, 0.000, 0.000, 0.000, 15:29:57.453, 1578576597453
244, 187500.00, 187500.00, 187500.00, -27682.01, -187500.02, 23544.21, -187500.02, -187500.02, 0.000, 0.000, 0.000, 15:29:57.453, 1578576597453
245, -187500.02, -187500.02, -187500.02, -187500.02, -187500.02, -187500.02, -187500.02, -187500.02, 0.000, 0.000, 0.000, 15:29:57.454, 1578576597454
246, 187500.00, 187500.00, 187500.00, -27682.79, -187500.02, 23539.98, -187500.02, -187500.02, 0.000, 0.000, 0.000, 15:29:57.454, 1578576597454
247, -187500.02, -187500.02, -187500.02, -187500.02, -187500.02, -187500.02, -187500.02, -187500.02, -0.022, -0.018, 0.978, 15:29:57.454, 1578576597454
248, 187500.00, 187500.00, 187500.00, -27680.69, -187500.02, 23545.24, -187500.02, -187500.02, 0.000, 0.000, 0.000, 15:29:57.454, 1578576597454
249, -187500.02, -187500.02, -187500.02, -187500.02, -187500.02, -187500.02, -187500.02, -187500.02, 0.000, 0.000, 0.000, 15:29:57.454, 1578576597454
250, 187500.00, 187500.00, 187500.00, -27681.32, -187500.02, 23550.71, -187500.02, -187500.02, 0.000, 0.000, 0.000, 15:29:57.454, 1578576597454
251, -187500.02, -187500.02, -187500.02, -187500.02, -187500.02, -187500.02, -187500.02, -187500.02, 0.000, 0.000, 0.000, 15:29:57.454, 1578576597454
252, 187500.00, 187500.00, 187500.00, -27690.97, -187500.02, 23538.64, -187500.02, -187500.02, 0.000, 0.000, 0.000, 15:29:57.454, 1578576597454
253, -187500.02, -187500.02, -187500.02, -187500.02, -187500.02, -187500.02, -187500.02, -187500.02, 0.000, 0.000, 0.000, 15:29:57.454, 1578576597454
254, 187500.00, 187500.00, 187500.00, -27682.32, -187500.02, 23547.70, -187500.02, -187500.02, 0.000, 0.000, 0.000, 15:29:57.454, 1578576597454
255, -187500.02, -187500.02, -187500.02, -187500.02, -187500.02, -187500.02, -187500.02, -187500.02, 0.000, 0.000, 0.000, 15:29:57.454, 1578576597454
0, 187500.00, 187500.00, 187500.00, -27683.28, -187500.02, 23544.16, -187500.02, -187500.02, 0.000, 0.000, 0.000, 15:29:57.454, 1578576597454
1, -187500.02, -187500.02, -187500.02, -187500.02, -187500.02, -187500.02, -187500.02, -187500.02, -0.014, -0.018, 0.980, 15:29:57.454, 1578576597454
2, 187500.00, 187500.00, 187500.00, -27669.25, -187500.02, 23553.75, -187500.02, -187500.02, 0.000, 0.000, 0.000, 15:29:57.454, 1578576597454
3, -187500.02, -187500.02, -187500.02, -187500.02, -187500.02, -187500.02, -187500.02, -187500.02, 0.000, 0.000, 0.000, 15:29:57.454, 1578576597454
4, 187500.00, 187500.00, 187500.00, -27676.18, -187500.02, 23548.05, -187500.02, -187500.02, 0.000, 0.000, 0.000, 15:29:57.454, 1578576597454
5, -187500.02, -187500.02, -187500.02, -187500.02, -187500.02, -187500.02, -187500.02, -187500.02, 0.000, 0.000, 0.000, 15:29:57.454, 1578576597454
6, 187500.00, 187500.00, 187500.00, -27673.83, -187500.02, 23553.53, -187500.02, -187500.02, 0.000, 0.000, 0.000, 15:29:57.454, 1578576597454
7, -187500.02, -187500.02, -187500.02, -187500.02, -187500.02, -187500.02, -187500.02, -187500.02, 0.000, 0.000, 0.000, 15:29:57.455, 1578576597455
8, 187500.00, 187500.00, 187500.00, -27678.52, -187500.02, 23551.96, -187500.02, -187500.02, 0.000, 0.000, 0.000, 15:29:57.455, 1578576597455
9, -187500.02, -187500.02, -187500.02, -187500.02, -187500.02, -187500.02, -187500.02, -187500.02, 0.000, 0.000, 0.000, 15:29:57.455, 1578576597455
10, 187500.00, 187500.00, 187500.00, -27681.67, -187500.02, 23549.57, -187500.02, -187500.02, 0.000, 0.000, 0.000, 15:29:57.455, 1578576597455
11, -187500.02, -187500.02, -187500.02, -187500.02, -187500.02, -187500.02, -187500.02, -187500.02, -0.016, -0.014, 0.980, 15:29:57.455, 1578576597455
12, 187500.00, 187500.00, 187500.00, -27673.00, -187500.02, 23560.01, -187500.02, -187500.02, 0.000, 0.000, 0.000, 15:29:57.455, 1578576597455
13, -187500.02, -187500.02, -187500.02, -187500.02, -187500.02, -187500.02, -187500.02, -187500.02, 0.000, 0.000, 0.000, 15:29:57.455, 1578576597455
14, 187500.00, 187500.00, 187500.00, -27672.29, -187500.02, 23559.45, -187500.02, -187500.02, 0.000, 0.000, 0.000, 15:29:57.455, 1578576597455
15, -187500.02, -187500.02, -187500.02, -187500.02, -187500.02, -187500.02, -187500.02, -187500.02, 0.000, 0.000, 0.000, 15:29:57.455, 1578576597455
16, 187500.00, 187500.00, 187500.00, -27672.35, -187500.02, 23556.59, -187500.02, -187500.02, 0.000, 0.000, 0.000, 15:29:57.455, 1578576597455
17, -187500.02, -187500.02, -187500.02, -187500.02, -187500.02, -187500.02, -187500.02, -187500.02, 0.000, 0.000, 0.000, 15:29:57.455, 1578576597455
18, 187500.00, 187500.00, 187500.00, -27686.37, -187500.02, 23543.92, -187500.02, -187500.02, 0.000, 0.000, 0.000, 15:29:57.455, 1578576597455
19, -187500.02, -187500.02, -187500.02, -187500.02, -187500.02, -187500.02, -187500.02, -187500.02, 0.000, 0.000, 0.000, 15:29:57.455, 1578576597455
20, 187500.00, 187500.00, 187500.00, -27677.65, -187500.02, 23554.18, -187500.02, -187500.02, -0.022, -0.022, 0.968, 15:29:57.455, 1578576597455
21, -187500.02, -187500.02, -187500.02, -187500.02, -187500.02, -187500.02, -187500.02, -187500.02, 0.000, 0.000, 0.000, 15:29:57.455, 1578576597455
22, 187500.00, 187500.00, 187500.00, -27684.71, -187500.02, 23550.20, -187500.02, -187500.02, 0.000, 0.000, 0.000, 15:29:57.455, 1578576597455
23, -187500.02, -187500.02, -187500.02, -187500.02, -187500.02, -187500.02, -187500.02, -187500.02, 0.000, 0.000, 0.000, 15:29:57.455, 1578576597455
24, 187500.00, 187500.00, 187500.00, -27670.27, -187500.02, 23559.95, -187500.02, -187500.02, 0.000, 0.000, 0.000, 15:29:57.455, 1578576597455
25, -187500.02, -187500.02, -187500.02, -187500.02, -187500.02, -187500.02, -187500.02, -187500.02, 0.000, 0.000, 0.000, 15:29:57.455, 1578576597455
26, 187500.00, 187500.00, 187500.00, -27672.67, -187500.02, 23553.64, -187500.02, -187500.02, 0.000, 0.000, 0.000, 15:29:57.455, 1578576597455
27, -187500.02, -187500.02, -187500.02, -187500.02, -187500.02, -187500.02, -187500.02, -187500.02, 0.000, 0.000, 0.000, 15:29:57.456, 1578576597456
28, 187500.00, 187500.00, 187500.00, -27679.28, -187500.02, 23552.39, -187500.02, -187500.02, 0.000, 0.000, 0.000, 15:29:57.456, 1578576597456
29, -187500.02, -187500.02, -187500.02, -187500.02, -187500.02, -187500.02, -187500.02, -187500.02, 0.000, 0.000, 0.000, 15:29:57.456, 1578576597456
30, 187500.00, 187500.00, 187500.00, -27682.52, -187500.02, 23551.18, -187500.02, -187500.02, -0.018, -0.022, 0.946, 15:29:57.456, 1578576597456
31, -187500.02, -187500.02, -187500.02, -187500.02, -187500.02, -187500.02, -187500.02, -187500.02, 0.000, 0.000, 0.000, 15:29:57.456, 1578576597456
32, 187500.00, 187500.00, 187500.00, -27680.91, -187500.02, 23550.29, -187500.02, -187500.02, 0.000, 0.000, 0.000, 15:29:57.456, 1578576597456
33, -187500.02, -187500.02, -187500.02, -187500.02, -187500.02, -187500.02, -187500.02, -187500.02, 0.000, 0.000, 0.000, 15:29:57.456, 1578576597456
34, 187500.00, 187500.00, 187500.00, -27675.41, -187500.02, 23552.35, -187500.02, -187500.02, 0.000, 0.000, 0.000, 15:29:57.456, 1578576597456
35, -187500.02, -187500.02, -187500.02, -187500.02, -187500.02, -187500.02, -187500.02, -187500.02, 0.000, 0.000, 0.000, 15:29:57.456, 1578576597456
36, 187500.00, 187500.00, 187500.00, -27682.41, -187500.02, 23547.27, -187500.02, -187500.02, 0.000, 0.000, 0.000, 15:29:57.456, 1578576597456
37, -187500.02, -187500.02, -187500.02, -187500.02, -187500.02, -187500.02, -187500.02, -187500.02, 0.000, 0.000, 0.000, 15:29:57.456, 1578576597456
38, 187500.00, 187500.00, 187500.00, -27681.16, -187500.02, 23554.07, -187500.02, -187500.02, 0.000, 0.000, 0.000, 15:29:57.456, 1578576597456
39, -187500.02, -187500.02, -187500.02, -187500.02, -187500.02, -187500.02, -187500.02, -187500.02, 0.000, 0.000, 0.000, 15:29:57.458, 1578576597458
40, 187500.00, 187500.00, 187500.00, -27669.00, -187500.02, 23561.76, -187500.02, -187500.02, -0.012, -0.018, 0.974, 15:29:57.458, 1578576597458
41, -187500.02, -187500.02, -187500.02, -187500.02, -187500.02, -187500.02, -187500.02, -187500.02, 0.000, 0.000, 0.000, 15:29:57.458, 1578576597458
42, 187500.00, 187500.00, 187500.00, -27665.29, -187500.02, 23566.25, -187500.02, -187500.02, 0.000, 0.000, 0.000, 15:29:57.458, 1578576597458
43, -187500.02, -187500.02, -187500.02, -187500.02, -187500.02, -187500.02, -187500.02, -187500.02, 0.000, 0.000, 0.000, 15:29:57.458, 1578576597458
44, 187500.00, 187500.00, 187500.00, -27676.15, -187500.02, 23557.84, -187500.02, -187500.02, 0.000, 0.000, 0.000, 15:29:57.458, 1578576597458
45, -187500.02, -187500.02, -187500.02, -187500.02, -187500.02, -187500.02, -187500.02, -187500.02, 0.000, 0.000, 0.000, 15:29:57.458, 1578576597458
46, 187500.00, 187500.00, 187500.00, -27668.87, -187500.02, 23559.95, -187500.02, -187500.02, 0.000, 0.000, 0.000, 15:29:57.459, 1578576597459
47, -187500.02, -187500.02, -187500.02, -187500.02, -187500.02, -187500.02, -187500.02, -187500.02, 0.000, 0.000, 0.000, 15:29:57.459, 1578576597459
