%OpenBCI Raw EEG Data
%Number of channels = 8
%Sample Rate = 250.0 Hz
%First Column = SampleIndex
%Last Column = Timestamp 
%Other Columns = EEG data in microvolts followed by Accel Data (in G) interleaved with Aux Data
0, -93750.01, -93750.01, -93750.01, -12199.02, -93750.01, 8986.92, -93750.01, -86490.72, -0.020, -0.012, 0.938, 15:38:01.013, 1578577081013
1, -56846.59, -41319.79, -85939.15, -85781.97, -59433.69, -53315.91, -85761.56, -86058.95, 0.000, 0.000, 0.000, 15:38:01.500, 1578577081500
2, -187500.02, -187500.02, -187500.02, -24429.81, -187500.02, 17944.56, -187500.02, -172344.66, 0.000, 0.000, 0.000, 15:38:01.500, 1578577081500
3, -113933.52, -82843.32, -171875.08, -171556.30, -119098.27, -106854.23, -171518.45, -172112.63, 0.000, 0.000, 0.000, 15:38:01.500, 1578577081500
4, -187500.02, -187500.02, -187500.02, -24414.47, -187500.02, 17964.12, -187500.02, -172315.56, 0.000, 0.000, 0.000, 15:38:01.500, 1578577081500
5, -114254.05, -83117.59, -171870.09, -171553.09, -119407.41, -107153.43, -171515.69, -172108.78, 0.000, 0.000, 0.000, 15:38:01.500, 1578577081500
6, -187500.02, -187500.02, -187500.02, -24420.80, -187500.02, 17952.63, -187500.02, -172287.83, 0.000, 0.000, 0.000, 15:38:01.500, 1578577081500
7, -114577.72, -83392.12, -171866.94, -171547.64, -119716.37, -107456.30, -171514.67, -172106.95, -0.018, -0.018, 0.960, 15:38:01.500, 1578577081500
8, -187500.02, -187500.02, -187500.02, -24400.93, -187500.02, 17971.38, -187500.02, -172260.73, 0.000, 0.000, 0.000, 15:38:01.500, 1578577081500
9, -114897.71, -83661.44, -171863.45, -171548.81, -120019.74, -107755.39, -171510.50, -172103.06, 0.000, 0.000, 0.000, 15:38:01.500, 1578577081500
10, -187500.02, -187500.02, -187500.02, -24408.02, -187500.02, 17961.46, -187500.02, -172234.52, 0.000, 0.000, 0.000, 15:38:01.501, 1578577081501
11, -115215.69, -83929.48, -171864.17, -171546.03, -120322.01, -108051.68, -171510.42, -172102.48, 0.000, 0.000, 0.000, 15:38:01.501, 1578577081501
12, -187500.02, -187500.02, -187500.02, -24409.31, -187500.02, 17962.42, -187500.02, -172205.30, 0.000, 0.000, 0.000, 15:38:01.501, 1578577081501
13, -115535.90, -84200.34, -171858.95, -171542.34, -120629.61, -108350.81, -171501.86, -172097.14, 0.000, 0.000, 0.000, 15:38:01.501, 1578577081501
14, -187500.02, -187500.02, -187500.02, -24426.43, -187500.02, 17944.49, -187500.02, -172176.05, 0.000, 0.000, 0.000, 15:38:01.501, 1578577081501
15, -115857.07, -84473.23, -171857.14, -171539.17, -120938.29, -108648.88, -171501.28, -172094.03, 0.000, 0.000, 0.000, 15:38:01.501, 1578577081501
16, -187500.02, -187500.02, -187500.02, -24417.83, -187500.02, 17951.96, -187500.02, -172146.48, 0.000, 0.000, 0.000, 15:38:01.501, 1578577081501
17, -116177.34, -84741.98, -171852.34, -171537.09, -121244.87, -108943.90, -171497.67, -172093.14, -0.018, -0.020, 0.970, 15:38:01.501, 1578577081501
18, -187500.02, -187500.02, -187500.02, -24420.82, -187500.02, 17954.93, -187500.02, -172119.73, 0.000, 0.000, 0.000, 15:38:01.501, 1578577081501
19, -116497.04, -85007.84, -171848.31, -171530.25, -121550.05, -109240.50, -171496.56, -172090.64, 0.000, 0.000, 0.000, 15:38:01.501, 1578577081501
20, -187500.02, -187500.02, -187500.02, -24426.72, -187500.02, 17950.53, -187500.02, -172090.98, 0.000, 0.000, 0.000, 15:38:01.501, 1578577081501
21, -116818.80, -85276.04, -171846.59, -171527.77, -121853.86, -109539.95, -171490.53, -172085.89, 0.000, 0.000, 0.000, 15:38:01.501, 1578577081501
22, -187500.02, -187500.02, -187500.02, -24420.82, -187500.02, 17955.92, -187500.02, -172064.70, 0.000, 0.000, 0.000, 15:38:01.501, 1578577081501
23, -117138.60, -85542.80, -171842.75, -171528.17, -122163.39, -109838.97, -171489.59, -172085.69, 0.000, 0.000, 0.000, 15:38:01.502, 1578577081502
24, -187500.02, -187500.02, -187500.02, -24425.90, -187500.02, 17951.06, -187500.02, -172034.59, 0.000, 0.000, 0.000, 15:38:01.502, 1578577081502
25, -117458.05, -85811.92, -171840.34, -171523.08, -122468.96, -110133.50, -171485.73, -172079.56, 0.000, 0.000, 0.000, 15:38:01.502, 1578577081502
26, -187500.02, -187500.02, -187500.02, -24430.37, -187500.02, 17944.74, -187500.02, -172003.44, 0.000, 0.000, 0.000, 15:38:01.502, 1578577081502
27, -117776.84, -86079.56, -171839.47, -171522.13, -122770.77, -110425.93, -171485.80, -172078.97, -0.016, -0.020, 0.978, 15:38:01.502, 1578577081502
28, -187500.02, -187500.02, -187500.02, -24422.39, -187500.02, 17949.46, -187500.02, -171974.63, 0.000, 0.000, 0.000, 15:38:01.502, 1578577081502
29, -118097.45, -86349.19, -171838.47, -171526.91, -123076.59, -110722.60, -171481.45, -172077.48, 0.000, 0.000, 0.000, 15:38:01.502, 1578577081502
30, -187500.02, -187500.02, -187500.02, -24407.05, -187500.02, 17965.28, -187500.02, -171949.53, 0.000, 0.000, 0.000, 15:38:01.502, 1578577081502
31, -118419.74, -86622.69, -171834.39, -171520.95, -123381.96, -111023.26, -171476.56, -172075.19, 0.000, 0.000, 0.000, 15:38:01.502, 1578577081502
32, -187500.02, -187500.02, -187500.02, -24423.57, -187500.02, 17948.38, -187500.02, -171919.23, 0.000, 0.000, 0.000, 15:38:01.502, 1578577081502
33, -118739.50, -86889.84, -171833.14, -171518.39, -123684.58, -111317.77, -171476.14, -172071.80, 0.000, 0.000, 0.000, 15:38:01.503, 1578577081503
34, -187500.02, -187500.02, -187500.02, -24414.83, -187500.02, 17965.73, -187500.02, -171893.00, 0.000, 0.000, 0.000, 15:38:01.503, 1578577081503
35, -119059.40, -87157.41, -171831.02, -171518.88, -123989.52, -111615.49, -171472.75, -172067.80, 0.000, 0.000, 0.000, 15:38:01.503, 1578577081503
36, -187500.02, -187500.02, -187500.02, -24415.10, -187500.02, 17966.42, -187500.02, -171864.77, 0.000, 0.000, 0.000, 15:38:01.503, 1578577081503
37, -119381.13, -87426.99, -171829.05, -171511.91, -124299.27, -111915.43, -171472.30, -172064.14, -0.018, -0.014, 0.982, 15:38:01.503, 1578577081503
38, -187500.02, -187500.02, -187500.02, -24419.46, -187500.02, 17958.17, -187500.02, -171836.30, 0.000, 0.000, 0.000, 15:38:01.503, 1578577081503
39, -119702.75, -87698.88, -171820.20, -171507.25, -124608.71, -112216.59, -171464.67, -172059.13, 0.000, 0.000, 0.000, 15:38:01.503, 1578577081503
40, -187500.02, -187500.02, -187500.02, -24422.07, -187500.02, 17954.87, -187500.02, -171808.67, 0.000, 0.000, 0.000, 15:38:01.503, 1578577081503
41, -120020.80, -87965.33, -171821.55, -171504.95, -124910.88, -112512.71, -171467.44, -172061.88, 0.000, 0.000, 0.000, 15:38:01.503, 1578577081503
42, -187500.02, -187500.02, -187500.02, -24461.93, -187500.02, 17922.05, -187500.02, -171775.34, 0.000, 0.000, 0.000, 15:38:01.503, 1578577081503
43, -120334.99, -88229.02, -171818.50, -171506.25, -125211.95, -112806.81, -171465.55, -172058.92, 0.000, 0.000, 0.000, 15:38:01.503, 1578577081503
44, -187500.02, -187500.02, -187500.02, -24428.85, -187500.02, 17955.80, -187500.02, -171743.52, 0.000, 0.000, 0.000, 15:38:01.503, 1578577081503
45, -120657.88, -88499.92, -171815.17, -171501.78, -125518.70, -113106.88, -171460.06, -172053.98, 0.000, 0.000, 0.000, 15:38:01.503, 1578577081503
46, -187500.02, -187500.02, -187500.02, -24422.57, -187500.02, 17960.54, -187500.02, -171717.88, 0.000, 0.000, 0.000, 15:38:01.503, 1578577081503
47, -120979.48, -88770.24, -171811.23, -171496.09, -125825.16, -113408.26, -171457.44, -172049.63, -0.020, -0.014, 0.980, 15:38:01.503, 1578577081503
48, -187500.02, -187500.02, -187500.02, -24415.84, -187500.02, 17968.95, -187500.02, -171692.38, 0.000, 0.000, 0.000, 15:38:01.504, 1578577081504
49, -121299.11, -89036.43, -171809.22, -171494.88, -126129.46, -113705.40, -171455.28, -172049.86, 0.000, 0.000, 0.000, 15:38:01.504, 1578577081504
50, -187500.02, -187500.02, -187500.02, -24424.02, -187500.02, 17963.11, -187500.02, -171665.39, 0.000, 0.000, 0.000, 15:38:01.504, 1578577081504
51, -121617.98, -89302.32, -171808.28, -171492.34, -126434.34, -114001.27, -171451.33, -172045.89, 0.000, 0.000, 0.000, 15:38:01.504, 1578577081504
52, -187500.02, -187500.02, -187500.02, -24420.06, -187500.02, 17966.60, -187500.02, -171637.05, 0.000, 0.000, 0.000, 15:38:01.504, 1578577081504
53, -121938.84, -89574.41, -171801.69, -171486.06, -126741.90, -114302.37, -171448.92, -172042.20, 0.000, 0.000, 0.000, 15:38:01.504, 1578577081504
54, -187500.02, -187500.02, -187500.02, -24425.61, -187500.02, 17963.49, -187500.02, -171608.70, 0.000, 0.000, 0.000, 15:38:01.504, 1578577081504
55, -122260.77, -89844.40, -171800.91, -171485.81, -127047.04, -114600.92, -171445.41, -172039.83, 0.000, 0.000, 0.000, 15:38:01.504, 1578577081504
56, -187500.02, -187500.02, -187500.02, -24424.24, -187500.02, 17959.00, -187500.02, -171583.52, -0.018, -0.012, 0.980, 15:38:01.504, 1578577081504
57, -122577.16, -90109.60, -171802.78, -171486.48, -127347.95, -114894.58, -171443.91, -172040.56, 0.000, 0.000, 0.000, 15:38:01.504, 1578577081504
58, -187500.02, -187500.02, -187500.02, -24422.88, -187500.02, 17961.57, -187500.02, -171555.78, 0.000, 0.000, 0.000, 15:38:01.504, 1578577081504
59, -122895.99, -90375.79, -171795.66, -171478.20, -127651.59, -115190.67, -171441.70, -172037.34, 0.000, 0.000, 0.000, 15:38:01.504, 1578577081504
60, -187500.02, -187500.02, -187500.02, -24423.91, -187500.02, 17963.52, -187500.02, -171526.61, 0.000, 0.000, 0.000, 15:38:01.504, 1578577081504
61, -123217.48, -90644.95, -171792.78, -171478.95, -127956.42, -115490.38, -171438.36, -172030.75, 0.000, 0.000, 0.000, 15:38:01.504, 1578577081504
62, -187500.02, -187500.02, -187500.02, -24433.59, -187500.02, 17952.83, -187500.02, -171495.16, 0.000, 0.000, 0.000, 15:38:01.505, 1578577081505
63, -123536.05, -90912.32, -171793.83, -171479.34, -128260.74, -115791.64, -171440.84, -172029.53, 0.000, 0.000, 0.000, 15:38:01.505, 1578577081505
64, -187500.02, -187500.02, -187500.02, -24419.44, -187500.02, 17969.53, -187500.02, -171470.06, 0.000, 0.000, 0.000, 15:38:01.505, 1578577081505
65, -123856.31, -91180.45, -171785.75, -171472.36, -128567.41, -116088.90, -171433.19, -172026.34, 0.000, 0.000, 0.000, 15:38:01.505, 1578577081505
66, -187500.02, -187500.02, -187500.02, -24428.56, -187500.02, 17961.59, -187500.02, -171442.28, -0.016, -0.018, 0.982, 15:38:01.505, 1578577081505
67, -124172.72, -91446.68, -171787.66, -171471.92, -128870.27, -116384.10, -171433.50, -172027.45, 0.000, 0.000, 0.000, 15:38:01.505, 1578577081505
68, -187500.02, -187500.02, -187500.02, -24428.98, -187500.02, 17963.49, -187500.02, -171412.75, 0.000, 0.000, 0.000, 15:38:01.505, 1578577081505
69, -124497.58, -91718.13, -171781.39, -171468.88, -129179.78, -116681.35, -171426.91, -172016.16, 0.000, 0.000, 0.000, 15:38:01.505, 1578577081505
70, -187500.02, -187500.02, -187500.02, -24420.49, -187500.02, 17973.86, -187500.02, -171388.61, 0.000, 0.000, 0.000, 15:38:01.505, 1578577081505
71, -124820.27, -91987.53, -171779.05, -171468.23, -129486.84, -116981.56, -171425.53, -172019.28, 0.000, 0.000, 0.000, 15:38:01.505, 1578577081505
72, -187500.02, -187500.02, -187500.02, -24416.31, -187500.02, 17974.67, -187500.02, -171364.14, 0.000, 0.000, 0.000, 15:38:01.505, 1578577081505
73, -125140.51, -92255.05, -171777.75, -171459.75, -129791.95, -117276.23, -171420.91, -172016.09, 0.000, 0.000, 0.000, 15:38:01.505, 1578577081505
74, -187500.02, -187500.02, -187500.02, -24420.71, -187500.02, 17966.80, -187500.02, -171338.45, 0.000, 0.000, 0.000, 15:38:01.505, 1578577081505
75, -125459.94, -92520.28, -171775.08, -171458.30, -130094.39, -117570.55, -171417.09, -172013.45, 0.000, 0.000, 0.000, 15:38:01.505, 1578577081505
76, -187500.02, -187500.02, -187500.02, -24428.69, -187500.02, 17961.73, -187500.02, -171310.14, -0.020, -0.016, 0.974, 15:38:01.505, 1578577081505
77, -125785.53, -92793.87, -171766.41, -171447.73, -130401.37, -117871.61, -171413.25, -172007.19, 0.000, 0.000, 0.000, 15:38:01.506, 1578577081506
78, -187500.02, -187500.02, -187500.02, -24425.67, -187500.02, 17963.13, -187500.02, -171281.03, 0.000, 0.000, 0.000, 15:38:01.506, 1578577081506
79, -126108.88, -93063.54, -171766.22, -171448.05, -130706.16, -118172.35, -171411.28, -172006.55, 0.000, 0.000, 0.000, 15:38:01.506, 1578577081506
80, -187500.02, -187500.02, -187500.02, -24422.03, -187500.02, 17965.06, -187500.02, -171254.55, 0.000, 0.000, 0.000, 15:38:01.506, 1578577081506
81, -126427.59, -93331.18, -171765.50, -171449.16, -131007.44, -118465.91, -171409.02, -172003.13, 0.000, 0.000, 0.000, 15:38:01.506, 1578577081506
82, -187500.02, -187500.02, -187500.02, -24429.70, -187500.02, 17959.47, -187500.02, -171227.75, 0.000, 0.000, 0.000, 15:38:01.506, 1578577081506
83, -126747.15, -93600.05, -171760.30, -171446.19, -131309.70, -118762.08, -171405.69, -171999.13, 0.000, 0.000, 0.000, 15:38:01.506, 1578577081506
84, -187500.02, -187500.02, -187500.02, -24448.40, -187500.02, 17956.90, -187500.02, -171198.39, 0.000, 0.000, 0.000, 15:38:01.506, 1578577081506
85, -127071.23, -93872.34, -171760.72, -171444.89, -131618.05, -119063.23, -171403.86, -171995.33, 0.000, 0.000, 0.000, 15:38:01.506, 1578577081506
86, -187500.02, -187500.02, -187500.02, -24444.40, -187500.02, 17962.53, -187500.02, -171169.91, -0.020, -0.016, 0.972, 15:38:01.506, 1578577081506
87, -127395.91, -94143.02, -171757.81, -171444.53, -131923.28, -119363.01, -171402.88, -171994.14, 0.000, 0.000, 0.000, 15:38:01.506, 1578577081506
88, -187500.02, -187500.02, -187500.02, -24438.88, -187500.02, 17964.92, -187500.02, -171142.61, 0.000, 0.000, 0.000, 15:38:01.506, 1578577081506
89, -127716.99, -94412.67, -171756.86, -171436.38, -132228.42, -119660.95, -171400.72, -171994.03, 0.000, 0.000, 0.000, 15:38:01.506, 1578577081506
90, -187500.02, -187500.02, -187500.02, -24437.56, -187500.02, 17965.64, -187500.02, -171117.06, 0.000, 0.000, 0.000, 15:38:01.506, 1578577081506
91, -128037.13, -94677.92, -171752.39, -171432.84, -132532.11, -119955.37, -171394.56, -171989.17, 0.000, 0.000, 0.000, 15:38:01.506, 1578577081506
92, -187500.02, -187500.02, -187500.02, -24426.72, -187500.02, 17979.27, -187500.02, -171091.88, 0.000, 0.000, 0.000, 15:38:01.507, 1578577081507
93, -128358.87, -94947.63, -171747.05, -171429.17, -132839.66, -120254.52, -171391.78, -171984.64, 0.000, 0.000, 0.000, 15:38:01.507, 1578577081507
94, -187500.02, -187500.02, -187500.02, -24436.47, -187500.02, 17965.97, -187500.02, -171064.89, 0.000, 0.000, 0.000, 15:38:01.507, 1578577081507
95, -128677.60, -95221.58, -171744.73, -171427.91, -133147.48, -120556.14, -171387.81, -171983.91, -0.016, -0.016, 0.974, 15:38:01.507, 1578577081507
96, -187500.02, -187500.02, -187500.02, -24426.07, -187500.02, 17979.12, -187500.02, -171041.02, 0.000, 0.000, 0.000, 15:38:01.507, 1578577081507
97, -128996.80, -95492.53, -171739.41, -171423.28, -133455.27, -120853.04, -171383.94, -171978.77, 0.000, 0.000, 0.000, 15:38:01.507, 1578577081507
98, -187500.02, -187500.02, -187500.02, -24445.03, -187500.02, 17969.44, -187500.02, -171011.16, 0.000, 0.000, 0.000, 15:38:01.507, 1578577081507
99, -129313.09, -95760.52, -171738.17, -171429.48, -133758.28, -121147.84, -171382.05, -171974.67, 0.000, 0.000, 0.000, 15:38:01.507, 1578577081507
100, -187500.02, -187500.02, -187500.02, -24446.04, -187500.02, 17970.94, -187500.02, -170985.41, 0.000, 0.000, 0.000, 15:38:01.507, 1578577081507
101, -129635.17, -96031.00, -171736.98, -171421.52, -134063.59, -121445.83, -171382.89, -171973.47, 0.000, 0.000, 0.000, 15:38:01.507, 1578577081507
102, -187500.02, -187500.02, -187500.02, -24452.14, -187500.02, 17962.06, -187500.02, -170956.23, 0.000, 0.000, 0.000, 15:38:01.507, 1578577081507
103, -129957.51, -96301.33, -171731.73, -171413.27, -134367.64, -121745.27, -171380.25, -171973.41, 0.000, 0.000, 0.000, 15:38:01.507, 1578577081507
104, -187500.02, -187500.02, -187500.02, -24440.89, -187500.02, 17973.78, -187500.02, -170930.73, 0.000, 0.000, 0.000, 15:38:01.507, 1578577081507
105, -130271.73, -96569.13, -171732.83, -171415.48, -134666.80, -122041.50, -171373.05, -171969.06, -0.018, -0.014, 0.974, 15:38:01.507, 1578577081507
106, -187500.02, -187500.02, -187500.02, -24448.40, -187500.02, 17970.89, -187500.02, -170904.25, 0.000, 0.000, 0.000, 15:38:01.508, 1578577081508
107, -130591.56, -96837.30, -171726.09, -171410.25, -134968.55, -122338.63, -171370.70, -171964.89, 0.000, 0.000, 0.000, 15:38:01.508, 1578577081508
108, -187500.02, -187500.02, -187500.02, -24448.74, -187500.02, 17969.13, -187500.02, -170877.16, 0.000, 0.000, 0.000, 15:38:01.508, 1578577081508
109, -130913.42, -97107.35, -171723.66, -171403.91, -135273.11, -122638.66, -171367.95, -171961.59, 0.000, 0.000, 0.000, 15:38:01.508, 1578577081508
110, -187500.02, -187500.02, -187500.02, -24448.45, -187500.02, 17971.29, -187500.02, -170850.06, 0.000, 0.000, 0.000, 15:38:01.508, 1578577081508
111, -131234.13, -97375.91, -171725.30, -171413.28, -135578.55, -122937.20, -171364.58, -171960.48, 0.000, 0.000, 0.000, 15:38:01.508, 1578577081508
112, -187500.02, -187500.02, -187500.02, -24447.51, -187500.02, 17974.56, -187500.02, -170823.25, 0.000, 0.000, 0.000, 15:38:01.508, 1578577081508
113, -131552.78, -97645.76, -171717.86, -171406.41, -135883.36, -123233.99, -171359.91, -171955.36, 0.000, 0.000, 0.000, 15:38:01.508, 1578577081508
114, -187500.02, -187500.02, -187500.02, -24428.53, -187500.02, 17996.10, -187500.02, -170796.58, 0.000, 0.000, 0.000, 15:38:01.508, 1578577081508
115, -131872.14, -97915.14, -171709.67, -171395.41, -136185.75, -123531.52, -171356.42, -171952.55, -0.014, -0.014, 0.974, 15:38:01.508, 1578577081508
116, -187500.02, -187500.02, -187500.02, -24454.30, -187500.02, 17967.70, -187500.02, -170769.84, 0.000, 0.000, 0.000, 15:38:01.508, 1578577081508
117, -132193.23, -98182.91, -171713.69, -171399.19, -136488.28, -123829.84, -171356.06, -171952.48, 0.000, 0.000, 0.000, 15:38:01.508, 1578577081508
118, -187500.02, -187500.02, -187500.02, -24460.74, -187500.02, 17960.30, -187500.02, -170742.78, 0.000, 0.000, 0.000, 15:38:01.509, 1578577081509
119, -132517.55, -98453.30, -171709.88, -171394.47, -136794.53, -124132.06, -171351.06, -171948.72, 0.000, 0.000, 0.000, 15:38:01.509, 1578577081509
120, -187500.02, -187500.02, -187500.02, -24449.75, -187500.02, 17972.01, -187500.02, -170715.84, 0.000, 0.000, 0.000, 15:38:01.509, 1578577081509
