%OpenBCI Raw EEG Data
%Number of channels = 8
%Sample Rate = 250.0 Hz
%First Column = SampleIndex
%Last Column = Timestamp 
%Other Columns = EEG data in microvolts followed by Accel Data (in G) interleaved with Aux Data
0, 0.00, 0.00, 0.00, 0.00, 0.00, 0.00, 0.00, 0.00, -0.024, -0.018, 0.976, 15:33:35.620, 1578576815620
1, -174945.47, -115450.58, -156491.23, -187500.02, -182983.69, -162755.72, -114230.42, -187500.02, 0.000, 0.000, 0.000, 15:33:36.101, 1578576816101
2, -174944.39, -115448.41, -156489.34, -187500.02, -182982.38, -162754.16, -114227.96, -187500.02, 0.000, 0.000, 0.000, 15:33:36.101, 1578576816101
3, -174942.31, -115445.28, -156486.48, -187500.02, -182980.06, -162751.67, -114224.54, -187500.02, 0.000, 0.000, 0.000, 15:33:36.101, 1578576816101
4, -174943.64, -115445.44, -156487.00, -187500.02, -182980.89, -162752.41, -114224.36, -187500.02, 0.000, 0.000, 0.000, 15:33:36.101, 1578576816101
5, -174942.36, -115442.95, -156484.83, -187500.02, -182979.16, -162750.52, -114221.52, -187500.02, 0.000, 0.000, 0.000, 15:33:36.101, 1578576816101
6, -174941.42, -115441.05, -156483.13, -187500.02, -182977.94, -162749.13, -114219.24, -187500.02, 0.000, 0.000, 0.000, 15:33:36.101, 1578576816101
7, -174939.52, -115438.04, -156480.52, -187500.02, -182975.67, -162746.69, -114215.94, -187500.02, -0.024, -0.016, 0.978, 15:33:36.101, 1578576816101
8, -174939.59, -115437.05, -156479.91, -187500.02, -182975.64, -162746.33, -114214.75, -187500.02, 0.000, 0.000, 0.000, 15:33:36.101, 1578576816101
9, -174940.55, -115436.88, -156480.06, -187500.02, -182976.25, -162746.72, -114214.21, -187500.02, 0.000, 0.000, 0.000, 15:33:36.101, 1578576816101
10, -174938.22, -115433.55, -156476.89, -187500.02, -182973.66, -162743.88, -114210.44, -187500.02, 0.000, 0.000, 0.000, 15:33:36.101, 1578576816101
11, -174935.16, -115429.37, -156473.11, -187500.02, -182970.19, -162740.25, -114205.99, -187500.02, 0.000, 0.000, 0.000, 15:33:36.101, 1578576816101
12, -174936.23, -115429.37, -156473.41, -187500.02, -182970.91, -162740.81, -114205.70, -187500.02, 0.000, 0.000, 0.000, 15:33:36.101, 1578576816101
13, -174934.73, -115426.77, -156471.13, -187500.02, -182969.11, -162738.78, -114202.75, -187500.02, 0.000, 0.000, 0.000, 15:33:36.101, 1578576816101
14, -174933.28, -115424.16, -156468.94, -187500.02, -182967.38, -162736.94, -114199.87, -187500.02, 0.000, 0.000, 0.000, 15:33:36.101, 1578576816101
15, -174932.38, -115422.05, -156467.25, -187500.02, -182966.14, -162735.42, -114197.54, -187500.02, 0.000, 0.000, 0.000, 15:33:36.102, 1578576816102
16, -174933.23, -115421.88, -156467.39, -187500.02, -182966.70, -162735.80, -114197.05, -187500.02, 0.000, 0.000, 0.000, 15:33:36.102, 1578576816102
17, -174934.48, -115422.19, -156467.80, -187500.02, -182967.63, -162736.55, -114196.94, -187500.02, -0.022, -0.014, 0.978, 15:33:36.102, 1578576816102
18, -174933.53, -115420.20, -156466.03, -187500.02, -182966.33, -162735.14, -114194.55, -187500.02, 0.000, 0.000, 0.000, 15:33:36.102, 1578576816102
19, -174928.80, -115414.30, -156460.39, -187500.02, -182961.19, -162729.77, -114188.29, -187500.02, 0.000, 0.000, 0.000, 15:33:36.102, 1578576816102
20, -174927.45, -115411.82, -156458.30, -187500.02, -182959.58, -162727.83, -114185.49, -187500.02, 0.000, 0.000, 0.000, 15:33:36.102, 1578576816102
21, -174927.78, -115411.10, -156457.98, -187500.02, -182959.53, -162727.64, -114184.51, -187500.02, 0.000, 0.000, 0.000, 15:33:36.102, 1578576816102
22, -174928.92, -115411.06, -156458.31, -187500.02, -182960.25, -162728.27, -114184.28, -187500.02, 0.000, 0.000, 0.000, 15:33:36.102, 1578576816102
23, -174929.03, -115410.08, -156457.64, -187500.02, -182960.06, -162727.83, -114182.90, -187500.02, 0.000, 0.000, 0.000, 15:33:36.102, 1578576816102
24, -174928.34, -115408.45, -156456.31, -187500.02, -182959.22, -162726.70, -114180.84, -187500.02, 0.000, 0.000, 0.000, 15:33:36.102, 1578576816102
25, -174927.47, -115406.41, -156454.53, -187500.02, -182957.97, -162725.20, -114178.38, -187500.02, 0.000, 0.000, 0.000, 15:33:36.102, 1578576816102
26, -174926.80, -115404.71, -156453.16, -187500.02, -182957.03, -162724.14, -114176.40, -187500.02, 0.000, 0.000, 0.000, 15:33:36.102, 1578576816102
27, -174925.27, -115402.12, -156450.84, -187500.02, -182955.22, -162722.17, -114173.47, -187500.02, -0.018, -0.014, 0.978, 15:33:36.102, 1578576816102
28, -174926.53, -115402.32, -156451.34, -187500.02, -182956.11, -162722.92, -114173.24, -187500.02, 0.000, 0.000, 0.000, 15:33:36.102, 1578576816102
29, -174925.84, -115400.40, -156449.89, -187500.02, -182955.08, -162721.63, -114171.12, -187500.02, 0.000, 0.000, 0.000, 15:33:36.102, 1578576816102
30, -174924.45, -115397.91, -156447.70, -187500.02, -182953.31, -162719.70, -114168.39, -187500.02, 0.000, 0.000, 0.000, 15:33:36.102, 1578576816102
31, -174922.72, -115395.21, -156445.23, -187500.02, -182951.30, -162717.56, -114165.30, -187500.02, 0.000, 0.000, 0.000, 15:33:36.103, 1578576816103
32, -174920.09, -115391.50, -156441.84, -187500.02, -182948.39, -162714.45, -114161.24, -187500.02, 0.000, 0.000, 0.000, 15:33:36.103, 1578576816103
33, -174919.03, -115389.31, -156439.88, -187500.02, -182946.98, -162712.83, -114158.67, -187500.02, 0.000, 0.000, 0.000, 15:33:36.103, 1578576816103
34, -174919.09, -115388.33, -156439.19, -187500.02, -182946.83, -162712.45, -114157.48, -187500.02, 0.000, 0.000, 0.000, 15:33:36.103, 1578576816103
35, -174918.20, -115386.34, -156437.44, -187500.02, -182945.56, -162710.86, -114155.02, -187500.02, 0.000, 0.000, 0.000, 15:33:36.103, 1578576816103
36, -174916.72, -115383.73, -156435.19, -187500.02, -182943.59, -162708.83, -114152.03, -187500.02, 0.000, 0.000, 0.000, 15:33:36.103, 1578576816103
37, -174917.84, -115383.70, -156435.63, -187500.02, -182944.47, -162709.52, -114151.79, -187500.02, -0.018, -0.014, 0.980, 15:33:36.103, 1578576816103
38, -174919.92, -115384.64, -156436.91, -187500.02, -182946.20, -162711.06, -114152.45, -187500.02, 0.000, 0.000, 0.000, 15:33:36.103, 1578576816103
39, -174918.53, -115382.30, -156434.80, -187500.02, -182944.64, -162709.27, -114149.75, -187500.02, 0.000, 0.000, 0.000, 15:33:36.103, 1578576816103
40, -174919.42, -115382.07, -156434.80, -187500.02, -182945.02, -162709.56, -114149.17, -187500.02, 0.000, 0.000, 0.000, 15:33:36.103, 1578576816103
41, -174919.11, -115380.75, -156433.78, -187500.02, -182944.44, -162708.78, -114147.61, -187500.02, 0.000, 0.000, 0.000, 15:33:36.103, 1578576816103
42, -174920.50, -115381.00, -156434.36, -187500.02, -182945.42, -162709.61, -114147.54, -187500.02, 0.000, 0.000, 0.000, 15:33:36.103, 1578576816103
43, -174920.23, -115379.70, -156433.42, -187500.02, -182944.91, -162708.84, -114145.98, -187500.02, 0.000, 0.000, 0.000, 15:33:36.103, 1578576816103
44, -174921.64, -115380.08, -156433.97, -187500.02, -182946.05, -162709.77, -114146.02, -187500.02, 0.000, 0.000, 0.000, 15:33:36.104, 1578576816104
45, -174919.41, -115376.82, -156431.05, -187500.02, -182943.59, -162706.98, -114142.30, -187500.02, 0.000, 0.000, 0.000, 15:33:36.104, 1578576816104
46, -174917.53, -115373.76, -156428.36, -187500.02, -182941.31, -162704.58, -114138.93, -187500.02, -0.022, -0.014, 0.972, 15:33:36.104, 1578576816104
47, -174916.28, -115371.34, -156426.31, -187500.02, -182939.81, -162702.83, -114136.27, -187500.02, 0.000, 0.000, 0.000, 15:33:36.104, 1578576816104
48, -174915.11, -115369.17, -156424.44, -187500.02, -182938.38, -162701.27, -114133.77, -187500.02, 0.000, 0.000, 0.000, 15:33:36.104, 1578576816104
49, -174913.28, -115366.27, -156421.89, -187500.02, -182936.14, -162698.88, -114130.51, -187500.02, 0.000, 0.000, 0.000, 15:33:36.104, 1578576816104
50, -174911.83, -115363.65, -156419.56, -187500.02, -182934.38, -162696.78, -114127.58, -187500.02, 0.000, 0.000, 0.000, 15:33:36.104, 1578576816104
51, -174911.58, -115362.40, -156418.59, -187500.02, -182933.88, -162696.08, -114125.92, -187500.02, 0.000, 0.000, 0.000, 15:33:36.104, 1578576816104
52, -174911.05, -115360.73, -156417.23, -187500.02, -182932.91, -162695.02, -114123.94, -187500.02, 0.000, 0.000, 0.000, 15:33:36.104, 1578576816104
53, -174910.84, -115359.54, -156416.31, -187500.02, -182932.34, -162694.45, -114122.44, -187500.02, 0.000, 0.000, 0.000, 15:33:36.104, 1578576816104
54, -174910.91, -115358.51, -156415.61, -187500.02, -182932.09, -162694.03, -114121.09, -187500.02, 0.000, 0.000, 0.000, 15:33:36.105, 1578576816105
55, -174911.73, -115358.20, -156415.61, -187500.02, -182932.59, -162694.20, -114120.52, -187500.02, 0.000, 0.000, 0.000, 15:33:36.105, 1578576816105
56, -174911.36, -115356.68, -156414.47, -187500.02, -182931.86, -162693.17, -114118.70, -187500.02, -0.020, -0.014, 0.974, 15:33:36.105, 1578576816105
57, -174909.03, -115353.37, -156411.41, -187500.02, -182929.33, -162690.42, -114114.99, -187500.02, 0.000, 0.000, 0.000, 15:33:36.105, 1578576816105
58, -174907.45, -115350.66, -156409.03, -187500.02, -182927.50, -162688.44, -114112.05, -187500.02, 0.000, 0.000, 0.000, 15:33:36.105, 1578576816105
59, -174906.34, -115348.43, -156407.16, -187500.02, -182926.02, -162686.77, -114109.52, -187500.02, 0.000, 0.000, 0.000, 15:33:36.105, 1578576816105
60, -174906.48, -115347.72, -156406.59, -187500.02, -182925.84, -162686.42, -114108.27, -187500.02, 0.000, 0.000, 0.000, 15:33:36.105, 1578576816105
61, -174905.95, -115346.20, -156405.44, -187500.02, -182924.97, -162685.41, -114106.34, -187500.02, 0.000, 0.000, 0.000, 15:33:36.106, 1578576816106
62, -174904.72, -115343.78, -156403.44, -187500.02, -182923.39, -162683.64, -114103.70, -187500.02, 0.000, 0.000, 0.000, 15:33:36.106, 1578576816106
63, -174904.70, -115342.58, -156402.55, -187500.02, -182922.98, -162683.13, -114102.34, -187500.02, 0.000, 0.000, 0.000, 15:33:36.106, 1578576816106
64, -174903.88, -115340.74, -156400.89, -187500.02, -182921.91, -162681.78, -114100.22, -187500.02, 0.000, 0.000, 0.000, 15:33:36.106, 1578576816106
65, -174904.23, -115340.09, -156400.56, -187500.02, -182921.97, -162681.53, -114099.17, -187500.02, 0.000, 0.000, 0.000, 15:33:36.106, 1578576816106
66, -174902.11, -115336.80, -156397.66, -187500.02, -182919.56, -162678.88, -114095.50, -187500.02, -0.018, -0.014, 0.976, 15:33:36.106, 1578576816106
67, -174903.09, -115336.72, -156397.81, -187500.02, -182920.30, -162679.39, -114095.17, -187500.02, 0.000, 0.000, 0.000, 15:33:36.106, 1578576816106
68, -174903.27, -115335.80, -156397.13, -187500.02, -182920.02, -162678.94, -114093.76, -187500.02, 0.000, 0.000, 0.000, 15:33:36.107, 1578576816107
69, -174903.28, -115334.69, -156396.42, -187500.02, -182919.66, -162678.42, -114092.38, -187500.02, 0.000, 0.000, 0.000, 15:33:36.107, 1578576816107
70, -174901.09, -115331.47, -156393.56, -187500.02, -182917.27, -162675.91, -114088.87, -187500.02, 0.000, 0.000, 0.000, 15:33:36.107, 1578576816107
71, -174899.83, -115329.09, -156391.55, -187500.02, -182915.70, -162674.14, -114086.27, -187500.02, 0.000, 0.000, 0.000, 15:33:36.107, 1578576816107
72, -174899.47, -115327.71, -156390.48, -187500.02, -182915.09, -162673.28, -114084.55, -187500.02, 0.000, 0.000, 0.000, 15:33:36.107, 1578576816107
73, -174898.61, -115325.79, -156388.73, -187500.02, -182913.86, -162671.94, -114082.20, -187500.02, 0.000, 0.000, 0.000, 15:33:36.109, 1578576816109
74, -174896.27, -115322.26, -156385.63, -187500.02, -182911.11, -162669.08, -114078.47, -187500.02, 0.000, 0.000, 0.000, 15:33:36.109, 1578576816109
75, -174896.45, -115321.30, -156385.03, -187500.02, -182910.84, -162668.66, -114077.13, -187500.02, 0.000, 0.000, 0.000, 15:33:36.109, 1578576816109
76, -174895.42, -115319.28, -156383.28, -187500.02, -182909.61, -162667.19, -114074.83, -187500.02, -0.020, -0.010, 0.978, 15:33:36.109, 1578576816109
77, -174896.03, -115318.73, -156383.13, -187500.02, -182909.95, -162667.27, -114073.94, -187500.02, 0.000, 0.000, 0.000, 15:33:36.109, 1578576816109
78, -174896.05, -115317.81, -156382.28, -187500.02, -182909.73, -162666.77, -114072.52, -187500.02, 0.000, 0.000, 0.000, 15:33:36.109, 1578576816109
79, -174895.89, -115316.42, -156381.36, -187500.02, -182909.23, -162666.09, -114070.94, -187500.02, 0.000, 0.000, 0.000, 15:33:36.109, 1578576816109
80, -174895.73, -115315.20, -156380.38, -187500.02, -182908.72, -162665.38, -114069.45, -187500.02, 0.000, 0.000, 0.000, 15:33:36.110, 1578576816110
81, -174894.27, -115312.78, -156378.08, -187500.02, -182906.94, -162663.36, -114066.58, -187500.02, 0.000, 0.000, 0.000, 15:33:36.110, 1578576816110
82, -174894.59, -115312.13, -156377.81, -187500.02, -182907.00, -162663.27, -114065.66, -187500.02, 0.000, 0.000, 0.000, 15:33:36.110, 1578576816110
83, -174892.42, -115308.87, -156374.97, -187500.02, -182904.56, -162660.67, -114062.16, -187500.02, 0.000, 0.000, 0.000, 15:33:36.110, 1578576816110
84, -174891.42, -115306.86, -156373.27, -187500.02, -182903.31, -162659.27, -114059.85, -187500.02, 0.000, 0.000, 0.000, 15:33:36.110, 1578576816110
85, -174893.14, -115307.44, -156374.14, -187500.02, -182904.56, -162660.36, -114060.08, -187500.02, 0.000, 0.000, 0.000, 15:33:36.110, 1578576816110
86, -174893.28, -115306.52, -156373.52, -187500.02, -182904.36, -162659.98, -114058.83, -187500.02, -0.020, -0.016, 0.986, 15:33:36.110, 1578576816110
87, -174892.88, -115304.89, -156372.27, -187500.02, -182903.69, -162659.06, -114056.95, -187500.02, 0.000, 0.000, 0.000, 15:33:36.110, 1578576816110
88, -174896.38, -115307.20, -156374.83, -187500.02, -182906.80, -162661.95, -114058.87, -187500.02, 0.000, 0.000, 0.000, 15:33:36.110, 1578576816110
89, -174893.67, -115303.39, -156371.19, -187500.02, -182903.67, -162658.59, -114054.58, -187500.02, 0.000, 0.000, 0.000, 15:33:36.111, 1578576816111
90, -174892.00, -115300.64, -156368.86, -187500.02, -182901.70, -162656.39, -114051.56, -187500.02, 0.000, 0.000, 0.000, 15:33:36.111, 1578576816111
91, -174891.67, -115299.28, -156367.77, -187500.02, -182901.13, -162655.56, -114049.98, -187500.02, 0.000, 0.000, 0.000, 15:33:36.111, 1578576816111
92, -174889.14, -115295.68, -156364.47, -187500.02, -182898.27, -162652.61, -114046.15, -187500.02, 0.000, 0.000, 0.000, 15:33:36.111, 1578576816111
93, -174888.30, -115293.69, -156362.77, -187500.02, -182897.03, -162651.09, -114043.83, -187500.02, 0.000, 0.000, 0.000, 15:33:36.111, 1578576816111
94, -174888.73, -115293.11, -156362.58, -187500.02, -182897.17, -162651.05, -114042.89, -187500.02, 0.000, 0.000, 0.000, 15:33:36.111, 1578576816111
95, -174888.48, -115291.77, -156361.44, -187500.02, -182896.63, -162650.33, -114041.13, -187500.02, -0.020, -0.018, 0.982, 15:33:36.111, 1578576816111
96, -174888.09, -115290.34, -156360.30, -187500.02, -182895.88, -162649.30, -114039.40, -187500.02, 0.000, 0.000, 0.000, 15:33:36.111, 1578576816111
97, -174884.98, -115286.25, -156356.61, -187500.02, -182892.61, -162645.75, -114035.06, -187500.02, 0.000, 0.000, 0.000, 15:33:36.111, 1578576816111
98, -174881.89, -115282.09, -156352.73, -187500.02, -182889.23, -162642.27, -114030.48, -187500.02, 0.000, 0.000, 0.000, 15:33:36.111, 1578576816111
99, -174882.64, -115281.80, -156352.69, -187500.02, -182889.61, -162642.53, -114029.84, -187500.02, 0.000, 0.000, 0.000, 15:33:36.111, 1578576816111
100, -174883.73, -115281.78, -156352.95, -187500.02, -182890.33, -162643.02, -114029.45, -187500.02, 0.000, 0.000, 0.000, 15:33:36.111, 1578576816111
101, -174883.78, -115280.62, -156352.14, -187500.02, -182890.03, -162642.58, -114028.09, -187500.02, 0.000, 0.000, 0.000, 15:33:36.112, 1578576816112
102, -174883.58, -115279.32, -156351.16, -187500.02, -182889.44, -162641.72, -114026.52, -187500.02, 0.000, 0.000, 0.000, 15:33:36.112, 1578576816112
103, -174879.84, -115274.63, -156346.73, -187500.02, -182885.36, -162637.48, -114021.36, -187500.02, 0.000, 0.000, 0.000, 15:33:36.112, 1578576816112
104, -174876.72, -115270.34, -156342.78, -187500.02, -182881.91, -162633.81, -114016.78, -187500.02, 0.000, 0.000, 0.000, 15:33:36.112, 1578576816112
105, -174877.22, -115269.88, -156342.59, -187500.02, -182882.13, -162633.91, -114016.00, -187500.02, -0.024, -0.022, 0.984, 15:33:36.112, 1578576816112
106, -174878.70, -115270.29, -156343.34, -187500.02, -182883.36, -162634.95, -114016.09, -187500.02, 0.000, 0.000, 0.000, 15:33:36.112, 1578576816112
107, -174877.58, -115268.03, -156341.39, -187500.02, -182881.94, -162633.28, -114013.45, -187500.02, 0.000, 0.000, 0.000, 15:33:36.112, 1578576816112
108, -174876.69, -115266.09, -156339.72, -187500.02, -182880.69, -162631.84, -114011.20, -187500.02, 0.000, 0.000, 0.000, 15:33:36.112, 1578576816112
109, -174877.63, -115265.98, -156339.81, -187500.02, -182881.31, -162632.31, -114010.68, -187500.02, 0.000, 0.000, 0.000, 15:33:36.112, 1578576816112
110, -174875.48, -115262.73, -156336.97, -187500.02, -182878.92, -162629.66, -114007.15, -187500.02, 0.000, 0.000, 0.000, 15:33:36.114, 1578576816114
111, -174874.81, -115260.92, -156335.52, -187500.02, -182877.92, -162628.36, -114005.16, -187500.02, 0.000, 0.000, 0.000, 15:33:36.114, 1578576816114
112, -174874.95, -115259.91, -156334.84, -187500.02, -182877.66, -162627.95, -114003.88, -187500.02, 0.000, 0.000, 0.000, 15:33:36.114, 1578576816114
113, -174876.00, -115259.88, -156335.16, -187500.02, -182878.41, -162628.52, -114003.55, -187500.02, 0.000, 0.000, 0.000, 15:33:36.114, 1578576816114
114, -174878.48, -115261.35, -156336.80, -187500.02, -182880.56, -162630.42, -114004.58, -187500.02, 0.000, 0.000, 0.000, 15:33:36.114, 1578576816114
115, -174874.81, -115256.68, -156332.36, -187500.02, -182876.48, -162626.28, -113999.44, -187500.02, -0.026, -0.018, 0.982, 15:33:36.114, 1578576816114
116, -174870.97, -115251.83, -156327.80, -187500.02, -182872.36, -162621.97, -113994.27, -187500.02, 0.000, 0.000, 0.000, 15:33:36.114, 1578576816114
117, -174871.50, -115251.31, -156327.69, -187500.02, -182872.69, -162622.09, -113993.53, -187500.02, 0.000, 0.000, 0.000, 15:33:36.114, 1578576816114
118, -174870.00, -115248.74, -156325.44, -187500.02, -182870.97, -162620.06, -113990.61, -187500.02, 0.000, 0.000, 0.000, 15:33:36.114, 1578576816114
119, -174870.56, -115248.20, -156325.09, -187500.02, -182871.27, -162620.09, -113989.73, -187500.02, 0.000, 0.000, 0.000, 15:33:36.114, 1578576816114
120, -174871.69, -115248.09, -156325.39, -187500.02, -182871.94, -162620.61, -113989.38, -187500.02, 0.000, 0.000, 0.000, 15:33:36.115, 1578576816115
121, -174871.02, -115246.24, -156323.94, -187500.02, -182870.81, -162619.34, -113987.23, -187500.02, 0.000, 0.000, 0.000, 15:33:36.115, 1578576816115
122, -174870.45, -115244.67, -156322.66, -187500.02, -182869.92, -162618.30, -113985.31, -187500.02, 0.000, 0.000, 0.000, 15:33:36.580, 1578576816580
123, -174867.69, -115240.98, -156319.13, -187500.02, -182866.91, -162615.02, -113981.11, -187500.02, 0.000, 0.000, 0.000, 15:33:36.580, 1578576816580
124, -174868.52, -115240.67, -156319.20, -187500.02, -182867.38, -162615.22, -113980.52, -187500.02, 0.000, 0.000, 0.000, 15:33:36.580, 1578576816580
125, -174868.23, -115239.35, -156318.17, -187500.02, -182866.88, -162614.50, -113978.90, -187500.02, -0.026, -0.016, 0.980, 15:33:36.580, 1578576816580
126, -174869.22, -115239.31, -156318.39, -187500.02, -182867.53, -162615.06, -113978.52, -187500.02, 0.000, 0.000, 0.000, 15:33:36.580, 1578576816580
127, -174868.59, -115237.70, -156317.03, -187500.02, -182866.59, -162613.97, -113976.57, -187500.02, 0.000, 0.000, 0.000, 15:33:36.581, 1578576816581
128, -174866.72, -115234.68, -156314.39, -187500.02, -182864.42, -162611.59, -113973.28, -187500.02, 0.000, 0.000, 0.000, 15:33:36.581, 1578576816581
129, -174867.23, -115234.13, -156314.11, -187500.02, -182864.63, -162611.55, -113972.44, -187500.02, 0.000, 0.000, 0.000, 15:33:36.581, 1578576816581
130, -174869.89, -115235.71, -156315.94, -187500.02, -182866.92, -162613.66, -113973.59, -187500.02, 0.000, 0.000, 0.000, 15:33:36.581, 1578576816581
131, -174867.86, -115232.56, -156313.14, -187500.02, -182864.55, -162611.14, -113970.06, -187500.02, 0.000, 0.000, 0.000, 15:33:36.581, 1578576816581
132, -174867.08, -115230.80, -156311.72, -187500.02, -182863.44, -162609.92, -113968.05, -187500.02, 0.000, 0.000, 0.000, 15:33:36.581, 1578576816581
133, -174863.03, -115225.67, -156306.80, -187500.02, -182858.92, -162605.22, -113962.58, -187500.02, 0.000, 0.000, 0.000, 15:33:36.581, 1578576816581
134, -174860.16, -115221.70, -156303.16, -187500.02, -182855.84, -162601.88, -113958.40, -187500.02, -0.022, -0.020, 0.978, 15:33:36.581, 1578576816581
135, -174863.48, -115224.00, -156305.67, -187500.02, -182858.92, -162604.70, -113960.27, -187500.02, 0.000, 0.000, 0.000, 15:33:36.581, 1578576816581
136, -174865.20, -115224.63, -156306.77, -187500.02, -182860.44, -162605.89, -113960.61, -187500.02, 0.000, 0.000, 0.000, 15:33:36.581, 1578576816581
137, -174866.31, -115224.65, -156307.13, -187500.02, -182861.11, -162606.44, -113960.34, -187500.02, 0.000, 0.000, 0.000, 15:33:36.581, 1578576816581
138, -174864.94, -115222.14, -156304.94, -187500.02, -182859.41, -162604.53, -113957.59, -187500.02, 0.000, 0.000, 0.000, 15:33:36.581, 1578576816581
139, -174865.05, -115221.16, -156304.30, -187500.02, -182859.22, -162604.08, -113956.32, -187500.02, 0.000, 0.000, 0.000, 15:33:36.581, 1578576816581
140, -174864.06, -115219.17, -156302.59, -187500.02, -182857.98, -162602.66, -113953.88, -187500.02, 0.000, 0.000, 0.000, 15:33:36.581, 1578576816581
141, -174863.17, -115217.16, -156300.80, -187500.02, -182856.80, -162601.27, -113951.52, -187500.02, 0.000, 0.000, 0.000, 15:33:36.581, 1578576816581
142, -174863.80, -115216.78, -156300.67, -187500.02, -182857.02, -162601.36, -113950.73, -187500.02, 0.000, 0.000, 0.000, 15:33:36.581, 1578576816581
143, -174862.19, -115214.09, -156298.33, -187500.02, -182855.17, -162599.23, -113947.71, -187500.02, 0.000, 0.000, 0.000, 15:33:36.581, 1578576816581
144, -174860.69, -115211.41, -156296.05, -187500.02, -182853.17, -162597.17, -113944.74, -187500.02, -0.018, -0.018, 0.976, 15:33:36.581, 1578576816581
145, -174861.17, -115210.81, -156295.66, -187500.02, -182853.27, -162597.17, -113943.89, -187500.02, 0.000, 0.000, 0.000, 15:33:36.581, 1578576816581
146, -174857.98, -115206.61, -156291.75, -187500.02, -182849.94, -162593.48, -113939.45, -187500.02, 0.000, 0.000, 0.000, 15:33:36.581, 1578576816581
147, -174855.50, -115203.10, -156288.58, -187500.02, -182847.14, -162590.50, -113935.45, -187500.02, 0.000, 0.000, 0.000, 15:33:36.581, 1578576816581
148, -174855.56, -115202.09, -156287.86, -187500.02, -182846.86, -162590.05, -113934.08, -187500.02, 0.000, 0.000, 0.000, 15:33:36.582, 1578576816582
149, -174856.78, -115202.23, -156288.36, -187500.02, -182847.75, -162590.73, -113933.92, -187500.02, 0.000, 0.000, 0.000, 15:33:36.582, 1578576816582
150, -174856.78, -115201.11, -156287.50, -187500.02, -182847.44, -162590.25, -113932.54, -187500.02, 0.000, 0.000, 0.000, 15:33:36.582, 1578576816582
151, -174855.92, -115199.28, -156285.98, -187500.02, -182846.25, -162588.97, -113930.44, -187500.02, 0.000, 0.000, 0.000, 15:33:36.582, 1578576816582
152, -174853.05, -115195.30, -156282.30, -187500.02, -182843.00, -162585.63, -113926.21, -187500.02, 0.000, 0.000, 0.000, 15:33:36.582, 1578576816582
153, -174849.52, -115190.70, -156278.00, -187500.02, -182839.09, -162581.52, -113921.18, -187500.02, 0.000, 0.000, 0.000, 15:33:36.582, 1578576816582
154, -174849.78, -115189.89, -156277.47, -187500.02, -182839.08, -162581.31, -113920.04, -187500.02, -0.022, -0.020, 0.976, 15:33:36.582, 1578576816582
155, -174852.92, -115191.92, -156279.84, -187500.02, -182841.94, -162583.95, -113921.79, -187500.02, 0.000, 0.000, 0.000, 15:33:36.582, 1578576816582
156, -174853.48, -115191.39, -156279.61, -187500.02, -182842.20, -162583.95, -113920.83, -187500.02, 0.000, 0.000, 0.000, 15:33:36.582, 1578576816582
157, -174850.83, -115187.63, -156276.22, -187500.02, -182839.19, -162580.77, -113916.84, -187500.02, 0.000, 0.000, 0.000, 15:33:36.582, 1578576816582
158, -174850.47, -115186.34, -156275.05, -187500.02, -182838.58, -162579.92, -113915.15, -187500.02, 0.000, 0.000, 0.000, 15:33:36.582, 1578576816582
159, -174848.34, -115183.07, -156272.31, -187500.02, -182836.17, -162577.22, -113911.66, -187500.02, 0.000, 0.000, 0.000, 15:33:36.582, 1578576816582
160, -174848.84, -115182.49, -156272.03, -187500.02, -182836.33, -162577.17, -113910.84, -187500.02, 0.000, 0.000, 0.000, 15:33:36.582, 1578576816582
161, -174849.23, -115181.69, -156271.52, -187500.02, -182836.44, -162577.05, -113909.80, -187500.02, 0.000, 0.000, 0.000, 15:33:36.582, 1578576816582
162, -174848.95, -115180.39, -156270.30, -187500.02, -182835.91, -162576.23, -113908.11, -187500.02, 0.000, 0.000, 0.000, 15:33:36.582, 1578576816582
163, -174847.77, -115178.16, -156268.39, -187500.02, -182834.41, -162574.56, -113905.58, -187500.02, 0.000, 0.000, 0.000, 15:33:36.582, 1578576816582
164, -174843.98, -115173.41, -156263.98, -187500.02, -182830.38, -162570.42, -113900.51, -187500.02, -0.022, -0.020, 0.972, 15:33:36.582, 1578576816582
165, -174841.98, -115170.24, -156261.20, -187500.02, -182827.94, -162567.86, -113896.98, -187500.02, 0.000, 0.000, 0.000, 15:33:36.582, 1578576816582
166, -174843.05, -115170.33, -156261.48, -187500.02, -182828.72, -162568.44, -113896.57, -187500.02, 0.000, 0.000, 0.000, 15:33:36.582, 1578576816582
167, -174843.45, -115169.70, -156261.08, -187500.02, -182828.84, -162568.25, -113895.59, -187500.02, 0.000, 0.000, 0.000, 15:33:36.582, 1578576816582
168, -174840.84, -115166.15, -156257.80, -187500.02, -182825.97, -162565.14, -113891.61, -187500.02, 0.000, 0.000, 0.000, 15:33:36.583, 1578576816583
169, -174841.86, -115166.13, -156258.11, -187500.02, -182826.73, -162565.66, -113891.27, -187500.02, 0.000, 0.000, 0.000, 15:33:36.583, 1578576816583
170, -174841.83, -115164.79, -156257.17, -187500.02, -182826.11, -162565.03, -113889.66, -187500.02, 0.000, 0.000, 0.000, 15:33:36.583, 1578576816583
171, -174838.02, -115159.91, -156252.75, -187500.02, -182822.02, -162560.75, -113884.55, -187500.02, 0.000, 0.000, 0.000, 15:33:36.583, 1578576816583
172, -174835.77, -115156.67, -156249.73, -187500.02, -182819.47, -162558.05, -113880.99, -187500.02, 0.000, 0.000, 0.000, 15:33:36.583, 1578576816583
173, -174838.77, -115158.73, -156252.02, -187500.02, -182822.25, -162560.56, -113882.70, -187500.02, -0.014, -0.020, 0.974, 15:33:36.583, 1578576816583
174, -174840.13, -115158.95, -156252.48, -187500.02, -182823.27, -162561.30, -113882.56, -187500.02, 0.000, 0.000, 0.000, 15:33:36.583, 1578576816583
175, -174839.05, -115156.72, -156250.48, -187500.02, -182821.86, -162559.56, -113880.05, -187500.02, 0.000, 0.000, 0.000, 15:33:36.583, 1578576816583
176, -174838.09, -115154.75, -156248.88, -187500.02, -182820.52, -162558.11, -113877.69, -187500.02, 0.000, 0.000, 0.000, 15:33:36.583, 1578576816583
177, -174838.38, -115153.86, -156248.33, -187500.02, -182820.41, -162557.86, -113876.45, -187500.02, 0.000, 0.000, 0.000, 15:33:36.583, 1578576816583
178, -174840.50, -115154.95, -156249.63, -187500.02, -182822.33, -162559.56, -113877.24, -187500.02, 0.000, 0.000, 0.000, 15:33:36.583, 1578576816583
179, -174839.63, -115153.10, -156248.05, -187500.02, -182821.13, -162558.17, -113874.89, -187500.02, 0.000, 0.000, 0.000, 15:33:36.583, 1578576816583
180, -174837.55, -115149.81, -156245.11, -187500.02, -182818.63, -162555.47, -113871.34, -187500.02, 0.000, 0.000, 0.000, 15:33:36.583, 1578576816583
181, -174834.95, -115146.21, -156241.80, -187500.02, -182815.72, -162552.39, -113867.41, -187500.02, 0.000, 0.000, 0.000, 15:33:36.583, 1578576816583
182, -174833.23, -115143.42, -156239.34, -187500.02, -182813.70, -162550.23, -113864.30, -187500.02, 0.000, 0.000, 0.000, 15:33:36.583, 1578576816583
183, -174833.38, -115142.59, -156238.86, -187500.02, -182813.64, -162549.88, -113863.07, -187500.02, -0.016, -0.014, 0.974, 15:33:36.583, 1578576816583
184, -174833.48, -115141.63, -156238.31, -187500.02, -182813.45, -162549.39, -113861.84, -187500.02, 0.000, 0.000, 0.000, 15:33:36.583, 1578576816583
185, -174833.86, -115140.90, -156237.81, -187500.02, -182813.39, -162549.22, -113860.70, -187500.02, 0.000, 0.000, 0.000, 15:33:36.584, 1578576816584
186, -174835.88, -115141.81, -156239.05, -187500.02, -182815.11, -162550.70, -113861.37, -187500.02, 0.000, 0.000, 0.000, 15:33:36.584, 1578576816584
187, -174837.08, -115142.05, -156239.52, -187500.02, -182816.03, -162551.47, -113861.26, -187500.02, 0.000, 0.000, 0.000, 15:33:36.584, 1578576816584
188, -174835.05, -115138.99, -156236.72, -187500.02, -182813.69, -162548.94, -113857.91, -187500.02, 0.000, 0.000, 0.000, 15:33:36.584, 1578576816584
189, -174835.42, -115138.21, -156236.25, -187500.02, -182813.64, -162548.66, -113856.85, -187500.02, 0.000, 0.000, 0.000, 15:33:36.584, 1578576816584
190, -174834.95, -115136.47, -156234.94, -187500.02, -182812.77, -162547.67, -113854.91, -187500.02, 0.000, 0.000, 0.000, 15:33:36.584, 1578576816584
191, -174834.83, -115135.28, -156234.11, -187500.02, -182812.44, -162547.05, -113853.34, -187500.02, 0.000, 0.000, 0.000, 15:33:36.584, 1578576816584
192, -174835.09, -115134.48, -156233.55, -187500.02, -182812.39, -162546.78, -113852.20, -187500.02, 0.000, 0.000, 0.000, 15:33:36.584, 1578576816584
193, -174832.86, -115131.24, -156230.58, -187500.02, -182809.91, -162544.03, -113848.59, -187500.02, -0.020, -0.010, 0.972, 15:33:36.584, 1578576816584
194, -174831.03, -115128.52, -156228.03, -187500.02, -182807.78, -162541.80, -113845.41, -187500.02, 0.000, 0.000, 0.000, 15:33:36.584, 1578576816584
195, -174832.03, -115128.45, -156228.23, -187500.02, -182808.45, -162542.27, -113845.05, -187500.02, 0.000, 0.000, 0.000, 15:33:36.584, 1578576816584
196, -174829.81, -115125.07, -156225.28, -187500.02, -182805.88, -162539.47, -113841.50, -187500.02, 0.000, 0.000, 0.000, 15:33:36.584, 1578576816584
197, -174827.50, -115121.70, -156222.14, -187500.02, -182803.27, -162536.67, -113837.74, -187500.02, 0.000, 0.000, 0.000, 15:33:36.584, 1578576816584
198, -174828.30, -115121.49, -156222.22, -187500.02, -182803.67, -162537.00, -113837.12, -187500.02, 0.000, 0.000, 0.000, 15:33:36.584, 1578576816584
199, -174828.03, -115120.11, -156221.19, -187500.02, -182803.09, -162536.22, -113835.40, -187500.02, 0.000, 0.000, 0.000, 15:33:36.584, 1578576816584
200, -174825.66, -115116.60, -156217.98, -187500.02, -182800.41, -162533.30, -113831.59, -187500.02, 0.000, 0.000, 0.000, 15:33:36.584, 1578576816584
201, -174821.45, -115111.46, -156213.13, -187500.02, -182795.89, -162528.63, -113826.16, -187500.02, 0.000, 0.000, 0.000, 15:33:36.584, 1578576816584
202, -174820.23, -115109.20, -156211.17, -187500.02, -182794.39, -162526.95, -113823.48, -187500.02, 0.000, 0.000, 0.000, 15:33:36.584, 1578576816584
203, -174818.95, -115106.77, -156209.00, -187500.02, -182792.73, -162525.08, -113820.69, -187500.02, -0.016, -0.018, 0.980, 15:33:36.585, 1578576816585
204, -174818.94, -115105.55, -156208.09, -187500.02, -182792.25, -162524.42, -113819.23, -187500.02, 0.000, 0.000, 0.000, 15:33:36.585, 1578576816585
205, -174819.61, -115105.13, -156208.09, -187500.02, -182792.67, -162524.58, -113818.50, -187500.02, 0.000, 0.000, 0.000, 15:33:36.585, 1578576816585
206, -174820.08, -115104.59, -156207.83, -187500.02, -182792.83, -162524.56, -113817.59, -187500.02, 0.000, 0.000, 0.000, 15:33:36.585, 1578576816585
207, -174818.11, -115101.53, -156204.98, -187500.02, -182790.55, -162522.13, -113814.27, -187500.02, 0.000, 0.000, 0.000, 15:33:36.585, 1578576816585
208, -174817.59, -115100.05, -156203.89, -187500.02, -182789.88, -162521.23, -113812.46, -187500.02, 0.000, 0.000, 0.000, 15:33:36.585, 1578576816585
209, -174817.30, -115098.67, -156202.80, -187500.02, -182789.13, -162520.33, -113810.63, -187500.02, 0.000, 0.000, 0.000, 15:33:36.585, 1578576816585
210, -174816.88, -115097.22, -156201.47, -187500.02, -182788.41, -162519.28, -113808.91, -187500.02, 0.000, 0.000, 0.000, 15:33:36.585, 1578576816585
211, -174815.73, -115094.96, -156199.55, -187500.02, -182786.97, -162517.67, -113806.45, -187500.02, 0.000, 0.000, 0.000, 15:33:36.585, 1578576816585
212, -174816.03, -115094.18, -156198.98, -187500.02, -182786.86, -162517.45, -113805.34, -187500.02, -0.014, -0.020, 0.980, 15:33:36.585, 1578576816585
213, -174816.41, -115093.42, -156198.55, -187500.02, -182786.84, -162517.31, -113804.23, -187500.02, 0.000, 0.000, 0.000, 15:33:36.585, 1578576816585
214, -174814.48, -115090.54, -156196.02, -187500.02, -182784.77, -162514.97, -113800.93, -187500.02, 0.000, 0.000, 0.000, 15:33:36.586, 1578576816586
215, -174810.33, -115085.41, -156191.19, -187500.02, -182780.31, -162510.31, -113795.32, -187500.02, 0.000, 0.000, 0.000, 15:33:36.586, 1578576816586
216, -174809.67, -115083.70, -156189.78, -187500.02, -182779.47, -162509.11, -113793.30, -187500.02, 0.000, 0.000, 0.000, 15:33:36.586, 1578576816586
217, -174808.16, -115081.13, -156187.44, -187500.02, -182777.67, -162507.08, -113790.45, -187500.02, 0.000, 0.000, 0.000, 15:33:36.586, 1578576816586
218, -174807.06, -115078.87, -156185.52, -187500.02, -182776.16, -162505.38, -113787.92, -187500.02, 0.000, 0.000, 0.000, 15:33:36.586, 1578576816586
219, -174807.56, -115078.13, -156185.20, -187500.02, -182776.17, -162505.31, -113786.91, -187500.02, 0.000, 0.000, 0.000, 15:33:36.586, 1578576816586
220, -174805.50, -115075.07, -156182.36, -187500.02, -182773.88, -162502.73, -113783.63, -187500.02, 0.000, 0.000, 0.000, 15:33:36.586, 1578576816586
221, -174806.97, -115075.47, -156182.98, -187500.02, -182775.08, -162503.61, -113783.65, -187500.02, 0.000, 0.000, 0.000, 15:33:36.586, 1578576816586
222, -174808.88, -115076.37, -156184.28, -187500.02, -182776.72, -162505.06, -113784.14, -187500.02, -0.016, -0.022, 0.974, 15:33:36.586, 1578576816586
223, -174807.94, -115074.42, -156182.67, -187500.02, -182775.50, -162503.66, -113781.91, -187500.02, 0.000, 0.000, 0.000, 15:33:36.586, 1578576816586
224, -174808.42, -115073.70, -156182.30, -187500.02, -182775.58, -162503.56, -113780.95, -187500.02, 0.000, 0.000, 0.000, 15:33:36.586, 1578576816586
225, -174808.50, -115072.86, -156181.58, -187500.02, -182775.38, -162503.14, -113779.65, -187500.02, 0.000, 0.000, 0.000, 15:33:36.587, 1578576816587
226, -174806.11, -115069.30, -156178.31, -187500.02, -182772.59, -162500.17, -113775.78, -187500.02, 0.000, 0.000, 0.000, 15:33:36.587, 1578576816587
227, -174805.61, -115067.67, -156177.13, -187500.02, -182771.86, -162499.28, -113773.91, -187500.02, 0.000, 0.000, 0.000, 15:33:36.587, 1578576816587
228, -174805.33, -115066.42, -156176.03, -187500.02, -182771.34, -162498.42, -113772.19, -187500.02, 0.000, 0.000, 0.000, 15:33:36.587, 1578576816587
229, -174806.30, -115066.35, -156176.27, -187500.02, -182771.95, -162498.86, -113771.72, -187500.02, 0.000, 0.000, 0.000, 15:33:36.587, 1578576816587
230, -174803.72, -115062.75, -156172.97, -187500.02, -182769.06, -162495.77, -113767.83, -187500.02, 0.000, 0.000, 0.000, 15:33:36.587, 1578576816587
231, -174802.55, -115060.36, -156170.98, -187500.02, -182767.58, -162494.06, -113765.19, -187500.02, 0.000, 0.000, 0.000, 15:33:36.587, 1578576816587
232, -174803.36, -115060.23, -156171.14, -187500.02, -182768.06, -162494.36, -113764.70, -187500.02, -0.018, -0.018, 0.972, 15:33:36.587, 1578576816587
233, -174803.42, -115059.27, -156170.42, -187500.02, -182767.77, -162494.03, -113763.38, -187500.02, 0.000, 0.000, 0.000, 15:33:36.588, 1578576816588
234, -174803.44, -115058.17, -156169.64, -187500.02, -182767.55, -162493.63, -113762.04, -187500.02, 0.000, 0.000, 0.000, 15:33:36.588, 1578576816588
235, -174803.20, -115056.98, -156168.70, -187500.02, -182766.98, -162492.86, -113760.59, -187500.02, 0.000, 0.000, 0.000, 15:33:36.588, 1578576816588
236, -174803.58, -115056.36, -156168.38, -187500.02, -182767.03, -162492.73, -113759.63, -187500.02, 0.000, 0.000, 0.000, 15:33:36.588, 1578576816588
237, -174803.73, -115055.42, -156167.81, -187500.02, -182766.92, -162492.45, -113758.22, -187500.02, 0.000, 0.000, 0.000, 15:33:36.588, 1578576816588
238, -174801.63, -115052.18, -156164.84, -187500.02, -182764.47, -162489.75, -113754.66, -187500.02, 0.000, 0.000, 0.000, 15:33:36.588, 1578576816588
239, -174801.72, -115051.24, -156164.23, -187500.02, -182764.16, -162489.20, -113753.43, -187500.02, 0.000, 0.000, 0.000, 15:33:36.588, 1578576816588
240, -174802.02, -115050.48, -156163.72, -187500.02, -182764.16, -162489.00, -113752.34, -187500.02, 0.000, 0.000, 0.000, 15:33:36.588, 1578576816588
241, -174801.39, -115048.80, -156162.38, -187500.02, -182763.25, -162487.94, -113750.35, -187500.02, 0.000, 0.000, 0.000, 15:33:36.588, 1578576816588
242, -174800.50, -115046.81, -156160.69, -187500.02, -182762.09, -162486.50, -113748.07, -187500.02, -0.016, -0.016, 0.974, 15:33:37.062, 1578576817062
243, -174799.70, -115045.03, -156159.05, -187500.02, -182760.94, -162485.13, -113745.92, -187500.02, 0.000, 0.000, 0.000, 15:33:37.062, 1578576817062
244, -174800.84, -115045.14, -156159.55, -187500.02, -182761.77, -162485.80, -113745.77, -187500.02, 0.000, 0.000, 0.000, 15:33:37.063, 1578576817063
245, -174800.84, -115043.84, -156158.64, -187500.02, -182761.31, -162485.11, -113744.20, -187500.02, 0.000, 0.000, 0.000, 15:33:37.063, 1578576817063
246, -174801.34, -115043.33, -156158.41, -187500.02, -182761.52, -162485.13, -113743.30, -187500.02, 0.000, 0.000, 0.000, 15:33:37.063, 1578576817063
247, -174798.59, -115039.55, -156154.83, -187500.02, -182758.41, -162481.91, -113739.10, -187500.02, 0.000, 0.000, 0.000, 15:33:37.063, 1578576817063
248, -174797.20, -115037.27, -156152.83, -187500.02, -182756.80, -162480.06, -113736.42, -187500.02, 0.000, 0.000, 0.000, 15:33:37.063, 1578576817063
249, -174795.83, -115034.91, -156150.72, -187500.02, -182755.25, -162478.22, -113733.61, -187500.02, 0.000, 0.000, 0.000, 15:33:37.063, 1578576817063
250, -174796.45, -115034.21, -156150.44, -187500.02, -182755.44, -162478.25, -113732.73, -187500.02, 0.000, 0.000, 0.000, 15:33:37.063, 1578576817063
251, -174796.64, -115033.34, -156149.81, -187500.02, -182755.28, -162478.00, -113731.62, -187500.02, -0.022, -0.014, 0.976, 15:33:37.063, 1578576817063
252, -174796.22, -115031.84, -156148.70, -187500.02, -182754.47, -162476.92, -113729.88, -187500.02, 0.000, 0.000, 0.000, 15:33:37.063, 1578576817063
253, -174793.91, -115028.53, -156145.69, -187500.02, -182751.83, -162474.06, -113726.14, -187500.02, 0.000, 0.000, 0.000, 15:33:37.063, 1578576817063
254, -174793.30, -115026.90, -156144.30, -187500.02, -182750.98, -162473.08, -113724.17, -187500.02, 0.000, 0.000, 0.000, 15:33:37.063, 1578576817063
255, -174791.50, -115024.02, -156141.75, -187500.02, -182748.95, -162470.83, -113720.98, -187500.02, 0.000, 0.000, 0.000, 15:33:37.063, 1578576817063
0, -174789.83, -115021.23, -156139.17, -187500.02, -182746.84, -162468.66, -113717.83, -187500.02, 0.000, 0.000, 0.000, 15:33:37.064, 1578576817064
1, -174787.89, -115018.20, -156136.47, -187500.02, -182744.58, -162466.16, -113714.45, -187500.02, 0.000, 0.000, 0.000, 15:33:37.064, 1578576817064
2, -174786.97, -115016.26, -156134.86, -187500.02, -182743.41, -162464.77, -113712.22, -187500.02, 0.000, 0.000, 0.000, 15:33:37.064, 1578576817064
3, -174787.78, -115015.97, -156134.91, -187500.02, -182743.92, -162465.02, -113711.59, -187500.02, 0.000, 0.000, 0.000, 15:33:37.064, 1578576817064
4, -174789.11, -115016.40, -156135.56, -187500.02, -182744.97, -162465.91, -113711.66, -187500.02, 0.000, 0.000, 0.000, 15:33:37.064, 1578576817064
5, -174786.39, -115012.48, -156131.91, -187500.02, -182741.91, -162462.55, -113707.37, -187500.02, -0.022, -0.018, 0.966, 15:33:37.064, 1578576817064
6, -174787.11, -115012.20, -156131.94, -187500.02, -182742.36, -162462.78, -113706.74, -187500.02, 0.000, 0.000, 0.000, 15:33:37.064, 1578576817064
7, -174787.94, -115011.92, -156132.00, -187500.02, -182742.77, -162463.00, -113706.13, -187500.02, 0.000, 0.000, 0.000, 15:33:37.064, 1578576817064
8, -174786.98, -115009.84, -156130.22, -187500.02, -182741.39, -162461.56, -113703.74, -187500.02, 0.000, 0.000, 0.000, 15:33:37.064, 1578576817064
9, -174786.44, -115008.38, -156128.92, -187500.02, -182740.64, -162460.56, -113701.94, -187500.02, 0.000, 0.000, 0.000, 15:33:37.064, 1578576817064
10, -174782.39, -115003.30, -156124.22, -187500.02, -182736.19, -162455.98, -113696.55, -187500.02, 0.000, 0.000, 0.000, 15:33:37.064, 1578576817064
11, -174782.61, -115002.47, -156123.69, -187500.02, -182736.13, -162455.69, -113695.32, -187500.02, 0.000, 0.000, 0.000, 15:33:37.064, 1578576817064
12, -174782.55, -115001.27, -156122.86, -187500.02, -182735.81, -162455.20, -113693.91, -187500.02, 0.000, 0.000, 0.000, 15:33:37.065, 1578576817065
13, -174780.00, -114997.73, -156119.53, -187500.02, -182732.92, -162452.08, -113690.00, -187500.02, 0.000, 0.000, 0.000, 15:33:37.065, 1578576817065
14, -174781.38, -114998.07, -156120.09, -187500.02, -182734.05, -162452.89, -113690.00, -187500.02, 0.000, 0.000, 0.000, 15:33:37.065, 1578576817065
15, -174780.42, -114995.90, -156118.44, -187500.02, -182732.72, -162451.33, -113687.49, -187500.02, -0.018, -0.018, 0.976, 15:33:37.065, 1578576817065
16, -174779.30, -114993.82, -156116.48, -187500.02, -182731.34, -162449.70, -113685.08, -187500.02, 0.000, 0.000, 0.000, 15:33:37.065, 1578576817065
17, -174779.42, -114992.84, -156115.83, -187500.02, -182731.14, -162449.25, -113683.78, -187500.02, 0.000, 0.000, 0.000, 15:33:37.065, 1578576817065
18, -174777.72, -114989.98, -156113.25, -187500.02, -182729.14, -162447.02, -113680.56, -187500.02, 0.000, 0.000, 0.000, 15:33:37.065, 1578576817065
19, -174776.47, -114987.70, -156111.31, -187500.02, -182727.56, -162445.34, -113677.88, -187500.02, 0.000, 0.000, 0.000, 15:33:37.065, 1578576817065
20, -174776.86, -114987.12, -156111.03, -187500.02, -182727.58, -162445.25, -113677.03, -187500.02, 0.000, 0.000, 0.000, 15:33:37.065, 1578576817065
21, -174777.25, -114986.49, -156110.61, -187500.02, -182727.66, -162445.03, -113676.07, -187500.02, 0.000, 0.000, 0.000, 15:33:37.065, 1578576817065
22, -174777.27, -114985.38, -156109.73, -187500.02, -182727.31, -162444.50, -113674.55, -187500.02, 0.000, 0.000, 0.000, 15:33:37.065, 1578576817065
23, -174773.30, -114980.39, -156105.05, -187500.02, -182723.09, -162440.06, -113669.21, -187500.02, 0.000, 0.000, 0.000, 15:33:37.065, 1578576817065
24, -174773.45, -114979.52, -156104.56, -187500.02, -182722.91, -162439.70, -113668.07, -187500.02, 0.000, 0.000, 0.000, 15:33:37.066, 1578576817066
25, -174775.19, -114980.25, -156105.58, -187500.02, -182724.36, -162440.92, -113668.48, -187500.02, -0.020, -0.012, 0.972, 15:33:37.066, 1578576817066
26, -174774.41, -114978.38, -156103.86, -187500.02, -182723.30, -162439.55, -113666.24, -187500.02, 0.000, 0.000, 0.000, 15:33:37.066, 1578576817066
27, -174773.36, -114976.27, -156102.05, -187500.02, -182721.91, -162437.98, -113663.84, -187500.02, 0.000, 0.000, 0.000, 15:33:37.066, 1578576817066
28, -174772.63, -114974.33, -156100.59, -187500.02, -182720.77, -162436.77, -113661.74, -187500.02, 0.000, 0.000, 0.000, 15:33:37.066, 1578576817066
29, -174773.72, -114974.30, -156101.06, -187500.02, -182721.58, -162437.31, -113661.43, -187500.02, 0.000, 0.000, 0.000, 15:33:37.066, 1578576817066
30, -174773.56, -114973.16, -156100.11, -187500.02, -182721.14, -162436.64, -113659.84, -187500.02, 0.000, 0.000, 0.000, 15:33:37.066, 1578576817066
31, -174772.53, -114970.95, -156098.20, -187500.02, -182719.80, -162435.11, -113657.41, -187500.02, 0.000, 0.000, 0.000, 15:33:37.066, 1578576817066
32, -174771.92, -114969.37, -156096.89, -187500.02, -182718.86, -162433.94, -113655.40, -187500.02, 0.000, 0.000, 0.000, 15:33:37.066, 1578576817066
33, -174770.70, -114967.00, -156094.67, -187500.02, -182717.22, -162432.05, -113652.67, -187500.02, 0.000, 0.000, 0.000, 15:33:37.066, 1578576817066
34, -174769.11, -114964.45, -156092.33, -187500.02, -182715.42, -162429.98, -113649.74, -187500.02, -0.022, -0.010, 0.974, 15:33:37.066, 1578576817066
35, -174768.66, -114962.98, -156091.28, -187500.02, -182714.78, -162429.14, -113647.95, -187500.02, 0.000, 0.000, 0.000, 15:33:37.066, 1578576817066
36, -174768.80, -114961.97, -156090.66, -187500.02, -182714.53, -162428.75, -113646.75, -187500.02, 0.000, 0.000, 0.000, 15:33:37.066, 1578576817066
37, -174767.59, -114959.76, -156088.80, -187500.02, -182713.08, -162427.14, -113644.18, -187500.02, 0.000, 0.000, 0.000, 15:33:37.066, 1578576817066
38, -174766.83, -114957.88, -156087.28, -187500.02, -182712.11, -162425.89, -113642.01, -187500.02, 0.000, 0.000, 0.000, 15:33:37.066, 1578576817066
39, -174768.75, -114958.57, -156088.19, -187500.02, -182713.48, -162427.08, -113642.45, -187500.02, 0.000, 0.000, 0.000, 15:33:37.067, 1578576817067
40, -174767.25, -114956.13, -156085.95, -187500.02, -182711.64, -162425.14, -113639.55, -187500.02, 0.000, 0.000, 0.000, 15:33:37.067, 1578576817067
41, -174766.27, -114954.17, -156084.17, -187500.02, -182710.34, -162423.70, -113637.25, -187500.02, 0.000, 0.000, 0.000, 15:33:37.067, 1578576817067
42, -174766.39, -114953.25, -156083.50, -187500.02, -182710.22, -162423.28, -113636.02, -187500.02, 0.000, 0.000, 0.000, 15:33:37.067, 1578576817067
43, -174767.75, -114953.50, -156084.11, -187500.02, -182711.11, -162424.00, -113635.91, -187500.02, 0.000, 0.000, 0.000, 15:33:37.067, 1578576817067
44, -174768.22, -114952.83, -156083.88, -187500.02, -182711.22, -162423.97, -113634.92, -187500.02, -0.018, -0.010, 0.970, 15:33:37.067, 1578576817067
45, -174767.48, -114951.02, -156082.45, -187500.02, -182710.28, -162422.83, -113632.82, -187500.02, 0.000, 0.000, 0.000, 15:33:37.067, 1578576817067
46, -174766.86, -114949.41, -156081.11, -187500.02, -182709.44, -162421.67, -113630.88, -187500.02, 0.000, 0.000, 0.000, 15:33:37.067, 1578576817067
47, -174766.81, -114948.36, -156080.23, -187500.02, -182709.03, -162421.11, -113629.47, -187500.02, 0.000, 0.000, 0.000, 15:33:37.067, 1578576817067
48, -174765.47, -114945.98, -156078.19, -187500.02, -182707.44, -162419.33, -113626.79, -187500.02, 0.000, 0.000, 0.000, 15:33:37.067, 1578576817067
49, -174762.94, -114942.48, -156074.92, -187500.02, -182704.77, -162416.31, -113623.03, -187500.02, 0.000, 0.000, 0.000, 15:33:37.067, 1578576817067
50, -174760.28, -114938.79, -156071.52, -187500.02, -182701.80, -162413.16, -113618.95, -187500.02, 0.000, 0.000, 0.000, 15:33:37.067, 1578576817067
51, -174759.41, -114936.87, -156069.84, -187500.02, -182700.52, -162411.70, -113616.57, -187500.02, 0.000, 0.000, 0.000, 15:33:37.067, 1578576817067
52, -174757.08, -114933.49, -156066.88, -187500.02, -182697.94, -162408.91, -113612.86, -187500.02, 0.000, 0.000, 0.000, 15:33:37.067, 1578576817067
53, -174757.83, -114933.02, -156066.72, -187500.02, -182698.19, -162409.02, -113612.15, -187500.02, 0.000, 0.000, 0.000, 15:33:37.067, 1578576817067
54, -174755.97, -114930.07, -156064.05, -187500.02, -182695.91, -162406.56, -113608.80, -187500.02, -0.020, -0.016, 0.976, 15:33:37.067, 1578576817067
55, -174755.91, -114929.02, -156063.20, -187500.02, -182695.55, -162405.98, -113607.34, -187500.02, 0.000, 0.000, 0.000, 15:33:37.067, 1578576817067
56, -174758.69, -114930.77, -156065.22, -187500.02, -182698.09, -162408.38, -113608.84, -187500.02, 0.000, 0.000, 0.000, 15:33:37.068, 1578576817068
57, -174757.88, -114928.84, -156063.55, -187500.02, -182696.98, -162407.02, -113606.65, -187500.02, 0.000, 0.000, 0.000, 15:33:37.068, 1578576817068
58, -174757.73, -114927.68, -156062.73, -187500.02, -182696.56, -162406.36, -113605.22, -187500.02, 0.000, 0.000, 0.000, 15:33:37.068, 1578576817068
59, -174759.59, -114928.46, -156063.77, -187500.02, -182698.08, -162407.69, -113605.62, -187500.02, 0.000, 0.000, 0.000, 15:33:37.068, 1578576817068
60, -174759.23, -114927.08, -156062.64, -187500.02, -182697.36, -162406.83, -113603.92, -187500.02, 0.000, 0.000, 0.000, 15:33:37.068, 1578576817068
61, -174758.72, -114925.42, -156061.42, -187500.02, -182696.56, -162405.80, -113602.05, -187500.02, 0.000, 0.000, 0.000, 15:33:37.068, 1578576817068
62, -174757.02, -114922.67, -156058.94, -187500.02, -182694.45, -162403.55, -113598.87, -187500.02, 0.000, 0.000, 0.000, 15:33:37.068, 1578576817068
63, -174752.39, -114917.02, -156053.58, -187500.02, -182689.55, -162398.47, -113592.84, -187500.02, 0.000, 0.000, 0.000, 15:33:37.068, 1578576817068
64, -174751.23, -114914.77, -156051.66, -187500.02, -182688.09, -162396.73, -113590.24, -187500.02, -0.024, -0.016, 0.978, 15:33:37.068, 1578576817068
65, -174749.94, -114912.37, -156049.53, -187500.02, -182686.45, -162394.83, -113587.59, -187500.02, 0.000, 0.000, 0.000, 15:33:37.068, 1578576817068
66, -174747.92, -114909.27, -156046.75, -187500.02, -182684.09, -162392.25, -113584.23, -187500.02, 0.000, 0.000, 0.000, 15:33:37.068, 1578576817068
67, -174748.39, -114908.62, -156046.39, -187500.02, -182684.25, -162392.25, -113583.23, -187500.02, 0.000, 0.000, 0.000, 15:33:37.068, 1578576817068
68, -174750.16, -114909.45, -156047.45, -187500.02, -182685.72, -162393.55, -113583.63, -187500.02, 0.000, 0.000, 0.000, 15:33:37.069, 1578576817069
69, -174749.89, -114908.15, -156046.34, -187500.02, -182685.16, -162392.69, -113581.88, -187500.02, 0.000, 0.000, 0.000, 15:33:37.069, 1578576817069
70, -174748.03, -114905.20, -156043.88, -187500.02, -182683.08, -162390.36, -113578.64, -187500.02, 0.000, 0.000, 0.000, 15:33:37.069, 1578576817069
71, -174747.08, -114903.27, -156042.08, -187500.02, -182681.78, -162388.92, -113576.34, -187500.02, 0.000, 0.000, 0.000, 15:33:37.069, 1578576817069
72, -174746.64, -114901.69, -156040.81, -187500.02, -182680.94, -162387.92, -113574.51, -187500.02, 0.000, 0.000, 0.000, 15:33:37.069, 1578576817069
73, -174748.41, -114902.49, -156042.02, -187500.02, -182682.41, -162389.23, -113575.02, -187500.02, 0.000, 0.000, 0.000, 15:33:37.069, 1578576817069
74, -174746.84, -114899.81, -156039.58, -187500.02, -182680.63, -162387.16, -113572.00, -187500.02, -0.020, -0.014, 0.974, 15:33:37.069, 1578576817069
75, -174745.08, -114896.92, -156037.03, -187500.02, -182678.47, -162384.84, -113568.80, -187500.02, 0.000, 0.000, 0.000, 15:33:37.069, 1578576817069
76, -174743.78, -114894.60, -156035.09, -187500.02, -182676.83, -162382.94, -113566.17, -187500.02, 0.000, 0.000, 0.000, 15:33:37.069, 1578576817069
77, -174740.98, -114890.73, -156031.53, -187500.02, -182673.83, -162379.70, -113561.99, -187500.02, 0.000, 0.000, 0.000, 15:33:37.069, 1578576817069
78, -174741.70, -114890.29, -156031.33, -187500.02, -182674.13, -162379.81, -113561.25, -187500.02, 0.000, 0.000, 0.000, 15:33:37.069, 1578576817069
79, -174741.59, -114889.08, -156030.50, -187500.02, -182673.69, -162379.14, -113559.76, -187500.02, 0.000, 0.000, 0.000, 15:33:37.069, 1578576817069
80, -174741.34, -114887.88, -156029.61, -187500.02, -182673.09, -162378.36, -113558.13, -187500.02, 0.000, 0.000, 0.000, 15:33:37.069, 1578576817069
81, -174741.58, -114887.09, -156029.05, -187500.02, -182673.00, -162378.11, -113556.91, -187500.02, 0.000, 0.000, 0.000, 15:33:37.069, 1578576817069
82, -174740.39, -114885.02, -156027.20, -187500.02, -182671.66, -162376.61, -113554.55, -187500.02, 0.000, 0.000, 0.000, 15:33:37.070, 1578576817070
83, -174737.80, -114881.28, -156023.70, -187500.02, -182668.75, -162373.48, -113550.52, -187500.02, -0.014, -0.016, 0.974, 15:33:37.070, 1578576817070
84, -174736.23, -114878.51, -156021.41, -187500.02, -182666.89, -162371.31, -113547.59, -187500.02, 0.000, 0.000, 0.000, 15:33:37.070, 1578576817070
85, -174738.64, -114880.01, -156023.11, -187500.02, -182669.05, -162373.34, -113548.69, -187500.02, 0.000, 0.000, 0.000, 15:33:37.070, 1578576817070
86, -174738.41, -114878.71, -156022.17, -187500.02, -182668.47, -162372.55, -113547.02, -187500.02, 0.000, 0.000, 0.000, 15:33:37.070, 1578576817070
87, -174735.98, -114875.18, -156018.97, -187500.02, -182665.58, -162369.53, -113543.21, -187500.02, 0.000, 0.000, 0.000, 15:33:37.070, 1578576817070
88, -174735.31, -114873.45, -156017.50, -187500.02, -182664.59, -162368.34, -113541.18, -187500.02, 0.000, 0.000, 0.000, 15:33:37.070, 1578576817070
89, -174732.16, -114869.32, -156013.56, -187500.02, -182661.31, -162364.70, -113536.62, -187500.02, 0.000, 0.000, 0.000, 15:33:37.070, 1578576817070
90, -174733.30, -114869.39, -156013.97, -187500.02, -182662.20, -162365.33, -113536.40, -187500.02, 0.000, 0.000, 0.000, 15:33:37.070, 1578576817070
91, -174733.17, -114868.25, -156013.00, -187500.02, -182661.67, -162364.72, -113534.84, -187500.02, 0.000, 0.000, 0.000, 15:33:37.070, 1578576817070
92, -174732.52, -114866.62, -156011.61, -187500.02, -182660.69, -162363.53, -113532.77, -187500.02, 0.000, 0.000, 0.000, 15:33:37.070, 1578576817070
93, -174732.67, -114865.55, -156011.02, -187500.02, -182660.50, -162363.22, -113531.48, -187500.02, -0.020, -0.016, 0.974, 15:33:37.070, 1578576817070
94, -174732.50, -114864.25, -156009.97, -187500.02, -182659.88, -162362.38, -113529.96, -187500.02, 0.000, 0.000, 0.000, 15:33:37.070, 1578576817070
95, -174734.80, -114865.61, -156011.50, -187500.02, -182662.09, -162364.27, -113530.98, -187500.02, 0.000, 0.000, 0.000, 15:33:37.070, 1578576817070
96, -174735.22, -114865.07, -156011.23, -187500.02, -182662.14, -162364.11, -113529.96, -187500.02, 0.000, 0.000, 0.000, 15:33:37.070, 1578576817070
97, -174731.81, -114860.63, -156007.02, -187500.02, -182658.45, -162360.25, -113525.16, -187500.02, 0.000, 0.000, 0.000, 15:33:37.070, 1578576817070
98, -174728.67, -114856.36, -156003.13, -187500.02, -182654.89, -162356.55, -113520.62, -187500.02, 0.000, 0.000, 0.000, 15:33:37.071, 1578576817071
99, -174726.95, -114853.48, -156000.69, -187500.02, -182652.81, -162354.33, -113517.51, -187500.02, 0.000, 0.000, 0.000, 15:33:37.071, 1578576817071
100, -174725.50, -114850.84, -155998.39, -187500.02, -182651.03, -162352.25, -113514.54, -187500.02, 0.000, 0.000, 0.000, 15:33:37.071, 1578576817071
101, -174725.23, -114849.41, -155997.33, -187500.02, -182650.38, -162351.36, -113512.81, -187500.02, 0.000, 0.000, 0.000, 15:33:37.071, 1578576817071
102, -174723.05, -114846.09, -155994.31, -187500.02, -182647.86, -162348.58, -113509.28, -187500.02, 0.000, 0.000, 0.000, 15:33:37.071, 1578576817071
103, -174724.05, -114846.05, -155994.61, -187500.02, -182648.53, -162349.13, -113508.88, -187500.02, -0.016, -0.022, 0.976, 15:33:37.071, 1578576817071
104, -174722.95, -114843.95, -155992.78, -187500.02, -182647.23, -162347.47, -113506.49, -187500.02, 0.000, 0.000, 0.000, 15:33:37.071, 1578576817071
105, -174723.89, -114843.91, -155992.86, -187500.02, -182647.83, -162347.91, -113506.05, -187500.02, 0.000, 0.000, 0.000, 15:33:37.071, 1578576817071
106, -174724.97, -114844.06, -155993.20, -187500.02, -182648.70, -162348.61, -113505.75, -187500.02, 0.000, 0.000, 0.000, 15:33:37.541, 1578576817541
107, -174723.84, -114841.94, -155991.34, -187500.02, -182647.31, -162346.92, -113503.43, -187500.02, 0.000, 0.000, 0.000, 15:33:37.541, 1578576817541
108, -174722.95, -114839.88, -155989.63, -187500.02, -182645.98, -162345.44, -113501.06, -187500.02, 0.000, 0.000, 0.000, 15:33:37.541, 1578576817541
109, -174721.66, -114837.47, -155987.56, -187500.02, -182644.30, -162343.59, -113498.27, -187500.02, 0.000, 0.000, 0.000, 15:33:37.541, 1578576817541
110, -174720.25, -114835.15, -155985.58, -187500.02, -182642.72, -162341.72, -113495.59, -187500.02, 0.000, 0.000, 0.000, 15:33:37.541, 1578576817541
111, -174720.58, -114834.36, -155985.33, -187500.02, -182642.78, -162341.58, -113494.60, -187500.02, 0.000, 0.000, 0.000, 15:33:37.541, 1578576817541
112, -174719.63, -114832.28, -155983.45, -187500.02, -182641.44, -162340.11, -113492.12, -187500.02, 0.000, 0.000, 0.000, 15:33:37.541, 1578576817541
113, -174718.42, -114830.05, -155981.38, -187500.02, -182639.88, -162338.41, -113489.55, -187500.02, -0.018, -0.026, 0.982, 15:33:37.541, 1578576817541
114, -174716.83, -114827.41, -155979.08, -187500.02, -182638.00, -162336.33, -113486.53, -187500.02, 0.000, 0.000, 0.000, 15:33:37.542, 1578576817542
115, -174716.67, -114826.18, -155978.05, -187500.02, -182637.39, -162335.50, -113484.88, -187500.02, 0.000, 0.000, 0.000, 15:33:37.542, 1578576817542
116, -174717.19, -114825.53, -155977.70, -187500.02, -182637.58, -162335.38, -113484.05, -187500.02, 0.000, 0.000, 0.000, 15:33:37.542, 1578576817542
117, -174718.42, -114825.71, -155978.27, -187500.02, -182638.47, -162336.16, -113483.87, -187500.02, 0.000, 0.000, 0.000, 15:33:37.542, 1578576817542
118, -174717.33, -114823.52, -155976.44, -187500.02, -182637.13, -162334.66, -113481.41, -187500.02, 0.000, 0.000, 0.000, 15:33:37.542, 1578576817542
119, -174714.61, -114819.84, -155972.97, -187500.02, -182634.22, -162331.45, -113477.32, -187500.02, 0.000, 0.000, 0.000, 15:33:37.542, 1578576817542
120, -174713.50, -114817.69, -155970.98, -187500.02, -182632.72, -162329.69, -113474.77, -187500.02, 0.000, 0.000, 0.000, 15:33:37.542, 1578576817542
121, -174713.20, -114816.48, -155969.97, -187500.02, -182632.13, -162329.00, -113473.19, -187500.02, 0.000, 0.000, 0.000, 15:33:37.542, 1578576817542
122, -174713.13, -114815.25, -155969.11, -187500.02, -182631.73, -162328.36, -113471.76, -187500.02, -0.018, -0.022, 0.976, 15:33:37.542, 1578576817542
123, -174714.17, -114815.12, -155969.27, -187500.02, -182632.44, -162328.78, -113471.24, -187500.02, 0.000, 0.000, 0.000, 15:33:37.542, 1578576817542
124, -174715.67, -114815.48, -155970.06, -187500.02, -182633.55, -162329.67, -113471.33, -187500.02, 0.000, 0.000, 0.000, 15:33:37.542, 1578576817542
125, -174715.73, -114814.58, -155969.39, -187500.02, -182633.38, -162329.25, -113470.08, -187500.02, 0.000, 0.000, 0.000, 15:33:37.542, 1578576817542
126, -174715.80, -114813.71, -155968.83, -187500.02, -182633.17, -162328.91, -113468.85, -187500.02, 0.000, 0.000, 0.000, 15:33:37.542, 1578576817542
127, -174715.88, -114812.66, -155968.14, -187500.02, -182633.06, -162328.53, -113467.60, -187500.02, 0.000, 0.000, 0.000, 15:33:37.542, 1578576817542
128, -174713.56, -114809.27, -155965.02, -187500.02, -182630.38, -162325.72, -113463.82, -187500.02, 0.000, 0.000, 0.000, 15:33:37.542, 1578576817542
129, -174711.80, -114806.58, -155962.52, -187500.02, -182628.30, -162323.38, -113460.73, -187500.02, 0.000, 0.000, 0.000, 15:33:37.542, 1578576817542
130, -174710.17, -114803.90, -155960.14, -187500.02, -182626.47, -162321.36, -113457.72, -187500.02, 0.000, 0.000, 0.000, 15:33:37.542, 1578576817542
131, -174708.78, -114801.51, -155957.92, -187500.02, -182624.75, -162319.34, -113455.02, -187500.02, 0.000, 0.000, 0.000, 15:33:37.542, 1578576817542
132, -174707.42, -114798.98, -155955.80, -187500.02, -182622.84, -162317.33, -113452.11, -187500.02, -0.016, -0.020, 0.972, 15:33:37.543, 1578576817543
133, -174707.23, -114797.70, -155954.91, -187500.02, -182622.23, -162316.69, -113450.39, -187500.02, 0.000, 0.000, 0.000, 15:33:37.543, 1578576817543
134, -174709.83, -114799.20, -155956.75, -187500.02, -182624.61, -162318.72, -113451.73, -187500.02, 0.000, 0.000, 0.000, 15:33:37.543, 1578576817543
135, -174709.20, -114797.41, -155955.20, -187500.02, -182623.56, -162317.38, -113449.65, -187500.02, 0.000, 0.000, 0.000, 15:33:37.543, 1578576817543
136, -174706.28, -114793.46, -155951.48, -187500.02, -182620.25, -162313.88, -113445.36, -187500.02, 0.000, 0.000, 0.000, 15:33:37.543, 1578576817543
137, -174704.69, -114790.93, -155949.19, -187500.02, -182618.48, -162311.88, -113442.43, -187500.02, 0.000, 0.000, 0.000, 15:33:37.543, 1578576817543
138, -174703.98, -114789.21, -155947.72, -187500.02, -182617.41, -162310.63, -113440.27, -187500.02, 0.000, 0.000, 0.000, 15:33:37.543, 1578576817543
139, -174702.92, -114787.20, -155945.97, -187500.02, -182616.19, -162309.25, -113437.96, -187500.02, 0.000, 0.000, 0.000, 15:33:37.543, 1578576817543
140, -174703.08, -114786.24, -155945.36, -187500.02, -182616.14, -162308.91, -113436.80, -187500.02, 0.000, 0.000, 0.000, 15:33:37.543, 1578576817543
141, -174703.95, -114786.02, -155945.36, -187500.02, -182616.56, -162309.11, -113436.24, -187500.02, 0.000, 0.000, 0.000, 15:33:37.543, 1578576817543
142, -174703.44, -114784.45, -155944.11, -187500.02, -182615.73, -162308.08, -113434.30, -187500.02, -0.018, -0.022, 0.976, 15:33:37.543, 1578576817543
143, -174702.28, -114782.33, -155942.28, -187500.02, -182614.30, -162306.41, -113431.88, -187500.02, 0.000, 0.000, 0.000, 15:33:37.543, 1578576817543
144, -174703.63, -114782.51, -155942.73, -187500.02, -182615.17, -162307.08, -113431.61, -187500.02, 0.000, 0.000, 0.000, 15:33:37.543, 1578576817543
145, -174705.28, -114783.13, -155943.69, -187500.02, -182616.61, -162308.23, -113431.91, -187500.02, 0.000, 0.000, 0.000, 15:33:37.543, 1578576817543
146, -174703.91, -114780.70, -155941.45, -187500.02, -182614.91, -162306.41, -113429.27, -187500.02, 0.000, 0.000, 0.000, 15:33:37.543, 1578576817543
147, -174704.47, -114780.16, -155941.19, -187500.02, -182615.13, -162306.41, -113428.33, -187500.02, 0.000, 0.000, 0.000, 15:33:37.543, 1578576817543
148, -174702.80, -114777.45, -155938.89, -187500.02, -182613.17, -162304.27, -113425.24, -187500.02, 0.000, 0.000, 0.000, 15:33:37.543, 1578576817543
149, -174699.75, -114773.32, -155935.08, -187500.02, -182609.75, -162300.69, -113420.81, -187500.02, 0.000, 0.000, 0.000, 15:33:37.543, 1578576817543
150, -174699.73, -114772.27, -155934.30, -187500.02, -182609.55, -162300.09, -113419.43, -187500.02, 0.000, 0.000, 0.000, 15:33:37.543, 1578576817543
151, -174699.03, -114770.48, -155932.89, -187500.02, -182608.58, -162298.94, -113417.48, -187500.02, 0.000, 0.000, 0.000, 15:33:37.544, 1578576817544
152, -174697.52, -114768.02, -155930.61, -187500.02, -182606.69, -162296.95, -113414.52, -187500.02, -0.016, -0.022, 0.972, 15:33:37.544, 1578576817544
153, -174698.48, -114767.93, -155930.77, -187500.02, -182607.36, -162297.28, -113414.05, -187500.02, 0.000, 0.000, 0.000, 15:33:37.544, 1578576817544
154, -174700.06, -114768.42, -155931.53, -187500.02, -182608.63, -162298.33, -113414.16, -187500.02, 0.000, 0.000, 0.000, 15:33:37.545, 1578576817545
155, -174699.48, -114766.75, -155930.14, -187500.02, -182607.63, -162297.22, -113412.16, -187500.02, 0.000, 0.000, 0.000, 15:33:37.545, 1578576817545
156, -174696.67, -114762.84, -155926.56, -187500.02, -182604.47, -162293.86, -113408.01, -187500.02, 0.000, 0.000, 0.000, 15:33:37.545, 1578576817545
157, -174695.02, -114760.09, -155924.25, -187500.02, -182602.61, -162291.58, -113405.08, -187500.02, 0.000, 0.000, 0.000, 15:33:37.545, 1578576817545
158, -174693.67, -114757.74, -155922.13, -187500.02, -182601.05, -162289.80, -113402.38, -187500.02, 0.000, 0.000, 0.000, 15:33:37.546, 1578576817546
159, -174691.59, -114754.63, -155919.34, -187500.02, -182598.61, -162287.25, -113398.89, -187500.02, 0.000, 0.000, 0.000, 15:33:37.546, 1578576817546
160, -174692.73, -114754.68, -155919.64, -187500.02, -182599.34, -162287.77, -113398.64, -187500.02, 0.000, 0.000, 0.000, 15:33:37.546, 1578576817546
161, -174692.95, -114753.83, -155918.98, -187500.02, -182599.17, -162287.42, -113397.37, -187500.02, -0.022, -0.022, 0.972, 15:33:37.546, 1578576817546
162, -174691.75, -114751.59, -155917.03, -187500.02, -182597.78, -162285.78, -113394.69, -187500.02, 0.000, 0.000, 0.000, 15:33:37.546, 1578576817546
163, -174693.41, -114752.33, -155918.03, -187500.02, -182599.27, -162287.09, -113395.23, -187500.02, 0.000, 0.000, 0.000, 15:33:37.546, 1578576817546
164, -174694.05, -114752.09, -155918.09, -187500.02, -182599.66, -162287.31, -113394.60, -187500.02, 0.000, 0.000, 0.000, 15:33:37.546, 1578576817546
165, -174693.00, -114749.98, -155916.33, -187500.02, -182598.25, -162285.78, -113392.16, -187500.02, 0.000, 0.000, 0.000, 15:33:37.546, 1578576817546
166, -174692.98, -114748.69, -155915.39, -187500.02, -182597.89, -162285.08, -113390.62, -187500.02, 0.000, 0.000, 0.000, 15:33:37.546, 1578576817546
167, -174694.56, -114749.02, -155916.20, -187500.02, -182599.08, -162286.11, -113390.82, -187500.02, 0.000, 0.000, 0.000, 15:33:37.546, 1578576817546
168, -174692.72, -114746.16, -155913.61, -187500.02, -182596.83, -162283.73, -113387.65, -187500.02, 0.000, 0.000, 0.000, 15:33:37.546, 1578576817546
169, -174691.38, -114743.88, -155911.48, -187500.02, -182595.19, -162281.86, -113384.88, -187500.02, 0.000, 0.000, 0.000, 15:33:37.546, 1578576817546
170, -174690.48, -114741.89, -155909.77, -187500.02, -182594.03, -162280.23, -113382.51, -187500.02, 0.000, 0.000, 0.000, 15:33:37.546, 1578576817546
171, -174690.64, -114741.02, -155909.14, -187500.02, -182593.77, -162279.78, -113381.25, -187500.02, -0.020, -0.016, 0.968, 15:33:37.546, 1578576817546
172, -174691.30, -114740.66, -155909.05, -187500.02, -182594.13, -162280.05, -113380.61, -187500.02, 0.000, 0.000, 0.000, 15:33:37.546, 1578576817546
173, -174690.81, -114739.05, -155907.80, -187500.02, -182593.36, -162279.06, -113378.73, -187500.02, 0.000, 0.000, 0.000, 15:33:37.547, 1578576817547
174, -174688.83, -114736.06, -155905.14, -187500.02, -182591.14, -162276.61, -113375.35, -187500.02, 0.000, 0.000, 0.000, 15:33:37.547, 1578576817547
175, -174687.39, -114733.49, -155902.97, -187500.02, -182589.36, -162274.64, -113372.45, -187500.02, 0.000, 0.000, 0.000, 15:33:37.547, 1578576817547
176, -174686.50, -114731.55, -155901.16, -187500.02, -182588.00, -162273.19, -113370.16, -187500.02, 0.000, 0.000, 0.000, 15:33:37.547, 1578576817547
177, -174684.44, -114728.46, -155898.30, -187500.02, -182585.61, -162270.63, -113366.70, -187500.02, 0.000, 0.000, 0.000, 15:33:37.547, 1578576817547
178, -174683.70, -114726.65, -155896.94, -187500.02, -182584.59, -162269.45, -113364.65, -187500.02, 0.000, 0.000, 0.000, 15:33:37.547, 1578576817547
179, -174684.16, -114726.09, -155896.69, -187500.02, -182584.84, -162269.38, -113363.84, -187500.02, 0.000, 0.000, 0.000, 15:33:37.547, 1578576817547
180, -174679.45, -114720.41, -155891.34, -187500.02, -182579.95, -162264.27, -113357.85, -187500.02, 0.000, 0.000, 0.000, 15:33:37.547, 1578576817547
181, -174678.08, -114717.93, -155888.97, -187500.02, -182578.16, -162262.34, -113355.02, -187500.02, -0.022, -0.018, 0.968, 15:33:37.547, 1578576817547
182, -174678.97, -114717.71, -155889.17, -187500.02, -182578.83, -162262.73, -113354.52, -187500.02, 0.000, 0.000, 0.000, 15:33:37.547, 1578576817547
183, -174680.31, -114717.91, -155889.83, -187500.02, -182579.84, -162263.59, -113354.50, -187500.02, 0.000, 0.000, 0.000, 15:33:37.547, 1578576817547
184, -174680.08, -114716.62, -155888.80, -187500.02, -182579.19, -162262.75, -113352.82, -187500.02, 0.000, 0.000, 0.000, 15:33:37.547, 1578576817547
185, -174679.56, -114715.16, -155887.44, -187500.02, -182578.41, -162261.67, -113350.84, -187500.02, 0.000, 0.000, 0.000, 15:33:37.547, 1578576817547
186, -174678.72, -114713.26, -155885.83, -187500.02, -182577.16, -162260.30, -113348.53, -187500.02, 0.000, 0.000, 0.000, 15:33:37.547, 1578576817547
187, -174679.69, -114713.15, -155885.98, -187500.02, -182577.92, -162260.84, -113348.20, -187500.02, 0.000, 0.000, 0.000, 15:33:37.547, 1578576817547
188, -174679.45, -114711.83, -155885.00, -187500.02, -182577.36, -162260.11, -113346.67, -187500.02, 0.000, 0.000, 0.000, 15:33:37.548, 1578576817548
189, -174677.63, -114709.06, -155882.58, -187500.02, -182575.22, -162257.81, -113343.45, -187500.02, 0.000, 0.000, 0.000, 15:33:37.548, 1578576817548
190, -174674.39, -114704.79, -155878.56, -187500.02, -182571.66, -162254.02, -113338.70, -187500.02, 0.000, 0.000, 0.000, 15:33:37.548, 1578576817548
191, -174674.61, -114703.92, -155877.94, -187500.02, -182571.52, -162253.61, -113337.58, -187500.02, -0.016, -0.024, 0.974, 15:33:37.548, 1578576817548
192, -174676.06, -114704.37, -155878.63, -187500.02, -182572.70, -162254.58, -113337.73, -187500.02, 0.000, 0.000, 0.000, 15:33:37.548, 1578576817548
193, -174676.80, -114704.03, -155878.56, -187500.02, -182573.20, -162254.70, -113336.95, -187500.02, 0.000, 0.000, 0.000, 15:33:37.548, 1578576817548
194, -174676.06, -114702.29, -155877.03, -187500.02, -182572.13, -162253.52, -113334.88, -187500.02, 0.000, 0.000, 0.000, 15:33:37.548, 1578576817548
195, -174677.88, -114703.05, -155878.06, -187500.02, -182573.63, -162254.86, -113335.50, -187500.02, 0.000, 0.000, 0.000, 15:33:37.548, 1578576817548
196, -174677.09, -114701.17, -155876.52, -187500.02, -182572.55, -162253.50, -113333.27, -187500.02, 0.000, 0.000, 0.000, 15:33:37.548, 1578576817548
197, -174675.69, -114698.58, -155874.33, -187500.02, -182570.67, -162251.52, -113330.34, -187500.02, 0.000, 0.000, 0.000, 15:33:37.548, 1578576817548
198, -174675.34, -114697.21, -155873.23, -187500.02, -182570.05, -162250.69, -113328.55, -187500.02, 0.000, 0.000, 0.000, 15:33:37.548, 1578576817548
199, -174675.55, -114696.34, -155872.64, -187500.02, -182569.91, -162250.25, -113327.43, -187500.02, 0.000, 0.000, 0.000, 15:33:37.548, 1578576817548
200, -174673.47, -114693.21, -155869.89, -187500.02, -182567.52, -162247.63, -113323.99, -187500.02, -0.022, -0.022, 0.974, 15:33:37.548, 1578576817548
201, -174674.16, -114692.88, -155869.75, -187500.02, -182567.97, -162247.81, -113323.36, -187500.02, 0.000, 0.000, 0.000, 15:33:37.548, 1578576817548
202, -174674.81, -114692.43, -155869.53, -187500.02, -182568.33, -162247.98, -113322.63, -187500.02, 0.000, 0.000, 0.000, 15:33:37.548, 1578576817548
203, -174674.14, -114690.75, -155868.13, -187500.02, -182567.39, -162246.80, -113320.63, -187500.02, 0.000, 0.000, 0.000, 15:33:37.549, 1578576817549
204, -174671.64, -114687.22, -155864.94, -187500.02, -182564.45, -162243.73, -113316.77, -187500.02, 0.000, 0.000, 0.000, 15:33:37.549, 1578576817549
205, -174670.45, -114684.95, -155863.02, -187500.02, -182562.98, -162241.98, -113314.16, -187500.02, 0.000, 0.000, 0.000, 15:33:37.549, 1578576817549
206, -174669.52, -114682.93, -155861.22, -187500.02, -182561.75, -162240.48, -113311.70, -187500.02, 0.000, 0.000, 0.000, 15:33:37.549, 1578576817549
207, -174668.66, -114681.05, -155859.64, -187500.02, -182560.58, -162239.17, -113309.48, -187500.02, 0.000, 0.000, 0.000, 15:33:37.549, 1578576817549
208, -174667.08, -114678.51, -155857.48, -187500.02, -182558.73, -162237.11, -113306.55, -187500.02, 0.000, 0.000, 0.000, 15:33:37.549, 1578576817549
209, -174666.30, -114676.65, -155855.84, -187500.02, -182557.67, -162235.81, -113304.43, -187500.02, 0.000, 0.000, 0.000, 15:33:37.549, 1578576817549
210, -174663.66, -114672.91, -155852.36, -187500.02, -182554.63, -162232.63, -113300.38, -187500.02, -0.022, -0.022, 0.980, 15:33:37.549, 1578576817549
211, -174663.92, -114672.24, -155851.94, -187500.02, -182554.61, -162232.44, -113299.34, -187500.02, 0.000, 0.000, 0.000, 15:33:37.549, 1578576817549
212, -174663.23, -114670.50, -155850.48, -187500.02, -182553.58, -162231.22, -113297.28, -187500.02, 0.000, 0.000, 0.000, 15:33:37.549, 1578576817549
213, -174662.58, -114668.67, -155849.13, -187500.02, -182552.75, -162230.09, -113295.22, -187500.02, 0.000, 0.000, 0.000, 15:33:37.549, 1578576817549
214, -174663.31, -114668.24, -155849.02, -187500.02, -182553.11, -162230.23, -113294.41, -187500.02, 0.000, 0.000, 0.000, 15:33:37.549, 1578576817549
215, -174663.25, -114667.17, -155848.16, -187500.02, -182552.75, -162229.61, -113292.96, -187500.02, 0.000, 0.000, 0.000, 15:33:37.549, 1578576817549
216, -174660.91, -114663.80, -155845.13, -187500.02, -182550.17, -162226.86, -113289.34, -187500.02, 0.000, 0.000, 0.000, 15:33:37.549, 1578576817549
217, -174659.09, -114660.89, -155842.53, -187500.02, -182548.05, -162224.48, -113286.05, -187500.02, 0.000, 0.000, 0.000, 15:33:37.549, 1578576817549
218, -174659.03, -114659.86, -155841.77, -187500.02, -182547.58, -162223.80, -113284.72, -187500.02, 0.000, 0.000, 0.000, 15:33:37.549, 1578576817549
219, -174659.45, -114659.23, -155841.44, -187500.02, -182547.72, -162223.72, -113283.82, -187500.02, 0.000, 0.000, 0.000, 15:33:37.549, 1578576817549
220, -174656.33, -114655.02, -155837.50, -187500.02, -182544.19, -162220.00, -113279.22, -187500.02, -0.020, -0.016, 0.978, 15:33:37.550, 1578576817550
221, -174655.39, -114653.16, -155835.86, -187500.02, -182542.98, -162218.58, -113276.89, -187500.02, 0.000, 0.000, 0.000, 15:33:37.550, 1578576817550
222, -174654.14, -114650.90, -155833.94, -187500.02, -182541.42, -162216.86, -113274.32, -187500.02, 0.000, 0.000, 0.000, 15:33:37.550, 1578576817550
223, -174652.66, -114648.40, -155831.75, -187500.02, -182539.67, -162214.97, -113271.62, -187500.02, 0.000, 0.000, 0.000, 15:33:37.550, 1578576817550
224, -174656.53, -114651.19, -155834.86, -187500.02, -182543.19, -162218.31, -113274.16, -187500.02, 0.000, 0.000, 0.000, 15:33:37.550, 1578576817550
225, -174660.84, -114654.38, -155838.33, -187500.02, -182547.16, -162222.05, -113276.98, -187500.02, 0.000, 0.000, 0.000, 15:33:37.550, 1578576817550
226, -174661.80, -114654.23, -155838.56, -187500.02, -182547.88, -162222.47, -113276.54, -187500.02, 0.000, 0.000, 0.000, 15:33:38.022, 1578576818022
227, -174660.69, -114652.04, -155836.63, -187500.02, -182546.33, -162220.78, -113274.01, -187500.02, 0.000, 0.000, 0.000, 15:33:38.022, 1578576818022
228, -174660.25, -114650.68, -155835.44, -187500.02, -182545.63, -162219.81, -113272.20, -187500.02, 0.000, 0.000, 0.000, 15:33:38.022, 1578576818022
229, -174659.61, -114648.91, -155833.94, -187500.02, -182544.59, -162218.66, -113270.08, -187500.02, 0.000, 0.000, 0.000, 15:33:38.022, 1578576818022
230, -174657.53, -114645.76, -155831.16, -187500.02, -182542.27, -162216.14, -113266.66, -187500.02, -0.020, -0.018, 0.974, 15:33:38.022, 1578576818022
231, -174655.27, -114642.27, -155828.06, -187500.02, -182539.67, -162213.28, -113262.92, -187500.02, 0.000, 0.000, 0.000, 15:33:38.022, 1578576818022
232, -174652.70, -114638.61, -155824.64, -187500.02, -182536.81, -162210.11, -113258.95, -187500.02, 0.000, 0.000, 0.000, 15:33:38.023, 1578576818023
233, -174654.30, -114639.19, -155825.38, -187500.02, -182538.06, -162211.16, -113259.21, -187500.02, 0.000, 0.000, 0.000, 15:33:38.023, 1578576818023
234, -174653.98, -114637.98, -155824.41, -187500.02, -182537.45, -162210.45, -113257.67, -187500.02, 0.000, 0.000, 0.000, 15:33:38.023, 1578576818023
235, -174652.41, -114635.32, -155822.13, -187500.02, -182535.58, -162208.30, -113254.77, -187500.02, 0.000, 0.000, 0.000, 15:33:38.023, 1578576818023
236, -174652.38, -114634.18, -155821.36, -187500.02, -182535.27, -162207.75, -113253.36, -187500.02, 0.000, 0.000, 0.000, 15:33:38.023, 1578576818023
237, -174649.33, -114630.09, -155817.48, -187500.02, -182531.92, -162204.19, -113248.91, -187500.02, 0.000, 0.000, 0.000, 15:33:38.023, 1578576818023
238, -174649.64, -114629.38, -155817.17, -187500.02, -182531.89, -162204.13, -113247.77, -187500.02, 0.000, 0.000, 0.000, 15:33:38.023, 1578576818023
239, -174649.75, -114628.37, -155816.48, -187500.02, -182531.64, -162203.63, -113246.52, -187500.02, -0.014, -0.016, 0.982, 15:33:38.023, 1578576818023
240, -174650.20, -114627.81, -155816.16, -187500.02, -182531.88, -162203.52, -113245.60, -187500.02, 0.000, 0.000, 0.000, 15:33:38.023, 1578576818023
241, -174650.41, -114626.96, -155815.59, -187500.02, -182531.69, -162203.20, -113244.44, -187500.02, 0.000, 0.000, 0.000, 15:33:38.023, 1578576818023
242, -174648.95, -114624.41, -155813.25, -187500.02, -182529.84, -162201.17, -113241.47, -187500.02, 0.000, 0.000, 0.000, 15:33:38.023, 1578576818023
243, -174648.88, -114623.34, -155812.42, -187500.02, -182529.64, -162200.59, -113240.04, -187500.02, 0.000, 0.000, 0.000, 15:33:38.023, 1578576818023
244, -174648.33, -114621.80, -155811.14, -187500.02, -182528.78, -162199.61, -113238.13, -187500.02, 0.000, 0.000, 0.000, 15:33:38.023, 1578576818023
245, -174647.56, -114619.98, -155809.69, -187500.02, -182527.78, -162198.36, -113236.02, -187500.02, 0.000, 0.000, 0.000, 15:33:38.023, 1578576818023
246, -174646.06, -114617.38, -155807.44, -187500.02, -182525.88, -162196.19, -113233.09, -187500.02, 0.000, 0.000, 0.000, 15:33:38.023, 1578576818023
247, -174645.22, -114615.47, -155805.83, -187500.02, -182524.70, -162194.84, -113230.89, -187500.02, 0.000, 0.000, 0.000, 15:33:38.023, 1578576818023
248, -174646.59, -114615.83, -155806.41, -187500.02, -182525.81, -162195.70, -113230.85, -187500.02, 0.000, 0.000, 0.000, 15:33:38.023, 1578576818023
249, -174648.23, -114616.59, -155807.33, -187500.02, -182527.17, -162196.97, -113231.25, -187500.02, -0.016, -0.018, 0.980, 15:33:38.023, 1578576818023
250, -174648.61, -114615.88, -155806.89, -187500.02, -182527.30, -162196.75, -113230.36, -187500.02, 0.000, 0.000, 0.000, 15:33:38.023, 1578576818023
251, -174644.41, -114610.48, -155801.89, -187500.02, -182522.73, -162191.98, -113224.63, -187500.02, 0.000, 0.000, 0.000, 15:33:38.024, 1578576818024
252, -174641.45, -114606.45, -155798.31, -187500.02, -182519.41, -162188.55, -113220.23, -187500.02, 0.000, 0.000, 0.000, 15:33:38.024, 1578576818024
253, -174641.42, -114605.39, -155797.55, -187500.02, -182519.00, -162187.97, -113218.78, -187500.02, 0.000, 0.000, 0.000, 15:33:38.024, 1578576818024
254, -174641.06, -114603.98, -155796.25, -187500.02, -182518.42, -162187.06, -113217.08, -187500.02, 0.000, 0.000, 0.000, 15:33:38.024, 1578576818024
255, -174641.70, -114603.63, -155796.28, -187500.02, -182518.75, -162187.34, -113216.52, -187500.02, 0.000, 0.000, 0.000, 15:33:38.024, 1578576818024
0, -174644.25, -114605.10, -155798.00, -187500.02, -182520.98, -162189.27, -113217.66, -187500.02, 0.000, 0.000, 0.000, 15:33:38.024, 1578576818024
1, -174641.75, -114601.57, -155794.63, -187500.02, -182518.11, -162186.06, -113213.68, -187500.02, 0.000, 0.000, 0.000, 15:33:38.024, 1578576818024
2, -174639.22, -114597.88, -155791.36, -187500.02, -182515.22, -162182.91, -113209.75, -187500.02, 0.000, 0.000, 0.000, 15:33:38.024, 1578576818024
3, -174638.47, -114596.02, -155789.91, -187500.02, -182514.14, -162181.66, -113207.63, -187500.02, -0.018, -0.020, 0.982, 15:33:38.024, 1578576818024
4, -174638.23, -114594.80, -155789.00, -187500.02, -182513.63, -162180.98, -113206.09, -187500.02, 0.000, 0.000, 0.000, 15:33:38.024, 1578576818024
5, -174640.03, -114595.47, -155790.02, -187500.02, -182515.08, -162182.28, -113206.48, -187500.02, 0.000, 0.000, 0.000, 15:33:38.024, 1578576818024
6, -174639.31, -114593.63, -155788.50, -187500.02, -182513.98, -162181.06, -113204.30, -187500.02, 0.000, 0.000, 0.000, 15:33:38.024, 1578576818024
7, -174637.48, -114590.86, -155786.02, -187500.02, -182511.91, -162178.80, -113201.19, -187500.02, 0.000, 0.000, 0.000, 15:33:38.024, 1578576818024
8, -174636.72, -114589.08, -155784.44, -187500.02, -182510.86, -162177.45, -113199.09, -187500.02, 0.000, 0.000, 0.000, 15:33:38.024, 1578576818024
9, -174634.67, -114586.05, -155781.53, -187500.02, -182508.52, -162174.89, -113195.53, -187500.02, 0.000, 0.000, 0.000, 15:33:38.024, 1578576818024
10, -174633.03, -114583.29, -155779.11, -187500.02, -182506.56, -162172.61, -113192.41, -187500.02, 0.000, 0.000, 0.000, 15:33:38.024, 1578576818024
11, -174632.19, -114581.34, -155777.55, -187500.02, -182505.30, -162171.22, -113190.21, -187500.02, 0.000, 0.000, 0.000, 15:33:38.024, 1578576818024
12, -174634.86, -114582.98, -155779.50, -187500.02, -182507.73, -162173.45, -113191.58, -187500.02, 0.000, 0.000, 0.000, 15:33:38.024, 1578576818024
13, -174637.97, -114584.98, -155781.69, -187500.02, -182510.38, -162175.95, -113193.23, -187500.02, -0.014, -0.018, 0.978, 15:33:38.024, 1578576818024
14, -174636.34, -114582.28, -155779.34, -187500.02, -182508.36, -162173.67, -113190.15, -187500.02, 0.000, 0.000, 0.000, 15:33:38.025, 1578576818025
15, -174636.66, -114581.54, -155778.80, -187500.02, -182508.41, -162173.45, -113189.05, -187500.02, 0.000, 0.000, 0.000, 15:33:38.025, 1578576818025
16, -174638.11, -114581.88, -155779.47, -187500.02, -182509.47, -162174.42, -113189.16, -187500.02, 0.000, 0.000, 0.000, 15:33:38.028, 1578576818028
17, -174635.45, -114578.23, -155776.14, -187500.02, -182506.61, -162171.31, -113185.14, -187500.02, 0.000, 0.000, 0.000, 15:33:38.028, 1578576818028
18, -174634.11, -114575.98, -155774.05, -187500.02, -182505.08, -162169.55, -113182.44, -187500.02, 0.000, 0.000, 0.000, 15:33:38.028, 1578576818028
19, -174631.33, -114572.20, -155770.63, -187500.02, -182502.03, -162166.30, -113178.39, -187500.02, 0.000, 0.000, 0.000, 15:33:38.028, 1578576818028
20, -174629.09, -114568.82, -155767.56, -187500.02, -182499.47, -162163.58, -113174.73, -187500.02, 0.000, 0.000, 0.000, 15:33:38.028, 1578576818028
21, -174627.16, -114565.83, -155764.83, -187500.02, -182497.09, -162161.09, -113171.44, -187500.02, 0.000, 0.000, 0.000, 15:33:38.028, 1578576818028
22, -174629.30, -114566.86, -155766.17, -187500.02, -182498.92, -162162.64, -113172.17, -187500.02, -0.016, -0.016, 0.974, 15:33:38.028, 1578576818028
23, -174628.47, -114564.98, -155764.61, -187500.02, -182497.78, -162161.25, -113169.98, -187500.02, 0.000, 0.000, 0.000, 15:33:38.028, 1578576818028
24, -174627.05, -114562.56, -155762.50, -187500.02, -182496.13, -162159.31, -113167.23, -187500.02, 0.000, 0.000, 0.000, 15:33:38.028, 1578576818028
25, -174626.11, -114560.53, -155760.72, -187500.02, -182494.88, -162157.75, -113164.84, -187500.02, 0.000, 0.000, 0.000, 15:33:38.029, 1578576818029
26, -174625.28, -114558.66, -155759.05, -187500.02, -182493.63, -162156.36, -113162.59, -187500.02, 0.000, 0.000, 0.000, 15:33:38.029, 1578576818029
27, -174626.64, -114559.08, -155759.59, -187500.02, -182494.66, -162157.27, -113162.61, -187500.02, 0.000, 0.000, 0.000, 15:33:38.029, 1578576818029
28, -174626.34, -114557.73, -155758.63, -187500.02, -182494.19, -162156.52, -113160.93, -187500.02, 0.000, 0.000, 0.000, 15:33:38.029, 1578576818029
29, -174624.73, -114555.08, -155756.31, -187500.02, -182492.28, -162154.38, -113157.91, -187500.02, 0.000, 0.000, 0.000, 15:33:38.029, 1578576818029
30, -174625.92, -114555.19, -155756.77, -187500.02, -182493.20, -162155.06, -113157.78, -187500.02, 0.000, 0.000, 0.000, 15:33:38.029, 1578576818029
31, -174624.50, -114552.62, -155754.55, -187500.02, -182491.45, -162153.16, -113154.92, -187500.02, 0.000, 0.000, 0.000, 15:33:38.029, 1578576818029
32, -174621.86, -114548.98, -155751.23, -187500.02, -182488.44, -162150.02, -113150.94, -187500.02, -0.018, -0.010, 0.972, 15:33:38.029, 1578576818029
33, -174622.75, -114548.98, -155751.36, -187500.02, -182489.02, -162150.36, -113150.56, -187500.02, 0.000, 0.000, 0.000, 15:33:38.029, 1578576818029
34, -174622.08, -114547.26, -155749.98, -187500.02, -182488.11, -162149.20, -113148.52, -187500.02, 0.000, 0.000, 0.000, 15:33:38.029, 1578576818029
35, -174622.14, -114546.23, -155749.34, -187500.02, -182487.91, -162148.80, -113147.23, -187500.02, 0.000, 0.000, 0.000, 15:33:38.029, 1578576818029
36, -174621.25, -114544.41, -155747.69, -187500.02, -182486.70, -162147.34, -113144.98, -187500.02, 0.000, 0.000, 0.000, 15:33:38.030, 1578576818030
37, -174622.13, -114544.08, -155747.75, -187500.02, -182487.17, -162147.69, -113144.39, -187500.02, 0.000, 0.000, 0.000, 15:33:38.030, 1578576818030
38, -174620.34, -114541.17, -155745.19, -187500.02, -182484.98, -162145.30, -113141.11, -187500.02, 0.000, 0.000, 0.000, 15:33:38.030, 1578576818030
39, -174617.86, -114537.66, -155741.78, -187500.02, -182482.19, -162142.14, -113137.20, -187500.02, 0.000, 0.000, 0.000, 15:33:38.030, 1578576818030
40, -174615.02, -114533.91, -155738.28, -187500.02, -182479.20, -162138.94, -113133.09, -187500.02, 0.000, 0.000, 0.000, 15:33:38.030, 1578576818030
41, -174612.94, -114530.83, -155735.48, -187500.02, -182476.80, -162136.36, -113129.71, -187500.02, 0.000, 0.000, 0.000, 15:33:38.030, 1578576818030
42, -174613.98, -114530.76, -155735.80, -187500.02, -182477.44, -162136.84, -113129.38, -187500.02, -0.016, -0.018, 0.976, 15:33:38.030, 1578576818030
43, -174614.03, -114529.66, -155735.03, -187500.02, -182477.20, -162136.47, -113128.01, -187500.02, 0.000, 0.000, 0.000, 15:33:38.030, 1578576818030
44, -174614.17, -114528.70, -155734.36, -187500.02, -182477.00, -162136.00, -113126.71, -187500.02, 0.000, 0.000, 0.000, 15:33:38.030, 1578576818030
45, -174613.77, -114527.27, -155733.34, -187500.02, -182476.28, -162135.09, -113124.90, -187500.02, 0.000, 0.000, 0.000, 15:33:38.030, 1578576818030
46, -174612.52, -114525.04, -155731.23, -187500.02, -182474.72, -162133.36, -113122.35, -187500.02, 0.000, 0.000, 0.000, 15:33:38.030, 1578576818030
47, -174615.44, -114526.91, -155733.31, -187500.02, -182477.33, -162135.81, -113123.90, -187500.02, 0.000, 0.000, 0.000, 15:33:38.031, 1578576818031
48, -174615.42, -114525.87, -155732.56, -187500.02, -182476.94, -162135.22, -113122.53, -187500.02, 0.000, 0.000, 0.000, 15:33:38.031, 1578576818031
49, -174615.17, -114524.73, -155731.61, -187500.02, -182476.59, -162134.59, -113120.88, -187500.02, 0.000, 0.000, 0.000, 15:33:38.031, 1578576818031
50, -174617.77, -114526.11, -155733.31, -187500.02, -182478.81, -162136.58, -113121.95, -187500.02, 0.000, 0.000, 0.000, 15:33:38.031, 1578576818031
51, -174615.70, -114523.02, -155730.59, -187500.02, -182476.38, -162134.00, -113118.62, -187500.02, 0.000, 0.000, 0.000, 15:33:38.031, 1578576818031
52, -174615.70, -114522.02, -155729.89, -187500.02, -182476.14, -162133.47, -113117.28, -187500.02, -0.012, -0.012, 0.974, 15:33:38.031, 1578576818031
53, -174617.81, -114523.00, -155731.14, -187500.02, -182477.84, -162134.92, -113117.91, -187500.02, 0.000, 0.000, 0.000, 15:33:38.031, 1578576818031
54, -174617.67, -114521.64, -155730.14, -187500.02, -182477.33, -162134.16, -113116.32, -187500.02, 0.000, 0.000, 0.000, 15:33:38.031, 1578576818031
55, -174616.61, -114519.41, -155728.33, -187500.02, -182475.86, -162132.53, -113113.73, -187500.02, 0.000, 0.000, 0.000, 15:33:38.031, 1578576818031
56, -174615.70, -114517.57, -155726.78, -187500.02, -182474.73, -162131.13, -113111.58, -187500.02, 0.000, 0.000, 0.000, 15:33:38.031, 1578576818031
57, -174614.53, -114515.27, -155724.89, -187500.02, -182473.20, -162129.38, -113109.01, -187500.02, 0.000, 0.000, 0.000, 15:33:38.031, 1578576818031
58, -174612.92, -114512.63, -155722.41, -187500.02, -182471.23, -162127.33, -113106.08, -187500.02, 0.000, 0.000, 0.000, 15:33:38.032, 1578576818032
59, -174610.91, -114509.68, -155719.72, -187500.02, -182469.05, -162124.89, -113102.82, -187500.02, 0.000, 0.000, 0.000, 15:33:38.032, 1578576818032
60, -174610.09, -114507.83, -155718.16, -187500.02, -182467.92, -162123.55, -113100.60, -187500.02, 0.000, 0.000, 0.000, 15:33:38.032, 1578576818032
61, -174610.59, -114507.29, -155717.95, -187500.02, -182468.14, -162123.59, -113099.64, -187500.02, 0.000, 0.000, 0.000, 15:33:38.032, 1578576818032
62, -174611.70, -114507.36, -155718.30, -187500.02, -182468.89, -162124.14, -113099.47, -187500.02, -0.014, -0.010, 0.970, 15:33:38.032, 1578576818032
63, -174611.28, -114505.77, -155717.05, -187500.02, -182468.17, -162123.17, -113097.68, -187500.02, 0.000, 0.000, 0.000, 15:33:38.032, 1578576818032
64, -174609.94, -114503.40, -155714.88, -187500.02, -182466.56, -162121.27, -113094.91, -187500.02, 0.000, 0.000, 0.000, 15:33:38.032, 1578576818032
65, -174606.50, -114499.00, -155710.72, -187500.02, -182462.89, -162117.39, -113090.15, -187500.02, 0.000, 0.000, 0.000, 15:33:38.032, 1578576818032
66, -174605.39, -114496.94, -155708.92, -187500.02, -182461.39, -162115.78, -113087.64, -187500.02, 0.000, 0.000, 0.000, 15:33:38.033, 1578576818033
67, -174608.22, -114498.70, -155711.02, -187500.02, -182463.92, -162118.06, -113089.07, -187500.02, 0.000, 0.000, 0.000, 15:33:38.033, 1578576818033
68, -174607.08, -114496.56, -155709.08, -187500.02, -182462.53, -162116.45, -113086.66, -187500.02, 0.000, 0.000, 0.000, 15:33:38.033, 1578576818033
69, -174605.58, -114493.99, -155706.81, -187500.02, -182460.69, -162114.38, -113083.75, -187500.02, 0.000, 0.000, 0.000, 15:33:38.033, 1578576818033
70, -174607.98, -114495.27, -155708.38, -187500.02, -182462.63, -162116.13, -113084.69, -187500.02, 0.000, 0.000, 0.000, 15:33:38.033, 1578576818033
71, -174608.30, -114494.41, -155707.91, -187500.02, -182462.64, -162116.02, -113083.59, -187500.02, -0.020, -0.012, 0.976, 15:33:38.033, 1578576818033
72, -174605.61, -114490.70, -155704.50, -187500.02, -182459.78, -162112.89, -113079.57, -187500.02, 0.000, 0.000, 0.000, 15:33:38.033, 1578576818033
73, -174604.56, -114488.58, -155702.61, -187500.02, -182458.33, -162111.14, -113077.12, -187500.02, 0.000, 0.000, 0.000, 15:33:38.033, 1578576818033
74, -174604.11, -114487.15, -155701.42, -187500.02, -182457.59, -162110.30, -113075.30, -187500.02, 0.000, 0.000, 0.000, 15:33:38.033, 1578576818033
75, -174602.84, -114484.83, -155699.41, -187500.02, -182455.98, -162108.45, -113072.64, -187500.02, 0.000, 0.000, 0.000, 15:33:38.034, 1578576818034
76, -174603.44, -114484.38, -155699.25, -187500.02, -182456.20, -162108.56, -113071.88, -187500.02, 0.000, 0.000, 0.000, 15:33:38.034, 1578576818034
77, -174604.16, -114483.93, -155699.23, -187500.02, -182456.59, -162108.70, -113071.16, -187500.02, 0.000, 0.000, 0.000, 15:33:38.034, 1578576818034
78, -174604.25, -114483.09, -155698.63, -187500.02, -182456.48, -162108.34, -113069.89, -187500.02, 0.000, 0.000, 0.000, 15:33:38.034, 1578576818034
79, -174601.27, -114479.13, -155694.98, -187500.02, -182453.19, -162104.86, -113065.58, -187500.02, 0.000, 0.000, 0.000, 15:33:38.034, 1578576818034
80, -174598.66, -114475.44, -155691.61, -187500.02, -182450.27, -162101.75, -113061.55, -187500.02, 0.000, 0.000, 0.000, 15:33:38.034, 1578576818034
81, -174597.58, -114473.34, -155689.66, -187500.02, -182448.88, -162100.13, -113059.08, -187500.02, -0.022, -0.016, 0.972, 15:33:38.034, 1578576818034
82, -174597.05, -114471.82, -155688.45, -187500.02, -182448.14, -162099.11, -113057.35, -187500.02, 0.000, 0.000, 0.000, 15:33:38.034, 1578576818034
83, -174596.11, -114469.70, -155686.73, -187500.02, -182446.80, -162097.50, -113054.98, -187500.02, 0.000, 0.000, 0.000, 15:33:38.035, 1578576818035
84, -174592.80, -114465.49, -155682.69, -187500.02, -182443.25, -162093.70, -113050.29, -187500.02, 0.000, 0.000, 0.000, 15:33:38.035, 1578576818035
85, -174590.72, -114462.41, -155679.83, -187500.02, -182440.92, -162091.25, -113046.89, -187500.02, 0.000, 0.000, 0.000, 15:33:38.035, 1578576818035
86, -174590.08, -114460.69, -155678.47, -187500.02, -182439.95, -162090.08, -113044.81, -187500.02, 0.000, 0.000, 0.000, 15:33:38.035, 1578576818035
87, -174590.28, -114459.68, -155677.77, -187500.02, -182439.77, -162089.70, -113043.54, -187500.02, 0.000, 0.000, 0.000, 15:33:38.035, 1578576818035
88, -174589.11, -114457.42, -155675.80, -187500.02, -182438.17, -162087.98, -113041.02, -187500.02, 0.000, 0.000, 0.000, 15:33:38.035, 1578576818035
89, -174587.81, -114455.14, -155673.77, -187500.02, -182436.58, -162086.17, -113038.36, -187500.02, 0.000, 0.000, 0.000, 15:33:38.035, 1578576818035
90, -174587.25, -114453.63, -155672.50, -187500.02, -182435.77, -162085.08, -113036.59, -187500.02, 0.000, 0.000, 0.000, 15:33:38.502, 1578576818502
91, -174585.02, -114450.31, -155669.64, -187500.02, -182433.19, -162082.34, -113032.97, -187500.02, -0.026, -0.018, 0.972, 15:33:38.502, 1578576818502
92, -174586.09, -114450.34, -155669.86, -187500.02, -182433.97, -162082.89, -113032.59, -187500.02, 0.000, 0.000, 0.000, 15:33:38.502, 1578576818502
93, -174588.05, -114451.26, -155671.00, -187500.02, -182435.63, -162084.25, -113033.05, -187500.02, 0.000, 0.000, 0.000, 15:33:38.502, 1578576818502
94, -174589.33, -114451.52, -155671.56, -187500.02, -182436.66, -162085.09, -113032.92, -187500.02, 0.000, 0.000, 0.000, 15:33:38.503, 1578576818503
95, -174591.23, -114452.23, -155672.66, -187500.02, -182438.16, -162086.44, -113033.51, -187500.02, 0.000, 0.000, 0.000, 15:33:38.503, 1578576818503
96, -174590.52, -114450.56, -155671.13, -187500.02, -182437.23, -162085.25, -113031.49, -187500.02, 0.000, 0.000, 0.000, 15:33:38.503, 1578576818503
97, -174589.48, -114448.57, -155669.41, -187500.02, -182435.92, -162083.64, -113029.10, -187500.02, 0.000, 0.000, 0.000, 15:33:38.503, 1578576818503
98, -174588.73, -114446.67, -155667.84, -187500.02, -182434.78, -162082.42, -113026.94, -187500.02, 0.000, 0.000, 0.000, 15:33:38.503, 1578576818503
99, -174587.53, -114444.50, -155666.06, -187500.02, -182433.33, -162080.81, -113024.37, -187500.02, 0.000, 0.000, 0.000, 15:33:38.503, 1578576818503
100, -174586.08, -114442.07, -155663.88, -187500.02, -182431.59, -162078.86, -113021.46, -187500.02, 0.000, 0.000, 0.000, 15:33:38.503, 1578576818503
101, -174584.34, -114439.09, -155661.28, -187500.02, -182429.36, -162076.45, -113018.26, -187500.02, -0.024, -0.018, 0.968, 15:33:38.503, 1578576818503
102, -174584.70, -114438.38, -155660.88, -187500.02, -182429.55, -162076.22, -113017.28, -187500.02, 0.000, 0.000, 0.000, 15:33:38.503, 1578576818503
103, -174583.95, -114436.52, -155659.27, -187500.02, -182428.42, -162074.91, -113015.20, -187500.02, 0.000, 0.000, 0.000, 15:33:38.503, 1578576818503
104, -174583.56, -114435.16, -155658.14, -187500.02, -182427.73, -162074.11, -113013.48, -187500.02, 0.000, 0.000, 0.000, 15:33:38.503, 1578576818503
105, -174582.27, -114432.92, -155656.22, -187500.02, -182426.13, -162072.41, -113010.86, -187500.02, 0.000, 0.000, 0.000, 15:33:38.503, 1578576818503
106, -174580.22, -114429.84, -155653.44, -187500.02, -182423.80, -162069.83, -113007.40, -187500.02, 0.000, 0.000, 0.000, 15:33:38.503, 1578576818503
107, -174582.52, -114431.07, -155654.91, -187500.02, -182425.81, -162071.55, -113008.27, -187500.02, 0.000, 0.000, 0.000, 15:33:38.503, 1578576818503
108, -174582.70, -114430.24, -155654.39, -187500.02, -182425.61, -162071.17, -113007.02, -187500.02, 0.000, 0.000, 0.000, 15:33:38.503, 1578576818503
109, -174583.33, -114429.82, -155654.30, -187500.02, -182425.97, -162071.28, -113006.37, -187500.02, 0.000, 0.000, 0.000, 15:33:38.503, 1578576818503
110, -174582.89, -114428.30, -155653.11, -187500.02, -182425.30, -162070.33, -113004.59, -187500.02, -0.018, -0.018, 0.974, 15:33:38.503, 1578576818503
111, -174581.52, -114425.91, -155651.00, -187500.02, -182423.67, -162068.52, -113001.85, -187500.02, 0.000, 0.000, 0.000, 15:33:38.504, 1578576818504
112, -174580.73, -114423.98, -155649.31, -187500.02, -182422.45, -162067.11, -112999.55, -187500.02, 0.000, 0.000, 0.000, 15:33:38.504, 1578576818504
113, -174579.08, -114421.28, -155646.91, -187500.02, -182420.38, -162064.88, -112996.55, -187500.02, 0.000, 0.000, 0.000, 15:33:38.504, 1578576818504
114, -174577.98, -114419.23, -155645.09, -187500.02, -182418.97, -162063.34, -112994.19, -187500.02, 0.000, 0.000, 0.000, 15:33:38.504, 1578576818504
115, -174575.61, -114415.88, -155641.98, -187500.02, -182416.31, -162060.47, -112990.50, -187500.02, 0.000, 0.000, 0.000, 15:33:38.504, 1578576818504
116, -174575.33, -114414.53, -155640.89, -187500.02, -182415.75, -162059.63, -112988.80, -187500.02, 0.000, 0.000, 0.000, 15:33:38.504, 1578576818504
117, -174577.00, -114415.02, -155641.73, -187500.02, -182417.08, -162060.69, -112988.94, -187500.02, 0.000, 0.000, 0.000, 15:33:38.504, 1578576818504
118, -174577.42, -114414.38, -155641.36, -187500.02, -182417.09, -162060.53, -112987.93, -187500.02, 0.000, 0.000, 0.000, 15:33:38.504, 1578576818504
119, -174576.53, -114412.45, -155639.70, -187500.02, -182415.95, -162059.13, -112985.70, -187500.02, 0.000, 0.000, 0.000, 15:33:38.504, 1578576818504
120, -174577.22, -114412.18, -155639.64, -187500.02, -182416.45, -162059.33, -112985.09, -187500.02, -0.020, -0.020, 0.978, 15:33:38.504, 1578576818504
121, -174575.70, -114409.68, -155637.45, -187500.02, -182414.64, -162057.42, -112982.39, -187500.02, 0.000, 0.000, 0.000, 15:33:38.504, 1578576818504
122, -174571.39, -114404.31, -155632.47, -187500.02, -182410.03, -162052.58, -112976.64, -187500.02, 0.000, 0.000, 0.000, 15:33:38.504, 1578576818504
123, -174567.98, -114399.80, -155628.31, -187500.02, -182406.28, -162048.55, -112971.91, -187500.02, 0.000, 0.000, 0.000, 15:33:38.504, 1578576818504
124, -174566.38, -114397.16, -155625.89, -187500.02, -182404.22, -162046.39, -112968.87, -187500.02, 0.000, 0.000, 0.000, 15:33:38.504, 1578576818504
125, -174564.50, -114394.21, -155623.17, -187500.02, -182402.03, -162043.97, -112965.51, -187500.02, 0.000, 0.000, 0.000, 15:33:38.504, 1578576818504
126, -174563.78, -114392.40, -155621.67, -187500.02, -182400.91, -162042.75, -112963.23, -187500.02, 0.000, 0.000, 0.000, 15:33:38.505, 1578576818505
127, -174562.36, -114389.90, -155619.48, -187500.02, -182399.19, -162040.83, -112960.48, -187500.02, 0.000, 0.000, 0.000, 15:33:38.505, 1578576818505
128, -174563.66, -114390.23, -155620.02, -187500.02, -182400.27, -162041.69, -112960.52, -187500.02, 0.000, 0.000, 0.000, 15:33:38.505, 1578576818505
129, -174567.63, -114393.20, -155623.20, -187500.02, -182403.97, -162045.20, -112963.08, -187500.02, 0.000, 0.000, 0.000, 15:33:38.505, 1578576818505
130, -174571.31, -114395.87, -155626.19, -187500.02, -182407.38, -162048.38, -112965.45, -187500.02, -0.026, -0.024, 0.978, 15:33:38.505, 1578576818505
131, -174570.00, -114393.52, -155624.17, -187500.02, -182405.67, -162046.45, -112962.85, -187500.02, 0.000, 0.000, 0.000, 15:33:38.505, 1578576818505
132, -174566.94, -114389.36, -155620.31, -187500.02, -182402.19, -162042.86, -112958.36, -187500.02, 0.000, 0.000, 0.000, 15:33:38.505, 1578576818505
133, -174566.14, -114387.48, -155618.81, -187500.02, -182401.16, -162041.53, -112956.26, -187500.02, 0.000, 0.000, 0.000, 15:33:38.505, 1578576818505
134, -174567.94, -114388.22, -155619.81, -187500.02, -182402.67, -162042.91, -112956.66, -187500.02, 0.000, 0.000, 0.000, 15:33:38.505, 1578576818505
135, -174568.97, -114388.18, -155620.03, -187500.02, -182403.39, -162043.38, -112956.33, -187500.02, 0.000, 0.000, 0.000, 15:33:38.505, 1578576818505
136, -174567.30, -114385.48, -155617.67, -187500.02, -182401.38, -162041.22, -112953.22, -187500.02, 0.000, 0.000, 0.000, 15:33:38.505, 1578576818505
137, -174565.69, -114382.86, -155615.28, -187500.02, -182399.39, -162039.03, -112950.23, -187500.02, 0.000, 0.000, 0.000, 15:33:38.505, 1578576818505
138, -174563.36, -114379.51, -155612.27, -187500.02, -182396.84, -162036.19, -112946.52, -187500.02, 0.000, 0.000, 0.000, 15:33:38.505, 1578576818505
139, -174564.70, -114379.66, -155612.86, -187500.02, -182397.81, -162037.05, -112946.45, -187500.02, 0.000, 0.000, 0.000, 15:33:38.505, 1578576818505
140, -174565.16, -114379.17, -155612.53, -187500.02, -182398.08, -162037.09, -112945.59, -187500.02, -0.020, -0.018, 0.978, 15:33:38.505, 1578576818505
141, -174563.67, -114376.60, -155610.20, -187500.02, -182396.17, -162034.98, -112942.76, -187500.02, 0.000, 0.000, 0.000, 15:33:38.505, 1578576818505
142, -174563.08, -114374.90, -155608.80, -187500.02, -182395.08, -162033.80, -112940.66, -187500.02, 0.000, 0.000, 0.000, 15:33:38.505, 1578576818505
143, -174561.23, -114372.04, -155606.33, -187500.02, -182393.05, -162031.56, -112937.48, -187500.02, 0.000, 0.000, 0.000, 15:33:38.506, 1578576818506
144, -174559.61, -114369.29, -155603.88, -187500.02, -182391.14, -162029.38, -112934.46, -187500.02, 0.000, 0.000, 0.000, 15:33:38.506, 1578576818506
145, -174559.42, -114368.11, -155602.94, -187500.02, -182390.61, -162028.70, -112932.95, -187500.02, 0.000, 0.000, 0.000, 15:33:38.506, 1578576818506
146, -174557.44, -114365.09, -155600.19, -187500.02, -182388.33, -162026.14, -112929.59, -187500.02, 0.000, 0.000, 0.000, 15:33:38.506, 1578576818506
147, -174554.02, -114360.71, -155595.98, -187500.02, -182384.66, -162022.20, -112924.79, -187500.02, 0.000, 0.000, 0.000, 15:33:38.506, 1578576818506
148, -174555.56, -114361.27, -155596.72, -187500.02, -182385.78, -162023.08, -112924.97, -187500.02, 0.000, 0.000, 0.000, 15:33:38.506, 1578576818506
149, -174555.09, -114359.55, -155595.45, -187500.02, -182384.91, -162022.00, -112923.04, -187500.02, -0.022, -0.016, 0.976, 15:33:38.506, 1578576818506
150, -174555.55, -114358.98, -155595.19, -187500.02, -182385.05, -162021.95, -112922.13, -187500.02, 0.000, 0.000, 0.000, 15:33:38.506, 1578576818506
151, -174555.66, -114358.16, -155594.67, -187500.02, -182385.06, -162021.69, -112920.98, -187500.02, 0.000, 0.000, 0.000, 15:33:38.506, 1578576818506
152, -174557.80, -114359.30, -155596.08, -187500.02, -182386.89, -162023.28, -112921.73, -187500.02, 0.000, 0.000, 0.000, 15:33:38.506, 1578576818506
153, -174557.53, -114357.96, -155594.94, -187500.02, -182386.31, -162022.52, -112920.02, -187500.02, 0.000, 0.000, 0.000, 15:33:38.506, 1578576818506
154, -174555.30, -114354.65, -155591.83, -187500.02, -182383.66, -162019.72, -112916.45, -187500.02, 0.000, 0.000, 0.000, 15:33:38.506, 1578576818506
155, -174555.14, -114353.51, -155590.98, -187500.02, -182383.20, -162018.98, -112914.98, -187500.02, 0.000, 0.000, 0.000, 15:33:38.506, 1578576818506
156, -174557.38, -114354.67, -155592.48, -187500.02, -182385.11, -162020.69, -112915.84, -187500.02, 0.000, 0.000, 0.000, 15:33:38.506, 1578576818506
157, -174555.34, -114351.54, -155589.58, -187500.02, -182382.77, -162018.11, -112912.38, -187500.02, 0.000, 0.000, 0.000, 15:33:38.506, 1578576818506
158, -174554.64, -114349.77, -155588.19, -187500.02, -182381.72, -162016.92, -112910.37, -187500.02, 0.000, 0.000, 0.000, 15:33:38.506, 1578576818506
159, -174556.20, -114350.25, -155588.97, -187500.02, -182382.94, -162017.89, -112910.48, -187500.02, -0.022, -0.014, 0.978, 15:33:38.506, 1578576818506
160, -174555.42, -114348.55, -155587.45, -187500.02, -182382.00, -162016.64, -112908.36, -187500.02, 0.000, 0.000, 0.000, 15:33:38.506, 1578576818506
161, -174554.13, -114346.31, -155585.50, -187500.02, -182380.42, -162014.84, -112905.72, -187500.02, 0.000, 0.000, 0.000, 15:33:38.506, 1578576818506
162, -174554.41, -114345.51, -155585.03, -187500.02, -182380.33, -162014.64, -112904.54, -187500.02, 0.000, 0.000, 0.000, 15:33:38.507, 1578576818507
163, -174553.17, -114343.23, -155583.09, -187500.02, -182378.81, -162012.97, -112902.03, -187500.02, 0.000, 0.000, 0.000, 15:33:38.507, 1578576818507
164, -174552.91, -114342.00, -155582.00, -187500.02, -182378.20, -162012.17, -112900.34, -187500.02, 0.000, 0.000, 0.000, 15:33:38.507, 1578576818507
165, -174551.67, -114339.72, -155580.08, -187500.02, -182376.75, -162010.41, -112897.74, -187500.02, 0.000, 0.000, 0.000, 15:33:38.507, 1578576818507
166, -174549.73, -114336.63, -155577.34, -187500.02, -182374.41, -162007.94, -112894.39, -187500.02, 0.000, 0.000, 0.000, 15:33:38.507, 1578576818507
167, -174547.92, -114333.66, -155574.70, -187500.02, -182372.28, -162005.50, -112891.08, -187500.02, 0.000, 0.000, 0.000, 15:33:38.507, 1578576818507
168, -174545.48, -114330.20, -155571.52, -187500.02, -182369.59, -162002.47, -112887.33, -187500.02, 0.000, 0.000, 0.000, 15:33:38.507, 1578576818507
169, -174544.30, -114328.07, -155569.67, -187500.02, -182368.14, -162000.83, -112884.89, -187500.02, -0.020, -0.016, 0.974, 15:33:38.507, 1578576818507
170, -174546.47, -114329.21, -155571.06, -187500.02, -182369.91, -162002.55, -112885.65, -187500.02, 0.000, 0.000, 0.000, 15:33:38.507, 1578576818507
171, -174546.63, -114328.37, -155570.53, -187500.02, -182369.86, -162002.27, -112884.51, -187500.02, 0.000, 0.000, 0.000, 15:33:38.507, 1578576818507
172, -174546.70, -114327.36, -155569.80, -187500.02, -182369.64, -162001.77, -112883.23, -187500.02, 0.000, 0.000, 0.000, 15:33:38.507, 1578576818507
173, -174546.20, -114325.73, -155568.38, -187500.02, -182368.69, -162000.67, -112881.23, -187500.02, 0.000, 0.000, 0.000, 15:33:38.507, 1578576818507
174, -174544.59, -114323.00, -155566.03, -187500.02, -182366.78, -161998.55, -112878.30, -187500.02, 0.000, 0.000, 0.000, 15:33:38.507, 1578576818507
175, -174541.13, -114318.57, -155561.94, -187500.02, -182363.09, -161994.64, -112873.49, -187500.02, 0.000, 0.000, 0.000, 15:33:38.507, 1578576818507
176, -174543.17, -114319.63, -155563.20, -187500.02, -182364.75, -161996.16, -112874.09, -187500.02, 0.000, 0.000, 0.000, 15:33:38.507, 1578576818507
177, -174544.09, -114319.54, -155563.39, -187500.02, -182365.50, -161996.52, -112873.66, -187500.02, 0.000, 0.000, 0.000, 15:33:38.507, 1578576818507
178, -174541.80, -114316.02, -155560.14, -187500.02, -182362.80, -161993.55, -112869.84, -187500.02, 0.000, 0.000, 0.000, 15:33:38.507, 1578576818507
179, -174541.89, -114315.09, -155559.52, -187500.02, -182362.53, -161993.25, -112868.62, -187500.02, -0.020, -0.022, 0.978, 15:33:38.507, 1578576818507
180, -174542.20, -114314.44, -155559.17, -187500.02, -182362.56, -161993.13, -112867.52, -187500.02, 0.000, 0.000, 0.000, 15:33:38.508, 1578576818508
181, -174539.56, -114310.77, -155555.89, -187500.02, -182359.67, -161989.97, -112863.54, -187500.02, 0.000, 0.000, 0.000, 15:33:38.508, 1578576818508
182, -174540.25, -114310.26, -155555.75, -187500.02, -182360.09, -161990.06, -112862.83, -187500.02, 0.000, 0.000, 0.000, 15:33:38.508, 1578576818508
183, -174539.48, -114308.54, -155554.14, -187500.02, -182359.06, -161988.88, -112860.70, -187500.02, 0.000, 0.000, 0.000, 15:33:38.508, 1578576818508
184, -174540.11, -114308.18, -155554.03, -187500.02, -182359.30, -161988.94, -112860.01, -187500.02, 0.000, 0.000, 0.000, 15:33:38.508, 1578576818508
185, -174540.16, -114307.17, -155553.25, -187500.02, -182359.00, -161988.47, -112858.70, -187500.02, 0.000, 0.000, 0.000, 15:33:38.508, 1578576818508
186, -174539.45, -114305.45, -155551.84, -187500.02, -182357.97, -161987.27, -112856.66, -187500.02, 0.000, 0.000, 0.000, 15:33:38.508, 1578576818508
187, -174536.70, -114301.66, -155548.33, -187500.02, -182354.84, -161983.91, -112852.52, -187500.02, 0.000, 0.000, 0.000, 15:33:38.508, 1578576818508
188, -174536.14, -114300.05, -155547.03, -187500.02, -182354.02, -161982.86, -112850.63, -187500.02, -0.020, -0.018, 0.974, 15:33:38.508, 1578576818508
189, -174536.63, -114299.42, -155546.88, -187500.02, -182354.28, -161982.91, -112849.75, -187500.02, 0.000, 0.000, 0.000, 15:33:38.508, 1578576818508
190, -174535.53, -114297.32, -155545.00, -187500.02, -182352.92, -161981.23, -112847.18, -187500.02, 0.000, 0.000, 0.000, 15:33:38.508, 1578576818508
191, -174534.89, -114295.66, -155543.48, -187500.02, -182351.89, -161980.06, -112845.21, -187500.02, 0.000, 0.000, 0.000, 15:33:38.508, 1578576818508
192, -174535.22, -114294.81, -155542.97, -187500.02, -182351.73, -161979.69, -112844.16, -187500.02, 0.000, 0.000, 0.000, 15:33:38.508, 1578576818508
193, -174536.03, -114294.66, -155543.11, -187500.02, -182352.30, -161980.05, -112843.63, -187500.02, 0.000, 0.000, 0.000, 15:33:38.508, 1578576818508
194, -174532.89, -114290.59, -155539.22, -187500.02, -182348.98, -161976.47, -112839.11, -187500.02, 0.000, 0.000, 0.000, 15:33:38.508, 1578576818508
195, -174529.80, -114286.27, -155535.30, -187500.02, -182345.53, -161972.83, -112834.53, -187500.02, 0.000, 0.000, 0.000, 15:33:38.508, 1578576818508
196, -174528.66, -114284.11, -155533.47, -187500.02, -182344.05, -161971.27, -112831.98, -187500.02, 0.000, 0.000, 0.000, 15:33:38.508, 1578576818508
197, -174527.83, -114282.34, -155531.95, -187500.02, -182342.84, -161969.94, -112829.95, -187500.02, 0.000, 0.000, 0.000, 15:33:38.509, 1578576818509
198, -174526.81, -114280.30, -155530.16, -187500.02, -182341.56, -161968.36, -112827.60, -187500.02, -0.022, -0.020, 0.978, 15:33:38.509, 1578576818509
199, -174526.59, -114278.95, -155529.13, -187500.02, -182341.03, -161967.58, -112825.92, -187500.02, 0.000, 0.000, 0.000, 15:33:38.509, 1578576818509
200, -174526.73, -114277.96, -155528.55, -187500.02, -182340.86, -161967.13, -112824.67, -187500.02, 0.000, 0.000, 0.000, 15:33:38.509, 1578576818509
201, -174527.16, -114277.34, -155528.27, -187500.02, -182340.86, -161967.00, -112823.69, -187500.02, 0.000, 0.000, 0.000, 15:33:38.509, 1578576818509
202, -174528.25, -114277.52, -155528.59, -187500.02, -182341.72, -161967.69, -112823.35, -187500.02, 0.000, 0.000, 0.000, 15:33:38.509, 1578576818509
203, -174527.05, -114275.08, -155526.38, -187500.02, -182340.08, -161965.86, -112820.63, -187500.02, 0.000, 0.000, 0.000, 15:33:38.509, 1578576818509
204, -174526.58, -114273.60, -155525.22, -187500.02, -182339.36, -161964.89, -112818.91, -187500.02, 0.000, 0.000, 0.000, 15:33:38.509, 1578576818509
205, -174526.81, -114272.82, -155524.66, -187500.02, -182339.36, -161964.56, -112817.88, -187500.02, 0.000, 0.000, 0.000, 15:33:38.509, 1578576818509
206, -174528.81, -114273.67, -155525.88, -187500.02, -182341.03, -161966.02, -112818.39, -187500.02, 0.000, 0.000, 0.000, 15:33:38.509, 1578576818509
207, -174528.06, -114271.95, -155524.34, -187500.02, -182339.98, -161964.77, -112816.34, -187500.02, 0.000, 0.000, 0.000, 15:33:38.509, 1578576818509
208, -174529.20, -114272.10, -155524.80, -187500.02, -182340.72, -161965.39, -112816.09, -187500.02, -0.022, -0.016, 0.978, 15:33:38.509, 1578576818509
209, -174528.05, -114269.91, -155522.88, -187500.02, -182339.28, -161963.75, -112813.54, -187500.02, 0.000, 0.000, 0.000, 15:33:38.509, 1578576818509
210, -174526.42, -114267.23, -155520.44, -187500.02, -182337.34, -161961.61, -112810.62, -187500.02, 0.000, 0.000, 0.000, 15:33:38.509, 1578576818509
211, -174523.75, -114263.43, -155516.97, -187500.02, -182334.17, -161958.28, -112806.41, -187500.02, 0.000, 0.000, 0.000, 15:33:38.983, 1578576818983
212, -174521.14, -114259.79, -155513.69, -187500.02, -182331.42, -161955.13, -112802.45, -187500.02, 0.000, 0.000, 0.000, 15:33:38.983, 1578576818983
213, -174521.25, -114258.91, -155513.11, -187500.02, -182331.33, -161954.86, -112801.36, -187500.02, 0.000, 0.000, 0.000, 15:33:38.983, 1578576818983
214, -174522.39, -114259.01, -155513.42, -187500.02, -182332.06, -161955.45, -112801.12, -187500.02, 0.000, 0.000, 0.000, 15:33:38.983, 1578576818983
215, -174521.94, -114257.60, -155512.30, -187500.02, -182331.31, -161954.59, -112799.26, -187500.02, 0.000, 0.000, 0.000, 15:33:38.983, 1578576818983
216, -174522.03, -114256.73, -155511.72, -187500.02, -182331.20, -161954.28, -112797.94, -187500.02, 0.000, 0.000, 0.000, 15:33:38.983, 1578576818983
217, -174519.94, -114253.51, -155508.91, -187500.02, -182328.81, -161951.66, -112794.52, -187500.02, 0.000, 0.000, 0.000, 15:33:38.983, 1578576818983
218, -174519.78, -114252.32, -155507.86, -187500.02, -182328.25, -161950.83, -112793.02, -187500.02, -0.020, -0.024, 0.978, 15:33:38.983, 1578576818983
219, -174521.41, -114252.91, -155508.70, -187500.02, -182329.47, -161951.91, -112793.18, -187500.02, 0.000, 0.000, 0.000, 15:33:38.983, 1578576818983
220, -174519.59, -114249.98, -155506.16, -187500.02, -182327.44, -161949.64, -112790.01, -187500.02, 0.000, 0.000, 0.000, 15:33:38.983, 1578576818983
221, -174517.39, -114246.83, -155503.25, -187500.02, -182324.98, -161946.94, -112786.48, -187500.02, 0.000, 0.000, 0.000, 15:33:38.983, 1578576818983
222, -174513.92, -114242.38, -155499.09, -187500.02, -182321.16, -161942.98, -112781.67, -187500.02, 0.000, 0.000, 0.000, 15:33:38.983, 1578576818983
223, -174513.66, -114241.13, -155498.08, -187500.02, -182320.64, -161942.16, -112780.02, -187500.02, 0.000, 0.000, 0.000, 15:33:38.983, 1578576818983
224, -174515.22, -114241.53, -155498.84, -187500.02, -182321.81, -161943.17, -112780.15, -187500.02, 0.000, 0.000, 0.000, 15:33:38.983, 1578576818983
225, -174516.20, -114241.57, -155499.11, -187500.02, -182322.55, -161943.69, -112779.86, -187500.02, 0.000, 0.000, 0.000, 15:33:38.983, 1578576818983
226, -174514.80, -114239.09, -155496.97, -187500.02, -182320.89, -161941.72, -112777.06, -187500.02, 0.000, 0.000, 0.000, 15:33:38.984, 1578576818984
227, -174515.44, -114238.69, -155496.86, -187500.02, -182321.20, -161941.84, -112776.37, -187500.02, -0.022, -0.020, 0.980, 15:33:38.984, 1578576818984
228, -174515.84, -114238.04, -155496.44, -187500.02, -182321.30, -161941.77, -112775.41, -187500.02, 0.000, 0.000, 0.000, 15:33:38.984, 1578576818984
229, -174517.97, -114239.07, -155497.80, -187500.02, -182323.02, -161943.28, -112776.08, -187500.02, 0.000, 0.000, 0.000, 15:33:38.984, 1578576818984
230, -174518.69, -114238.63, -155497.75, -187500.02, -182323.33, -161943.44, -112775.39, -187500.02, 0.000, 0.000, 0.000, 15:33:38.984, 1578576818984
231, -174515.58, -114234.48, -155493.84, -187500.02, -182319.98, -161939.81, -112771.03, -187500.02, 0.000, 0.000, 0.000, 15:33:38.984, 1578576818984
232, -174515.02, -114232.99, -155492.45, -187500.02, -182319.13, -161938.77, -112769.06, -187500.02, 0.000, 0.000, 0.000, 15:33:38.984, 1578576818984
233, -174515.55, -114232.54, -155492.30, -187500.02, -182319.44, -161938.86, -112768.28, -187500.02, 0.000, 0.000, 0.000, 15:33:38.984, 1578576818984
234, -174515.34, -114231.20, -155491.30, -187500.02, -182318.91, -161938.09, -112766.73, -187500.02, 0.000, 0.000, 0.000, 15:33:38.984, 1578576818984
235, -174513.70, -114228.61, -155488.97, -187500.02, -182316.94, -161935.88, -112763.77, -187500.02, 0.000, 0.000, 0.000, 15:33:38.984, 1578576818984
236, -174514.66, -114228.52, -155489.14, -187500.02, -182317.56, -161936.30, -112763.25, -187500.02, 0.000, 0.000, 0.000, 15:33:38.984, 1578576818984
237, -174515.17, -114227.94, -155488.81, -187500.02, -182317.78, -161936.28, -112762.24, -187500.02, -0.020, -0.014, 0.984, 15:33:38.984, 1578576818984
238, -174515.08, -114226.77, -155487.98, -187500.02, -182317.34, -161935.66, -112760.79, -187500.02, 0.000, 0.000, 0.000, 15:33:38.984, 1578576818984
239, -174514.53, -114225.14, -155486.70, -187500.02, -182316.42, -161934.69, -112758.94, -187500.02, 0.000, 0.000, 0.000, 15:33:38.984, 1578576818984
240, -174514.30, -114223.89, -155485.69, -187500.02, -182315.89, -161933.94, -112757.28, -187500.02, 0.000, 0.000, 0.000, 15:33:38.986, 1578576818986
241, -174512.64, -114221.34, -155483.27, -187500.02, -182313.92, -161931.81, -112754.35, -187500.02, 0.000, 0.000, 0.000, 15:33:38.986, 1578576818986
242, -174512.77, -114220.43, -155482.66, -187500.02, -182313.72, -161931.41, -112753.13, -187500.02, 0.000, 0.000, 0.000, 15:33:38.986, 1578576818986
243, -174511.70, -114218.30, -155480.72, -187500.02, -182312.36, -161929.73, -112750.60, -187500.02, 0.000, 0.000, 0.000, 15:33:38.986, 1578576818986
244, -174512.27, -114217.68, -155480.50, -187500.02, -182312.72, -161929.80, -112749.84, -187500.02, 0.000, 0.000, 0.000, 15:33:38.986, 1578576818986
245, -174512.47, -114216.85, -155479.98, -187500.02, -182312.58, -161929.42, -112748.72, -187500.02, 0.000, 0.000, 0.000, 15:33:38.986, 1578576818986
246, -174511.69, -114214.98, -155478.27, -187500.02, -182311.33, -161928.06, -112746.46, -187500.02, 0.000, 0.000, 0.000, 15:33:38.986, 1578576818986
247, -174511.38, -114213.74, -155477.33, -187500.02, -182310.72, -161927.30, -112744.90, -187500.02, -0.022, -0.016, 0.980, 15:33:38.986, 1578576818986
248, -174512.89, -114214.28, -155478.17, -187500.02, -182311.97, -161928.25, -112745.01, -187500.02, 0.000, 0.000, 0.000, 15:33:38.986, 1578576818986
249, -174509.70, -114210.01, -155474.17, -187500.02, -182308.44, -161924.56, -112740.50, -187500.02, 0.000, 0.000, 0.000, 15:33:38.987, 1578576818987
250, -174504.47, -114203.73, -155468.14, -187500.02, -182303.03, -161918.84, -112733.91, -187500.02, 0.000, 0.000, 0.000, 15:33:38.987, 1578576818987
251, -174502.08, -114200.38, -155465.05, -187500.02, -182300.33, -161915.92, -112730.21, -187500.02, 0.000, 0.000, 0.000, 15:33:38.987, 1578576818987
252, -174503.86, -114201.14, -155466.08, -187500.02, -182301.77, -161917.31, -112730.59, -187500.02, 0.000, 0.000, 0.000, 15:33:38.987, 1578576818987
253, -174504.09, -114200.22, -155465.56, -187500.02, -182301.69, -161916.95, -112729.39, -187500.02, 0.000, 0.000, 0.000, 15:33:38.987, 1578576818987
254, -174501.83, -114196.91, -155462.59, -187500.02, -182299.17, -161914.22, -112725.74, -187500.02, 0.000, 0.000, 0.000, 15:33:38.987, 1578576818987
255, -174502.13, -114196.20, -155462.19, -187500.02, -182299.13, -161914.11, -112724.73, -187500.02, 0.000, 0.000, 0.000, 15:33:38.987, 1578576818987
0, -174504.02, -114197.12, -155463.23, -187500.02, -182300.69, -161915.41, -112725.21, -187500.02, 0.000, 0.000, 0.000, 15:33:38.987, 1578576818987
1, -174502.00, -114194.03, -155460.38, -187500.02, -182298.41, -161912.91, -112721.88, -187500.02, -0.024, -0.014, 0.980, 15:33:38.987, 1578576818987
2, -174498.75, -114189.63, -155456.42, -187500.02, -182294.88, -161909.06, -112717.30, -187500.02, 0.000, 0.000, 0.000, 15:33:38.987, 1578576818987
3, -174497.84, -114187.64, -155454.64, -187500.02, -182293.53, -161907.56, -112714.95, -187500.02, 0.000, 0.000, 0.000, 15:33:38.987, 1578576818987
4, -174496.63, -114185.38, -155452.73, -187500.02, -182292.00, -161905.80, -112712.29, -187500.02, 0.000, 0.000, 0.000, 15:33:38.987, 1578576818987
5, -174496.80, -114184.58, -155452.17, -187500.02, -182291.88, -161905.48, -112711.08, -187500.02, 0.000, 0.000, 0.000, 15:33:38.987, 1578576818987
6, -174496.52, -114183.23, -155451.13, -187500.02, -182291.23, -161904.77, -112709.38, -187500.02, 0.000, 0.000, 0.000, 15:33:38.987, 1578576818987
7, -174497.06, -114182.79, -155450.91, -187500.02, -182291.56, -161904.88, -112708.65, -187500.02, 0.000, 0.000, 0.000, 15:33:38.987, 1578576818987
8, -174497.52, -114182.27, -155450.59, -187500.02, -182291.67, -161904.78, -112707.70, -187500.02, 0.000, 0.000, 0.000, 15:33:38.987, 1578576818987
9, -174497.31, -114181.06, -155449.63, -187500.02, -182291.08, -161903.98, -112706.16, -187500.02, 0.000, 0.000, 0.000, 15:33:38.988, 1578576818988
10, -174497.17, -114179.91, -155448.75, -187500.02, -182290.63, -161903.33, -112704.76, -187500.02, 0.000, 0.000, 0.000, 15:33:38.988, 1578576818988
11, -174495.64, -114177.20, -155446.36, -187500.02, -182288.80, -161901.25, -112701.83, -187500.02, -0.022, -0.016, 0.980, 15:33:38.988, 1578576818988
12, -174493.88, -114174.47, -155443.88, -187500.02, -182286.81, -161898.95, -112698.70, -187500.02, 0.000, 0.000, 0.000, 15:33:38.988, 1578576818988
13, -174493.83, -114173.40, -155443.17, -187500.02, -182286.42, -161898.34, -112697.27, -187500.02, 0.000, 0.000, 0.000, 15:33:38.988, 1578576818988
14, -174494.91, -114173.35, -155443.39, -187500.02, -182287.14, -161898.91, -112696.89, -187500.02, 0.000, 0.000, 0.000, 15:33:38.988, 1578576818988
15, -174493.78, -114171.30, -155441.53, -187500.02, -182285.72, -161897.25, -112694.34, -187500.02, 0.000, 0.000, 0.000, 15:33:38.988, 1578576818988
16, -174490.97, -114167.41, -155437.95, -187500.02, -182282.58, -161893.86, -112690.16, -187500.02, 0.000, 0.000, 0.000, 15:33:38.988, 1578576818988
17, -174488.22, -114163.59, -155434.56, -187500.02, -182279.45, -161890.69, -112686.14, -187500.02, 0.000, 0.000, 0.000, 15:33:38.988, 1578576818988
18, -174486.63, -114161.02, -155432.27, -187500.02, -182277.63, -161888.72, -112683.23, -187500.02, 0.000, 0.000, 0.000, 15:33:38.988, 1578576818988
19, -174486.66, -114160.01, -155431.39, -187500.02, -182277.36, -161888.19, -112681.82, -187500.02, 0.000, 0.000, 0.000, 15:33:38.988, 1578576818988
20, -174487.05, -114159.30, -155431.02, -187500.02, -182277.42, -161887.95, -112680.88, -187500.02, -0.024, -0.014, 0.976, 15:33:38.988, 1578576818988
21, -174485.22, -114156.32, -155428.42, -187500.02, -182275.25, -161885.55, -112677.55, -187500.02, 0.000, 0.000, 0.000, 15:33:38.988, 1578576818988
22, -174482.27, -114152.43, -155424.80, -187500.02, -182271.97, -161882.14, -112673.24, -187500.02, 0.000, 0.000, 0.000, 15:33:38.988, 1578576818988
23, -174481.27, -114150.42, -155423.08, -187500.02, -182270.64, -161880.67, -112670.91, -187500.02, 0.000, 0.000, 0.000, 15:33:38.989, 1578576818989
24, -174479.50, -114147.63, -155420.38, -187500.02, -182268.59, -161878.34, -112667.79, -187500.02, 0.000, 0.000, 0.000, 15:33:38.989, 1578576818989
25, -174480.53, -114147.65, -155420.66, -187500.02, -182269.33, -161878.80, -112667.41, -187500.02, 0.000, 0.000, 0.000, 15:33:38.989, 1578576818989
26, -174481.13, -114147.34, -155420.64, -187500.02, -182269.73, -161879.06, -112666.67, -187500.02, 0.000, 0.000, 0.000, 15:33:38.989, 1578576818989
27, -174480.75, -114145.80, -155419.39, -187500.02, -182269.00, -161878.13, -112664.99, -187500.02, 0.000, 0.000, 0.000, 15:33:38.989, 1578576818989
28, -174483.44, -114147.47, -155421.28, -187500.02, -182271.34, -161880.17, -112666.34, -187500.02, 0.000, 0.000, 0.000, 15:33:38.989, 1578576818989
29, -174483.50, -114146.40, -155420.55, -187500.02, -182270.98, -161879.70, -112664.95, -187500.02, 0.000, 0.000, 0.000, 15:33:38.989, 1578576818989
30, -174484.06, -114145.98, -155420.53, -187500.02, -182271.30, -161879.86, -112664.16, -187500.02, -0.026, -0.012, 0.972, 15:33:38.989, 1578576818989
31, -174482.41, -114143.27, -155418.14, -187500.02, -182269.39, -161877.61, -112661.15, -187500.02, 0.000, 0.000, 0.000, 15:33:38.989, 1578576818989
