%OpenBCI Raw EEG Data
%Number of channels = 8
%Sample Rate = 250.0 Hz
%First Column = SampleIndex
%Last Column = Timestamp 
%Other Columns = EEG data in microvolts followed by Accel Data (in G) interleaved with Aux Data
0, 0.00, 0.00, 0.00, 0.00, 0.00, 0.00, 0.00, 0.00, -0.012, -0.024, 0.978, 15:33:21.393, 1578576801393
1, -177048.97, -121499.41, -161301.30, -187500.02, -186107.48, -166831.11, -121401.77, -187500.02, 0.000, 0.000, 0.000, 15:33:21.878, 1578576801878
2, -177045.56, -121494.84, -161297.11, -187500.02, -186103.91, -166827.22, -121397.04, -187500.02, 0.000, 0.000, 0.000, 15:33:21.878, 1578576801878
3, -177043.31, -121491.41, -161294.09, -187500.02, -186101.42, -166824.30, -121393.26, -187500.02, 0.000, 0.000, 0.000, 15:33:21.879, 1578576801879
4, -177042.38, -121489.37, -161292.47, -187500.02, -186100.14, -166822.73, -121391.02, -187500.02, 0.000, 0.000, 0.000, 15:33:21.879, 1578576801879
5, -177041.70, -121487.49, -161290.98, -187500.02, -186099.13, -166821.39, -121388.84, -187500.02, 0.000, 0.000, 0.000, 15:33:21.879, 1578576801879
6, -177039.47, -121484.12, -161287.88, -187500.02, -186096.66, -166818.63, -121385.19, -187500.02, 0.000, 0.000, 0.000, 15:33:21.879, 1578576801879
7, -177038.45, -121482.11, -161286.20, -187500.02, -186095.41, -166817.08, -121382.84, -187500.02, 0.000, 0.000, 0.000, 15:33:21.879, 1578576801879
8, -177038.53, -121481.16, -161285.56, -187500.02, -186095.19, -166816.61, -121381.57, -187500.02, -0.022, -0.026, 0.970, 15:33:21.879, 1578576801879
9, -177039.58, -121481.19, -161285.98, -187500.02, -186096.17, -166817.14, -121381.28, -187500.02, 0.000, 0.000, 0.000, 15:33:21.880, 1578576801880
10, -177039.94, -121480.38, -161285.52, -187500.02, -186096.27, -166816.94, -121380.27, -187500.02, 0.000, 0.000, 0.000, 15:33:21.880, 1578576801880
11, -177039.64, -121478.98, -161284.45, -187500.02, -186095.64, -166815.98, -121378.48, -187500.02, 0.000, 0.000, 0.000, 15:33:21.880, 1578576801880
12, -177038.13, -121476.25, -161282.16, -187500.02, -186093.83, -166813.75, -121375.47, -187500.02, 0.000, 0.000, 0.000, 15:33:21.880, 1578576801880
13, -177037.86, -121474.77, -161281.17, -187500.02, -186093.22, -166812.73, -121373.70, -187500.02, 0.000, 0.000, 0.000, 15:33:21.880, 1578576801880
14, -177038.44, -121474.35, -161281.20, -187500.02, -186093.78, -166812.89, -121372.96, -187500.02, 0.000, 0.000, 0.000, 15:33:21.880, 1578576801880
15, -177037.08, -121471.91, -161279.03, -187500.02, -186092.17, -166811.00, -121370.23, -187500.02, 0.000, 0.000, 0.000, 15:33:21.881, 1578576801881
16, -177036.77, -121470.51, -161277.94, -187500.02, -186091.55, -166810.11, -121368.54, -187500.02, 0.000, 0.000, 0.000, 15:33:21.881, 1578576801881
17, -177038.80, -121471.49, -161279.28, -187500.02, -186093.36, -166811.55, -121369.21, -187500.02, -0.018, -0.022, 0.978, 15:33:21.881, 1578576801881
18, -177038.69, -121470.15, -161278.38, -187500.02, -186092.97, -166810.80, -121367.71, -187500.02, 0.000, 0.000, 0.000, 15:33:21.881, 1578576801881
19, -177038.22, -121468.54, -161277.16, -187500.02, -186092.17, -166809.67, -121365.74, -187500.02, 0.000, 0.000, 0.000, 15:33:21.881, 1578576801881
20, -177034.92, -121464.18, -161273.06, -187500.02, -186088.69, -166805.67, -121361.02, -187500.02, 0.000, 0.000, 0.000, 15:33:21.882, 1578576801882
21, -177030.03, -121458.30, -161267.52, -187500.02, -186083.63, -166800.36, -121354.81, -187500.02, 0.000, 0.000, 0.000, 15:33:21.882, 1578576801882
22, -177028.17, -121455.48, -161265.02, -187500.02, -186081.63, -166798.08, -121351.62, -187500.02, 0.000, 0.000, 0.000, 15:33:21.882, 1578576801882
23, -177029.36, -121455.51, -161265.38, -187500.02, -186082.45, -166798.56, -121351.41, -187500.02, 0.000, 0.000, 0.000, 15:33:21.882, 1578576801882
24, -177027.78, -121452.76, -161262.95, -187500.02, -186080.61, -166796.31, -121348.42, -187500.02, 0.000, 0.000, 0.000, 15:33:21.882, 1578576801882
25, -177028.53, -121452.34, -161263.05, -187500.02, -186081.08, -166796.56, -121347.68, -187500.02, 0.000, 0.000, 0.000, 15:33:21.883, 1578576801883
26, -177029.14, -121451.91, -161262.89, -187500.02, -186081.42, -166796.58, -121346.90, -187500.02, 0.000, 0.000, 0.000, 15:33:21.883, 1578576801883
27, -177028.17, -121449.92, -161261.22, -187500.02, -186080.28, -166795.11, -121344.55, -187500.02, -0.018, -0.018, 0.978, 15:33:21.883, 1578576801883
28, -177027.86, -121448.52, -161260.16, -187500.02, -186079.70, -166794.14, -121342.81, -187500.02, 0.000, 0.000, 0.000, 15:33:21.883, 1578576801883
29, -177029.36, -121448.80, -161260.92, -187500.02, -186081.06, -166795.02, -121342.97, -187500.02, 0.000, 0.000, 0.000, 15:33:21.883, 1578576801883
30, -177029.77, -121448.16, -161260.66, -187500.02, -186081.31, -166794.95, -121341.89, -187500.02, 0.000, 0.000, 0.000, 15:33:21.883, 1578576801883
31, -177028.53, -121445.85, -161258.59, -187500.02, -186079.77, -166793.11, -121339.28, -187500.02, 0.000, 0.000, 0.000, 15:33:21.884, 1578576801884
32, -177029.08, -121445.07, -161258.36, -187500.02, -186079.92, -166793.00, -121338.34, -187500.02, 0.000, 0.000, 0.000, 15:33:21.884, 1578576801884
33, -177030.17, -121445.16, -161258.83, -187500.02, -186080.86, -166793.61, -121338.16, -187500.02, 0.000, 0.000, 0.000, 15:33:21.884, 1578576801884
34, -177027.98, -121441.98, -161255.88, -187500.02, -186078.48, -166790.81, -121334.65, -187500.02, 0.000, 0.000, 0.000, 15:33:21.884, 1578576801884
35, -177026.22, -121439.13, -161253.34, -187500.02, -186076.45, -166788.42, -121331.44, -187500.02, 0.000, 0.000, 0.000, 15:33:21.884, 1578576801884
36, -177023.83, -121435.55, -161250.08, -187500.02, -186073.66, -166785.38, -121327.52, -187500.02, 0.000, 0.000, 0.000, 15:33:21.884, 1578576801884
37, -177023.75, -121434.30, -161249.23, -187500.02, -186073.27, -166784.70, -121326.13, -187500.02, -0.020, -0.018, 0.972, 15:33:21.884, 1578576801884
38, -177022.22, -121431.70, -161247.05, -187500.02, -186071.58, -166782.70, -121323.19, -187500.02, 0.000, 0.000, 0.000, 15:33:21.884, 1578576801884
39, -177022.66, -121431.15, -161246.84, -187500.02, -186071.92, -166782.56, -121322.18, -187500.02, 0.000, 0.000, 0.000, 15:33:21.885, 1578576801885
40, -177023.47, -121430.74, -161246.86, -187500.02, -186072.44, -166782.78, -121321.58, -187500.02, 0.000, 0.000, 0.000, 15:33:21.885, 1578576801885
41, -177021.16, -121427.13, -161243.72, -187500.02, -186069.84, -166779.84, -121317.84, -187500.02, 0.000, 0.000, 0.000, 15:33:21.885, 1578576801885
42, -177021.36, -121426.36, -161243.22, -187500.02, -186069.70, -166779.45, -121316.68, -187500.02, 0.000, 0.000, 0.000, 15:33:21.885, 1578576801885
43, -177018.70, -121422.65, -161239.94, -187500.02, -186066.80, -166776.23, -121312.66, -187500.02, 0.000, 0.000, 0.000, 15:33:21.885, 1578576801885
44, -177019.53, -121422.27, -161240.06, -187500.02, -186067.45, -166776.44, -121311.95, -187500.02, 0.000, 0.000, 0.000, 15:33:21.885, 1578576801885
45, -177020.38, -121421.89, -161240.11, -187500.02, -186067.94, -166776.63, -121311.34, -187500.02, 0.000, 0.000, 0.000, 15:33:21.885, 1578576801885
46, -177019.94, -121420.35, -161238.86, -187500.02, -186067.30, -166775.66, -121309.57, -187500.02, 0.000, 0.000, 0.000, 15:33:21.885, 1578576801885
47, -177017.94, -121417.20, -161236.06, -187500.02, -186065.09, -166773.05, -121306.18, -187500.02, -0.016, -0.020, 0.980, 15:33:21.885, 1578576801885
48, -177016.44, -121414.65, -161233.78, -187500.02, -186063.38, -166770.89, -121303.23, -187500.02, 0.000, 0.000, 0.000, 15:33:21.886, 1578576801886
49, -177013.53, -121410.72, -161230.19, -187500.02, -186060.25, -166767.48, -121298.98, -187500.02, 0.000, 0.000, 0.000, 15:33:21.886, 1578576801886
50, -177012.94, -121408.95, -161228.73, -187500.02, -186059.42, -166766.20, -121296.99, -187500.02, 0.000, 0.000, 0.000, 15:33:21.886, 1578576801886
51, -177012.98, -121407.90, -161228.05, -187500.02, -186059.20, -166765.67, -121295.67, -187500.02, 0.000, 0.000, 0.000, 15:33:21.886, 1578576801886
52, -177014.30, -121408.13, -161228.67, -187500.02, -186060.23, -166766.42, -121295.65, -187500.02, 0.000, 0.000, 0.000, 15:33:21.887, 1578576801887
53, -177013.03, -121405.75, -161226.59, -187500.02, -186058.75, -166764.59, -121292.84, -187500.02, 0.000, 0.000, 0.000, 15:33:21.887, 1578576801887
54, -177012.64, -121404.26, -161225.52, -187500.02, -186058.11, -166763.72, -121291.06, -187500.02, 0.000, 0.000, 0.000, 15:33:21.887, 1578576801887
55, -177013.92, -121404.41, -161226.03, -187500.02, -186059.06, -166764.45, -121290.93, -187500.02, 0.000, 0.000, 0.000, 15:33:21.887, 1578576801887
56, -177012.78, -121402.13, -161224.17, -187500.02, -186057.72, -166762.61, -121288.45, -187500.02, -0.020, -0.022, 0.976, 15:33:21.887, 1578576801887
57, -177008.31, -121396.66, -161219.02, -187500.02, -186053.05, -166757.53, -121282.64, -187500.02, 0.000, 0.000, 0.000, 15:33:21.887, 1578576801887
58, -177008.11, -121395.36, -161218.14, -187500.02, -186052.53, -166756.80, -121281.01, -187500.02, 0.000, 0.000, 0.000, 15:33:21.888, 1578576801888
59, -177008.64, -121394.84, -161217.97, -187500.02, -186052.92, -166756.81, -121280.16, -187500.02, 0.000, 0.000, 0.000, 15:33:21.888, 1578576801888
60, -177005.94, -121390.95, -161214.41, -187500.02, -186049.91, -166753.48, -121275.95, -187500.02, 0.000, 0.000, 0.000, 15:33:21.888, 1578576801888
61, -177007.70, -121391.59, -161215.44, -187500.02, -186051.47, -166754.56, -121276.29, -187500.02, 0.000, 0.000, 0.000, 15:33:21.888, 1578576801888
62, -177008.28, -121390.94, -161215.17, -187500.02, -186051.72, -166754.52, -121275.35, -187500.02, 0.000, 0.000, 0.000, 15:33:21.888, 1578576801888
63, -177008.08, -121389.64, -161214.16, -187500.02, -186051.25, -166753.75, -121273.90, -187500.02, 0.000, 0.000, 0.000, 15:33:21.889, 1578576801889
64, -177006.25, -121386.77, -161211.70, -187500.02, -186049.25, -166751.39, -121270.66, -187500.02, 0.000, 0.000, 0.000, 15:33:21.889, 1578576801889
65, -177007.34, -121386.82, -161212.11, -187500.02, -186050.13, -166751.88, -121270.41, -187500.02, 0.000, 0.000, 0.000, 15:33:21.889, 1578576801889
66, -177005.84, -121384.25, -161209.89, -187500.02, -186048.36, -166749.80, -121267.51, -187500.02, -0.022, -0.018, 0.980, 15:33:21.889, 1578576801889
67, -177005.02, -121382.20, -161208.31, -187500.02, -186047.17, -166748.30, -121265.20, -187500.02, 0.000, 0.000, 0.000, 15:33:21.889, 1578576801889
68, -177006.72, -121382.80, -161209.25, -187500.02, -186048.73, -166749.48, -121265.54, -187500.02, 0.000, 0.000, 0.000, 15:33:21.890, 1578576801890
69, -177004.78, -121379.67, -161206.63, -187500.02, -186046.53, -166746.95, -121262.14, -187500.02, 0.000, 0.000, 0.000, 15:33:21.890, 1578576801890
70, -177003.95, -121377.77, -161205.17, -187500.02, -186045.44, -166745.50, -121260.00, -187500.02, 0.000, 0.000, 0.000, 15:33:21.890, 1578576801890
71, -177004.06, -121376.80, -161204.44, -187500.02, -186045.34, -166744.97, -121258.68, -187500.02, 0.000, 0.000, 0.000, 15:33:21.890, 1578576801890
72, -177004.86, -121376.43, -161204.48, -187500.02, -186045.91, -166745.22, -121258.03, -187500.02, 0.000, 0.000, 0.000, 15:33:21.894, 1578576801894
73, -177004.13, -121374.59, -161203.03, -187500.02, -186045.00, -166743.88, -121255.91, -187500.02, 0.000, 0.000, 0.000, 15:33:21.895, 1578576801895
74, -177002.78, -121372.29, -161200.94, -187500.02, -186043.42, -166742.00, -121253.18, -187500.02, 0.000, 0.000, 0.000, 15:33:21.895, 1578576801895
75, -177000.33, -121368.67, -161197.63, -187500.02, -186040.69, -166738.89, -121249.41, -187500.02, 0.000, 0.000, 0.000, 15:33:21.895, 1578576801895
76, -177000.59, -121367.82, -161197.16, -187500.02, -186040.77, -166738.59, -121248.28, -187500.02, -0.016, -0.022, 0.976, 15:33:21.896, 1578576801896
77, -177000.78, -121366.86, -161196.66, -187500.02, -186040.73, -166738.16, -121247.08, -187500.02, 0.000, 0.000, 0.000, 15:33:21.896, 1578576801896
78, -176997.73, -121362.70, -161192.81, -187500.02, -186037.45, -166734.59, -121242.66, -187500.02, 0.000, 0.000, 0.000, 15:33:21.896, 1578576801896
79, -176996.75, -121360.60, -161191.14, -187500.02, -186036.17, -166733.08, -121240.22, -187500.02, 0.000, 0.000, 0.000, 15:33:21.896, 1578576801896
80, -176995.88, -121358.48, -161189.38, -187500.02, -186035.00, -166731.45, -121237.80, -187500.02, 0.000, 0.000, 0.000, 15:33:21.896, 1578576801896
81, -176994.78, -121356.27, -161187.52, -187500.02, -186033.66, -166729.81, -121235.27, -187500.02, 0.000, 0.000, 0.000, 15:33:21.897, 1578576801897
82, -176994.39, -121354.66, -161186.41, -187500.02, -186032.89, -166728.78, -121233.38, -187500.02, 0.000, 0.000, 0.000, 15:33:21.897, 1578576801897
83, -176995.28, -121354.52, -161186.56, -187500.02, -186033.72, -166729.17, -121232.93, -187500.02, 0.000, 0.000, 0.000, 15:33:21.897, 1578576801897
84, -176995.56, -121353.72, -161186.20, -187500.02, -186033.81, -166728.94, -121231.84, -187500.02, 0.000, 0.000, 0.000, 15:33:21.897, 1578576801897
85, -176997.06, -121353.98, -161186.97, -187500.02, -186034.84, -166729.61, -121231.81, -187500.02, 0.000, 0.000, 0.000, 15:33:21.897, 1578576801897
86, -176997.02, -121352.87, -161186.16, -187500.02, -186034.59, -166729.02, -121230.43, -187500.02, -0.018, -0.018, 0.976, 15:33:21.897, 1578576801897
87, -176996.89, -121351.69, -161185.27, -187500.02, -186034.25, -166728.34, -121228.93, -187500.02, 0.000, 0.000, 0.000, 15:33:21.897, 1578576801897
88, -176994.31, -121348.11, -161182.02, -187500.02, -186031.47, -166725.19, -121224.93, -187500.02, 0.000, 0.000, 0.000, 15:33:21.897, 1578576801897
89, -176993.25, -121345.85, -161180.14, -187500.02, -186030.13, -166723.56, -121222.36, -187500.02, 0.000, 0.000, 0.000, 15:33:21.898, 1578576801898
90, -176992.55, -121343.91, -161178.56, -187500.02, -186029.09, -166722.27, -121220.26, -187500.02, 0.000, 0.000, 0.000, 15:33:21.898, 1578576801898
91, -176992.06, -121342.30, -161177.34, -187500.02, -186028.41, -166721.17, -121218.36, -187500.02, 0.000, 0.000, 0.000, 15:33:21.898, 1578576801898
92, -176989.53, -121338.72, -161174.28, -187500.02, -186025.67, -166718.11, -121214.47, -187500.02, 0.000, 0.000, 0.000, 15:33:21.898, 1578576801898
93, -176987.20, -121335.28, -161171.20, -187500.02, -186023.08, -166715.16, -121210.66, -187500.02, 0.000, 0.000, 0.000, 15:33:21.898, 1578576801898
94, -176987.52, -121334.54, -161170.83, -187500.02, -186023.22, -166714.92, -121209.73, -187500.02, 0.000, 0.000, 0.000, 15:33:21.898, 1578576801898
95, -176985.78, -121331.61, -161168.28, -187500.02, -186021.17, -166712.63, -121206.58, -187500.02, -0.022, -0.018, 0.972, 15:33:21.898, 1578576801898
96, -176986.98, -121331.57, -161168.64, -187500.02, -186022.08, -166713.09, -121206.22, -187500.02, 0.000, 0.000, 0.000, 15:33:21.898, 1578576801898
97, -176986.53, -121329.94, -161167.41, -187500.02, -186021.30, -166711.95, -121204.34, -187500.02, 0.000, 0.000, 0.000, 15:33:21.899, 1578576801899
98, -176988.55, -121330.90, -161168.56, -187500.02, -186023.11, -166713.36, -121204.99, -187500.02, 0.000, 0.000, 0.000, 15:33:21.899, 1578576801899
99, -176989.28, -121330.61, -161168.66, -187500.02, -186023.73, -166713.56, -121204.43, -187500.02, 0.000, 0.000, 0.000, 15:33:21.899, 1578576801899
100, -176987.19, -121327.37, -161165.73, -187500.02, -186021.22, -166710.80, -121200.79, -187500.02, 0.000, 0.000, 0.000, 15:33:21.899, 1578576801899
101, -176985.94, -121325.06, -161163.81, -187500.02, -186019.75, -166709.08, -121198.09, -187500.02, 0.000, 0.000, 0.000, 15:33:21.899, 1578576801899
102, -176985.39, -121323.30, -161162.59, -187500.02, -186018.97, -166707.94, -121196.14, -187500.02, 0.000, 0.000, 0.000, 15:33:21.899, 1578576801899
103, -176984.70, -121321.51, -161161.14, -187500.02, -186018.05, -166706.50, -121194.10, -187500.02, 0.000, 0.000, 0.000, 15:33:21.899, 1578576801899
104, -176986.05, -121321.76, -161161.73, -187500.02, -186019.17, -166707.33, -121193.97, -187500.02, 0.000, 0.000, 0.000, 15:33:21.899, 1578576801899
105, -176986.09, -121320.66, -161160.97, -187500.02, -186018.94, -166706.77, -121192.65, -187500.02, -0.026, -0.016, 0.968, 15:33:21.899, 1578576801899
106, -176985.23, -121318.76, -161159.33, -187500.02, -186017.88, -166705.36, -121190.38, -187500.02, 0.000, 0.000, 0.000, 15:33:21.900, 1578576801900
107, -176983.09, -121315.66, -161156.67, -187500.02, -186015.59, -166702.80, -121187.00, -187500.02, 0.000, 0.000, 0.000, 15:33:21.900, 1578576801900
108, -176982.20, -121313.64, -161154.94, -187500.02, -186014.34, -166701.22, -121184.70, -187500.02, 0.000, 0.000, 0.000, 15:33:21.900, 1578576801900
109, -176982.36, -121312.63, -161154.28, -187500.02, -186014.31, -166700.69, -121183.33, -187500.02, 0.000, 0.000, 0.000, 15:33:21.900, 1578576801900
110, -176983.66, -121312.75, -161154.97, -187500.02, -186015.44, -166701.47, -121183.27, -187500.02, 0.000, 0.000, 0.000, 15:33:21.900, 1578576801900
111, -176983.88, -121311.79, -161154.34, -187500.02, -186015.38, -166701.19, -121182.08, -187500.02, 0.000, 0.000, 0.000, 15:33:21.900, 1578576801900
112, -176982.77, -121309.55, -161152.47, -187500.02, -186014.03, -166699.45, -121179.55, -187500.02, 0.000, 0.000, 0.000, 15:33:21.900, 1578576801900
113, -176981.94, -121307.56, -161150.91, -187500.02, -186012.94, -166697.98, -121177.36, -187500.02, 0.000, 0.000, 0.000, 15:33:21.901, 1578576801901
114, -176983.39, -121307.95, -161151.64, -187500.02, -186014.09, -166698.77, -121177.41, -187500.02, 0.000, 0.000, 0.000, 15:33:21.901, 1578576801901
115, -176984.44, -121308.05, -161151.98, -187500.02, -186014.92, -166699.39, -121177.07, -187500.02, -0.022, -0.020, 0.972, 15:33:21.901, 1578576801901
116, -176983.56, -121305.93, -161150.13, -187500.02, -186013.67, -166697.81, -121174.66, -187500.02, 0.000, 0.000, 0.000, 15:33:21.901, 1578576801901
117, -176984.92, -121306.13, -161150.73, -187500.02, -186014.81, -166698.56, -121174.52, -187500.02, 0.000, 0.000, 0.000, 15:33:21.902, 1578576801902
118, -176985.17, -121305.20, -161150.38, -187500.02, -186014.86, -166698.17, -121173.30, -187500.02, 0.000, 0.000, 0.000, 15:33:21.902, 1578576801902
119, -176984.27, -121303.13, -161148.67, -187500.02, -186013.63, -166696.64, -121170.91, -187500.02, 0.000, 0.000, 0.000, 15:33:21.903, 1578576801903
120, -176981.36, -121299.20, -161144.98, -187500.02, -186010.47, -166693.19, -121166.61, -187500.02, 0.000, 0.000, 0.000, 15:33:21.903, 1578576801903
121, -176982.45, -121299.23, -161145.39, -187500.02, -186011.45, -166693.84, -121166.50, -187500.02, 0.000, 0.000, 0.000, 15:33:22.353, 1578576802353
122, -176983.03, -121298.78, -161145.20, -187500.02, -186011.81, -166693.83, -121165.65, -187500.02, 0.000, 0.000, 0.000, 15:33:22.354, 1578576802354
123, -176980.92, -121295.52, -161142.34, -187500.02, -186009.44, -166691.09, -121162.03, -187500.02, 0.000, 0.000, 0.000, 15:33:22.354, 1578576802354
124, -176976.70, -121290.06, -161137.25, -187500.02, -186004.86, -166686.20, -121156.33, -187500.02, 0.000, 0.000, 0.000, 15:33:22.354, 1578576802354
125, -176973.55, -121285.77, -161133.42, -187500.02, -186001.44, -166682.50, -121151.84, -187500.02, -0.020, -0.022, 0.980, 15:33:22.354, 1578576802354
126, -176975.41, -121286.62, -161134.55, -187500.02, -186003.14, -166683.86, -121152.30, -187500.02, 0.000, 0.000, 0.000, 15:33:22.354, 1578576802354
127, -176977.17, -121287.20, -161135.52, -187500.02, -186004.64, -166684.94, -121152.53, -187500.02, 0.000, 0.000, 0.000, 15:33:22.354, 1578576802354
128, -176975.03, -121283.83, -161132.69, -187500.02, -186002.19, -166682.11, -121149.00, -187500.02, 0.000, 0.000, 0.000, 15:33:22.354, 1578576802354
129, -176972.86, -121280.67, -161129.73, -187500.02, -185999.86, -166679.48, -121145.58, -187500.02, 0.000, 0.000, 0.000, 15:33:22.355, 1578576802355
130, -176971.73, -121278.55, -161127.94, -187500.02, -185998.56, -166677.75, -121143.05, -187500.02, 0.000, 0.000, 0.000, 15:33:22.355, 1578576802355
131, -176971.00, -121276.74, -161126.50, -187500.02, -185997.58, -166676.42, -121140.93, -187500.02, 0.000, 0.000, 0.000, 15:33:22.355, 1578576802355
132, -176971.27, -121275.87, -161126.05, -187500.02, -185997.63, -166676.19, -121139.81, -187500.02, 0.000, 0.000, 0.000, 15:33:22.355, 1578576802355
133, -176972.17, -121275.66, -161126.25, -187500.02, -185998.30, -166676.55, -121139.23, -187500.02, 0.000, 0.000, 0.000, 15:33:22.355, 1578576802355
134, -176972.39, -121274.84, -161125.66, -187500.02, -185998.30, -166676.19, -121138.16, -187500.02, -0.026, -0.020, 0.976, 15:33:22.355, 1578576802355
135, -176972.81, -121274.02, -161125.36, -187500.02, -185998.38, -166676.03, -121137.17, -187500.02, 0.000, 0.000, 0.000, 15:33:22.355, 1578576802355
136, -176973.00, -121273.12, -161124.75, -187500.02, -185998.30, -166675.59, -121135.99, -187500.02, 0.000, 0.000, 0.000, 15:33:22.356, 1578576802356
137, -176972.61, -121271.55, -161123.50, -187500.02, -185997.64, -166674.58, -121134.11, -187500.02, 0.000, 0.000, 0.000, 15:33:22.356, 1578576802356
138, -176968.92, -121266.86, -161119.08, -187500.02, -185993.73, -166670.30, -121129.04, -187500.02, 0.000, 0.000, 0.000, 15:33:22.356, 1578576802356
139, -176968.52, -121265.16, -161117.84, -187500.02, -185993.03, -166669.22, -121127.18, -187500.02, 0.000, 0.000, 0.000, 15:33:22.356, 1578576802356
140, -176966.53, -121262.12, -161115.25, -187500.02, -185990.89, -166666.72, -121123.85, -187500.02, 0.000, 0.000, 0.000, 15:33:22.356, 1578576802356
141, -176965.86, -121260.42, -161114.00, -187500.02, -185990.02, -166665.47, -121121.80, -187500.02, 0.000, 0.000, 0.000, 15:33:22.356, 1578576802356
142, -176966.47, -121259.82, -161113.77, -187500.02, -185990.31, -166665.38, -121120.92, -187500.02, 0.000, 0.000, 0.000, 15:33:22.356, 1578576802356
143, -176966.94, -121259.08, -161113.45, -187500.02, -185990.56, -166665.23, -121119.88, -187500.02, 0.000, 0.000, 0.000, 15:33:22.357, 1578576802357
144, -176966.72, -121257.77, -161112.47, -187500.02, -185990.00, -166664.48, -121118.29, -187500.02, -0.024, -0.022, 0.976, 15:33:22.357, 1578576802357
145, -176965.42, -121255.51, -161110.52, -187500.02, -185988.53, -166662.63, -121115.63, -187500.02, 0.000, 0.000, 0.000, 15:33:22.357, 1578576802357
146, -176964.81, -121253.88, -161109.16, -187500.02, -185987.67, -166661.42, -121113.57, -187500.02, 0.000, 0.000, 0.000, 15:33:22.357, 1578576802357
147, -176966.22, -121254.21, -161109.94, -187500.02, -185988.88, -166662.17, -121113.64, -187500.02, 0.000, 0.000, 0.000, 15:33:22.357, 1578576802357
148, -176968.70, -121255.55, -161111.61, -187500.02, -185991.14, -166664.08, -121114.64, -187500.02, 0.000, 0.000, 0.000, 15:33:22.358, 1578576802358
149, -176967.06, -121252.69, -161109.17, -187500.02, -185989.11, -166661.80, -121111.54, -187500.02, 0.000, 0.000, 0.000, 15:33:22.358, 1578576802358
150, -176965.73, -121250.07, -161107.02, -187500.02, -185987.41, -166659.81, -121108.66, -187500.02, 0.000, 0.000, 0.000, 15:33:22.358, 1578576802358
151, -176964.88, -121248.28, -161105.58, -187500.02, -185986.58, -166658.56, -121106.64, -187500.02, 0.000, 0.000, 0.000, 15:33:22.359, 1578576802359
152, -176962.75, -121244.93, -161102.66, -187500.02, -185984.14, -166655.77, -121103.11, -187500.02, 0.000, 0.000, 0.000, 15:33:22.359, 1578576802359
153, -176961.95, -121243.01, -161101.02, -187500.02, -185983.16, -166654.41, -121100.98, -187500.02, 0.000, 0.000, 0.000, 15:33:22.359, 1578576802359
154, -176962.64, -121242.66, -161101.02, -187500.02, -185983.58, -166654.58, -121100.27, -187500.02, -0.022, -0.018, 0.978, 15:33:22.359, 1578576802359
155, -176963.78, -121242.70, -161101.36, -187500.02, -185984.48, -166655.03, -121099.84, -187500.02, 0.000, 0.000, 0.000, 15:33:22.360, 1578576802360
156, -176963.45, -121241.22, -161100.27, -187500.02, -185983.92, -166654.09, -121098.13, -187500.02, 0.000, 0.000, 0.000, 15:33:22.360, 1578576802360
157, -176964.25, -121240.82, -161100.33, -187500.02, -185984.41, -166654.25, -121097.48, -187500.02, 0.000, 0.000, 0.000, 15:33:22.360, 1578576802360
158, -176962.67, -121238.12, -161097.94, -187500.02, -185982.47, -166652.13, -121094.41, -187500.02, 0.000, 0.000, 0.000, 15:33:22.360, 1578576802360
159, -176961.34, -121235.59, -161095.83, -187500.02, -185980.86, -166650.20, -121091.71, -187500.02, 0.000, 0.000, 0.000, 15:33:22.360, 1578576802360
160, -176962.33, -121235.45, -161096.06, -187500.02, -185981.59, -166650.53, -121091.27, -187500.02, 0.000, 0.000, 0.000, 15:33:22.360, 1578576802360
161, -176962.70, -121234.83, -161095.70, -187500.02, -185981.77, -166650.31, -121090.26, -187500.02, 0.000, 0.000, 0.000, 15:33:22.361, 1578576802361
162, -176961.39, -121232.41, -161093.70, -187500.02, -185980.34, -166648.47, -121087.69, -187500.02, 0.000, 0.000, 0.000, 15:33:22.361, 1578576802361
163, -176961.03, -121231.03, -161092.59, -187500.02, -185979.78, -166647.58, -121085.95, -187500.02, 0.000, 0.000, 0.000, 15:33:22.361, 1578576802361
164, -176960.09, -121228.95, -161090.89, -187500.02, -185978.56, -166646.05, -121083.42, -187500.02, -0.024, -0.018, 0.980, 15:33:22.361, 1578576802361
165, -176959.69, -121227.30, -161089.78, -187500.02, -185977.84, -166644.97, -121081.61, -187500.02, 0.000, 0.000, 0.000, 15:33:22.361, 1578576802361
166, -176957.80, -121224.32, -161087.20, -187500.02, -185975.61, -166642.47, -121078.37, -187500.02, 0.000, 0.000, 0.000, 15:33:22.361, 1578576802361
167, -176957.50, -121223.05, -161086.17, -187500.02, -185975.20, -166641.61, -121076.76, -187500.02, 0.000, 0.000, 0.000, 15:33:22.362, 1578576802362
168, -176955.09, -121219.59, -161083.11, -187500.02, -185972.63, -166638.66, -121073.05, -187500.02, 0.000, 0.000, 0.000, 15:33:22.362, 1578576802362
169, -176950.80, -121214.20, -161078.09, -187500.02, -185967.98, -166633.86, -121067.39, -187500.02, 0.000, 0.000, 0.000, 15:33:22.362, 1578576802362
170, -176951.73, -121214.00, -161078.27, -187500.02, -185968.70, -166634.16, -121066.81, -187500.02, 0.000, 0.000, 0.000, 15:33:22.362, 1578576802362
171, -176953.41, -121214.53, -161079.20, -187500.02, -185970.19, -166635.17, -121067.08, -187500.02, 0.000, 0.000, 0.000, 15:33:22.362, 1578576802362
172, -176953.88, -121213.91, -161079.00, -187500.02, -185970.47, -166635.11, -121066.23, -187500.02, 0.000, 0.000, 0.000, 15:33:22.363, 1578576802363
173, -176952.23, -121211.13, -161076.61, -187500.02, -185968.52, -166632.86, -121063.08, -187500.02, -0.026, -0.014, 0.978, 15:33:22.363, 1578576802363
174, -176948.67, -121206.45, -161072.25, -187500.02, -185964.61, -166628.66, -121057.96, -187500.02, 0.000, 0.000, 0.000, 15:33:22.363, 1578576802363
175, -176947.75, -121204.37, -161070.58, -187500.02, -185963.56, -166627.20, -121055.75, -187500.02, 0.000, 0.000, 0.000, 15:33:22.363, 1578576802363
176, -176948.36, -121203.76, -161070.44, -187500.02, -185963.84, -166627.11, -121054.90, -187500.02, 0.000, 0.000, 0.000, 15:33:22.363, 1578576802363
177, -176946.94, -121201.23, -161068.20, -187500.02, -185962.13, -166624.97, -121051.95, -187500.02, 0.000, 0.000, 0.000, 15:33:22.364, 1578576802364
178, -176946.94, -121200.16, -161067.41, -187500.02, -185961.95, -166624.41, -121050.61, -187500.02, 0.000, 0.000, 0.000, 15:33:22.364, 1578576802364
179, -176946.06, -121198.11, -161065.80, -187500.02, -185960.78, -166622.91, -121048.38, -187500.02, 0.000, 0.000, 0.000, 15:33:22.364, 1578576802364
180, -176944.98, -121195.94, -161063.84, -187500.02, -185959.28, -166621.20, -121045.98, -187500.02, 0.000, 0.000, 0.000, 15:33:22.364, 1578576802364
181, -176945.28, -121195.22, -161063.48, -187500.02, -185959.33, -166621.00, -121044.88, -187500.02, 0.000, 0.000, 0.000, 15:33:22.364, 1578576802364
182, -176946.91, -121195.67, -161064.45, -187500.02, -185960.88, -166622.17, -121045.16, -187500.02, 0.000, 0.000, 0.000, 15:33:22.365, 1578576802365
183, -176947.22, -121194.84, -161063.89, -187500.02, -185960.83, -166621.81, -121044.02, -187500.02, -0.018, -0.014, 0.976, 15:33:22.365, 1578576802365
184, -176945.95, -121192.61, -161061.91, -187500.02, -185959.33, -166619.94, -121041.33, -187500.02, 0.000, 0.000, 0.000, 15:33:22.365, 1578576802365
185, -176943.75, -121189.30, -161059.02, -187500.02, -185957.09, -166617.20, -121037.71, -187500.02, 0.000, 0.000, 0.000, 15:33:22.365, 1578576802365
186, -176943.17, -121187.51, -161057.66, -187500.02, -185956.20, -166616.02, -121035.70, -187500.02, 0.000, 0.000, 0.000, 15:33:22.365, 1578576802365
187, -176942.45, -121185.77, -161056.30, -187500.02, -185955.27, -166614.72, -121033.59, -187500.02, 0.000, 0.000, 0.000, 15:33:22.366, 1578576802366
188, -176940.63, -121183.02, -161053.86, -187500.02, -185953.34, -166612.44, -121030.45, -187500.02, 0.000, 0.000, 0.000, 15:33:22.366, 1578576802366
189, -176938.69, -121179.91, -161051.08, -187500.02, -185951.06, -166609.86, -121027.12, -187500.02, 0.000, 0.000, 0.000, 15:33:22.366, 1578576802366
190, -176936.38, -121176.38, -161047.89, -187500.02, -185948.33, -166606.86, -121023.25, -187500.02, 0.000, 0.000, 0.000, 15:33:22.366, 1578576802366
191, -176937.23, -121176.05, -161047.98, -187500.02, -185948.88, -166607.08, -121022.66, -187500.02, 0.000, 0.000, 0.000, 15:33:22.367, 1578576802367
192, -176937.98, -121175.73, -161048.05, -187500.02, -185949.45, -166607.27, -121022.06, -187500.02, 0.000, 0.000, 0.000, 15:33:22.367, 1578576802367
193, -176935.59, -121172.29, -161045.00, -187500.02, -185946.92, -166604.28, -121018.35, -187500.02, -0.020, -0.012, 0.974, 15:33:22.367, 1578576802367
194, -176935.73, -121171.28, -161044.30, -187500.02, -185946.70, -166603.80, -121017.05, -187500.02, 0.000, 0.000, 0.000, 15:33:22.367, 1578576802367
195, -176937.08, -121171.59, -161044.94, -187500.02, -185947.86, -166604.56, -121017.01, -187500.02, 0.000, 0.000, 0.000, 15:33:22.367, 1578576802367
196, -176937.52, -121170.79, -161044.63, -187500.02, -185948.02, -166604.27, -121015.96, -187500.02, 0.000, 0.000, 0.000, 15:33:22.367, 1578576802367
197, -176935.63, -121167.71, -161041.92, -187500.02, -185945.81, -166601.81, -121012.67, -187500.02, 0.000, 0.000, 0.000, 15:33:22.368, 1578576802368
198, -176932.56, -121163.64, -161038.22, -187500.02, -185942.56, -166598.31, -121008.25, -187500.02, 0.000, 0.000, 0.000, 15:33:22.368, 1578576802368
199, -176930.86, -121160.84, -161035.89, -187500.02, -185940.67, -166596.08, -121005.10, -187500.02, 0.000, 0.000, 0.000, 15:33:22.368, 1578576802368
200, -176931.53, -121160.35, -161035.73, -187500.02, -185941.09, -166596.16, -121004.34, -187500.02, 0.000, 0.000, 0.000, 15:33:22.368, 1578576802368
201, -176934.23, -121161.88, -161037.63, -187500.02, -185943.50, -166598.13, -121005.61, -187500.02, 0.000, 0.000, 0.000, 15:33:22.369, 1578576802369
202, -176932.78, -121159.33, -161035.38, -187500.02, -185941.77, -166596.05, -121002.77, -187500.02, 0.000, 0.000, 0.000, 15:33:22.369, 1578576802369
203, -176931.33, -121156.82, -161033.25, -187500.02, -185940.17, -166594.14, -121000.07, -187500.02, -0.020, -0.008, 0.978, 15:33:22.369, 1578576802369
204, -176930.75, -121155.28, -161031.95, -187500.02, -185939.44, -166593.05, -120998.03, -187500.02, 0.000, 0.000, 0.000, 15:33:22.369, 1578576802369
205, -176930.64, -121153.98, -161031.06, -187500.02, -185938.95, -166592.17, -120996.45, -187500.02, 0.000, 0.000, 0.000, 15:33:22.370, 1578576802370
206, -176929.11, -121151.39, -161028.75, -187500.02, -185937.20, -166590.05, -120993.50, -187500.02, 0.000, 0.000, 0.000, 15:33:22.370, 1578576802370
207, -176928.25, -121149.42, -161027.27, -187500.02, -185936.06, -166588.70, -120991.22, -187500.02, 0.000, 0.000, 0.000, 15:33:22.370, 1578576802370
208, -176928.30, -121148.28, -161026.55, -187500.02, -185935.84, -166588.16, -120989.85, -187500.02, 0.000, 0.000, 0.000, 15:33:22.371, 1578576802371
209, -176927.78, -121146.74, -161025.34, -187500.02, -185935.23, -166587.08, -120987.95, -187500.02, 0.000, 0.000, 0.000, 15:33:22.371, 1578576802371
210, -176928.11, -121145.87, -161024.86, -187500.02, -185935.34, -166586.72, -120986.86, -187500.02, 0.000, 0.000, 0.000, 15:33:22.371, 1578576802371
211, -176927.59, -121144.20, -161023.55, -187500.02, -185934.52, -166585.67, -120984.94, -187500.02, 0.000, 0.000, 0.000, 15:33:22.371, 1578576802371
212, -176927.22, -121142.67, -161022.55, -187500.02, -185933.92, -166584.78, -120983.13, -187500.02, -0.022, -0.014, 0.974, 15:33:22.372, 1578576802372
213, -176926.33, -121140.66, -161020.86, -187500.02, -185932.75, -166583.23, -120980.76, -187500.02, 0.000, 0.000, 0.000, 15:33:22.372, 1578576802372
214, -176926.20, -121139.61, -161020.16, -187500.02, -185932.52, -166582.58, -120979.51, -187500.02, 0.000, 0.000, 0.000, 15:33:22.372, 1578576802372
215, -176924.98, -121137.27, -161018.09, -187500.02, -185930.97, -166580.75, -120976.89, -187500.02, 0.000, 0.000, 0.000, 15:33:22.372, 1578576802372
216, -176924.05, -121135.16, -161016.38, -187500.02, -185929.69, -166579.16, -120974.59, -187500.02, 0.000, 0.000, 0.000, 15:33:22.372, 1578576802372
217, -176923.13, -121133.22, -161014.67, -187500.02, -185928.55, -166577.69, -120972.30, -187500.02, 0.000, 0.000, 0.000, 15:33:22.372, 1578576802372
218, -176921.88, -121130.78, -161012.70, -187500.02, -185926.98, -166575.78, -120969.60, -187500.02, 0.000, 0.000, 0.000, 15:33:22.372, 1578576802372
219, -176920.47, -121128.37, -161010.66, -187500.02, -185925.42, -166573.84, -120966.72, -187500.02, 0.000, 0.000, 0.000, 15:33:22.372, 1578576802372
220, -176918.95, -121125.71, -161008.34, -187500.02, -185923.72, -166571.81, -120963.77, -187500.02, 0.000, 0.000, 0.000, 15:33:22.373, 1578576802373
221, -176920.17, -121125.84, -161008.84, -187500.02, -185924.67, -166572.39, -120963.57, -187500.02, 0.000, 0.000, 0.000, 15:33:22.374, 1578576802374
222, -176917.84, -121122.35, -161005.69, -187500.02, -185922.00, -166569.47, -120959.84, -187500.02, -0.018, -0.014, 0.980, 15:33:22.374, 1578576802374
223, -176918.23, -121121.66, -161005.41, -187500.02, -185922.20, -166569.23, -120958.74, -187500.02, 0.000, 0.000, 0.000, 15:33:22.374, 1578576802374
224, -176919.66, -121122.00, -161006.16, -187500.02, -185923.39, -166570.06, -120958.90, -187500.02, 0.000, 0.000, 0.000, 15:33:22.375, 1578576802375
225, -176919.28, -121120.50, -161005.00, -187500.02, -185922.75, -166569.08, -120957.06, -187500.02, 0.000, 0.000, 0.000, 15:33:22.375, 1578576802375
226, -176920.48, -121120.52, -161005.33, -187500.02, -185923.69, -166569.66, -120956.82, -187500.02, 0.000, 0.000, 0.000, 15:33:22.382, 1578576802382
227, -176919.73, -121118.71, -161003.86, -187500.02, -185922.67, -166568.41, -120954.77, -187500.02, 0.000, 0.000, 0.000, 15:33:22.383, 1578576802383
228, -176917.47, -121115.41, -161000.86, -187500.02, -185920.16, -166565.55, -120951.14, -187500.02, 0.000, 0.000, 0.000, 15:33:22.383, 1578576802383
229, -176916.53, -121113.28, -160999.14, -187500.02, -185918.92, -166563.98, -120948.68, -187500.02, 0.000, 0.000, 0.000, 15:33:22.384, 1578576802384
230, -176916.69, -121112.30, -160998.56, -187500.02, -185918.88, -166563.61, -120947.41, -187500.02, 0.000, 0.000, 0.000, 15:33:22.384, 1578576802384
231, -176915.27, -121109.75, -160996.39, -187500.02, -185917.31, -166561.55, -120944.59, -187500.02, 0.000, 0.000, 0.000, 15:33:22.385, 1578576802385
232, -176913.45, -121106.87, -160993.86, -187500.02, -185915.20, -166559.20, -120941.46, -187500.02, -0.016, -0.018, 0.976, 15:33:22.385, 1578576802385
233, -176913.97, -121106.33, -160993.66, -187500.02, -185915.30, -166559.09, -120940.48, -187500.02, 0.000, 0.000, 0.000, 15:33:22.385, 1578576802385
234, -176914.66, -121105.97, -160993.64, -187500.02, -185915.86, -166559.27, -120939.77, -187500.02, 0.000, 0.000, 0.000, 15:33:22.385, 1578576802385
235, -176913.09, -121103.36, -160991.30, -187500.02, -185914.20, -166557.02, -120936.81, -187500.02, 0.000, 0.000, 0.000, 15:33:22.385, 1578576802385
236, -176914.97, -121104.18, -160992.44, -187500.02, -185915.81, -166558.36, -120937.38, -187500.02, 0.000, 0.000, 0.000, 15:33:22.386, 1578576802386
237, -176913.69, -121101.68, -160990.45, -187500.02, -185914.22, -166556.45, -120934.63, -187500.02, 0.000, 0.000, 0.000, 15:33:22.386, 1578576802386
238, -176912.02, -121098.93, -160987.94, -187500.02, -185912.28, -166554.11, -120931.45, -187500.02, 0.000, 0.000, 0.000, 15:33:22.386, 1578576802386
239, -176912.59, -121098.46, -160987.86, -187500.02, -185912.61, -166554.13, -120930.66, -187500.02, 0.000, 0.000, 0.000, 15:33:22.386, 1578576802386
240, -176914.14, -121098.82, -160988.59, -187500.02, -185913.91, -166555.14, -120930.96, -187500.02, 0.000, 0.000, 0.000, 15:33:22.386, 1578576802386
241, -176911.89, -121095.47, -160985.58, -187500.02, -185911.30, -166552.28, -120927.23, -187500.02, 0.000, 0.000, 0.000, 15:33:22.833, 1578576802833
242, -176909.41, -121091.84, -160982.42, -187500.02, -185908.59, -166549.17, -120923.23, -187500.02, -0.026, -0.012, 0.974, 15:33:22.834, 1578576802834
243, -176906.81, -121088.27, -160979.16, -187500.02, -185905.89, -166546.17, -120919.49, -187500.02, 0.000, 0.000, 0.000, 15:33:22.834, 1578576802834
244, -176909.22, -121089.38, -160980.70, -187500.02, -185907.83, -166547.89, -120920.48, -187500.02, 0.000, 0.000, 0.000, 15:33:22.834, 1578576802834
245, -176909.48, -121088.56, -160980.31, -187500.02, -185907.98, -166547.64, -120919.27, -187500.02, 0.000, 0.000, 0.000, 15:33:22.834, 1578576802834
246, -176908.70, -121086.70, -160978.91, -187500.02, -185906.98, -166546.28, -120917.05, -187500.02, 0.000, 0.000, 0.000, 15:33:22.834, 1578576802834
247, -176907.19, -121084.07, -160976.56, -187500.02, -185905.17, -166544.16, -120914.04, -187500.02, 0.000, 0.000, 0.000, 15:33:22.835, 1578576802835
248, -176904.94, -121080.71, -160973.53, -187500.02, -185902.72, -166541.33, -120910.46, -187500.02, 0.000, 0.000, 0.000, 15:33:22.835, 1578576802835
249, -176904.69, -121079.22, -160972.47, -187500.02, -185902.05, -166540.36, -120908.67, -187500.02, 0.000, 0.000, 0.000, 15:33:22.835, 1578576802835
250, -176903.70, -121077.20, -160970.75, -187500.02, -185900.88, -166538.80, -120906.33, -187500.02, 0.000, 0.000, 0.000, 15:33:22.835, 1578576802835
251, -176904.16, -121076.53, -160970.42, -187500.02, -185901.13, -166538.63, -120905.32, -187500.02, 0.000, 0.000, 0.000, 15:33:22.835, 1578576802835
252, -176902.47, -121073.78, -160967.95, -187500.02, -185899.11, -166536.38, -120902.26, -187500.02, -0.020, -0.014, 0.976, 15:33:22.836, 1578576802836
253, -176900.13, -121070.32, -160964.88, -187500.02, -185896.61, -166533.44, -120898.62, -187500.02, 0.000, 0.000, 0.000, 15:33:22.836, 1578576802836
254, -176897.33, -121066.32, -160961.41, -187500.02, -185893.70, -166530.02, -120894.46, -187500.02, 0.000, 0.000, 0.000, 15:33:22.836, 1578576802836
255, -176895.91, -121063.73, -160959.27, -187500.02, -185892.05, -166528.06, -120891.57, -187500.02, 0.000, 0.000, 0.000, 15:33:22.836, 1578576802836
0, -176895.36, -121062.12, -160957.98, -187500.02, -185891.22, -166526.86, -120889.63, -187500.02, 0.000, 0.000, 0.000, 15:33:22.836, 1578576802836
1, -176892.59, -121058.43, -160954.53, -187500.02, -185888.23, -166523.58, -120885.45, -187500.02, 0.000, 0.000, 0.000, 15:33:22.836, 1578576802836
2, -176891.94, -121056.66, -160952.98, -187500.02, -185887.20, -166522.22, -120883.37, -187500.02, 0.000, 0.000, 0.000, 15:33:22.837, 1578576802837
3, -176893.28, -121056.84, -160953.59, -187500.02, -185888.20, -166522.88, -120883.23, -187500.02, 0.000, 0.000, 0.000, 15:33:22.837, 1578576802837
4, -176892.42, -121054.79, -160952.00, -187500.02, -185887.14, -166521.50, -120880.84, -187500.02, 0.000, 0.000, 0.000, 15:33:22.837, 1578576802837
5, -176890.73, -121051.97, -160949.66, -187500.02, -185885.14, -166519.31, -120877.83, -187500.02, -0.024, -0.014, 0.974, 15:33:22.840, 1578576802840
6, -176890.45, -121050.61, -160948.63, -187500.02, -185884.67, -166518.41, -120876.20, -187500.02, 0.000, 0.000, 0.000, 15:33:22.842, 1578576802842
7, -176892.75, -121051.86, -160950.23, -187500.02, -185886.73, -166520.13, -120877.05, -187500.02, 0.000, 0.000, 0.000, 15:33:22.843, 1578576802843
8, -176893.52, -121051.52, -160950.25, -187500.02, -185887.36, -166520.41, -120876.53, -187500.02, 0.000, 0.000, 0.000, 15:33:22.843, 1578576802843
9, -176892.13, -121049.04, -160948.11, -187500.02, -185885.69, -166518.39, -120873.80, -187500.02, 0.000, 0.000, 0.000, 15:33:22.843, 1578576802843
10, -176893.02, -121048.80, -160948.22, -187500.02, -185886.20, -166518.61, -120873.13, -187500.02, 0.000, 0.000, 0.000, 15:33:22.843, 1578576802843
11, -176893.20, -121047.95, -160947.69, -187500.02, -185886.23, -166518.25, -120872.02, -187500.02, 0.000, 0.000, 0.000, 15:33:22.843, 1578576802843
12, -176894.84, -121048.48, -160948.63, -187500.02, -185887.63, -166519.28, -120872.22, -187500.02, 0.000, 0.000, 0.000, 15:33:22.847, 1578576802847
13, -176895.91, -121048.38, -160948.89, -187500.02, -185888.41, -166519.69, -120871.91, -187500.02, 0.000, 0.000, 0.000, 15:33:22.848, 1578576802848
14, -176894.67, -121046.09, -160947.00, -187500.02, -185886.91, -166517.83, -120869.36, -187500.02, 0.000, 0.000, 0.000, 15:33:22.848, 1578576802848
15, -176893.39, -121043.61, -160944.84, -187500.02, -185885.30, -166516.00, -120866.43, -187500.02, -0.024, -0.016, 0.980, 15:33:22.848, 1578576802848
16, -176892.38, -121041.55, -160943.16, -187500.02, -185884.05, -166514.41, -120864.06, -187500.02, 0.000, 0.000, 0.000, 15:33:22.848, 1578576802848
17, -176890.73, -121038.76, -160940.64, -187500.02, -185882.22, -166512.20, -120861.06, -187500.02, 0.000, 0.000, 0.000, 15:33:22.849, 1578576802849
18, -176888.77, -121035.63, -160937.94, -187500.02, -185880.05, -166509.63, -120857.64, -187500.02, 0.000, 0.000, 0.000, 15:33:22.849, 1578576802849
19, -176887.36, -121033.10, -160935.80, -187500.02, -185878.38, -166507.61, -120854.80, -187500.02, 0.000, 0.000, 0.000, 15:33:22.849, 1578576802849
20, -176885.47, -121030.18, -160933.19, -187500.02, -185876.27, -166505.16, -120851.59, -187500.02, 0.000, 0.000, 0.000, 15:33:22.849, 1578576802849
21, -176883.78, -121027.38, -160930.67, -187500.02, -185874.23, -166502.88, -120848.37, -187500.02, 0.000, 0.000, 0.000, 15:33:22.850, 1578576802850
22, -176884.56, -121027.00, -160930.67, -187500.02, -185874.78, -166503.03, -120847.66, -187500.02, 0.000, 0.000, 0.000, 15:33:22.850, 1578576802850
23, -176886.30, -121027.67, -160931.81, -187500.02, -185876.41, -166504.27, -120848.19, -187500.02, 0.000, 0.000, 0.000, 15:33:22.850, 1578576802850
24, -176886.48, -121026.76, -160931.30, -187500.02, -185876.36, -166503.89, -120847.05, -187500.02, 0.000, 0.000, 0.000, 15:33:22.850, 1578576802850
25, -176886.02, -121025.23, -160930.19, -187500.02, -185875.69, -166502.92, -120845.15, -187500.02, -0.020, -0.012, 0.976, 15:33:22.851, 1578576802851
26, -176883.20, -121021.41, -160926.66, -187500.02, -185872.67, -166499.45, -120840.99, -187500.02, 0.000, 0.000, 0.000, 15:33:22.851, 1578576802851
27, -176881.55, -121018.62, -160924.16, -187500.02, -185870.69, -166497.22, -120837.80, -187500.02, 0.000, 0.000, 0.000, 15:33:22.851, 1578576802851
28, -176882.09, -121017.88, -160923.88, -187500.02, -185870.89, -166497.06, -120836.79, -187500.02, 0.000, 0.000, 0.000, 15:33:22.852, 1578576802852
29, -176883.30, -121017.99, -160924.38, -187500.02, -185871.88, -166497.72, -120836.68, -187500.02, 0.000, 0.000, 0.000, 15:33:22.852, 1578576802852
30, -176879.78, -121013.34, -160920.16, -187500.02, -185868.09, -166493.48, -120831.65, -187500.02, 0.000, 0.000, 0.000, 15:33:22.852, 1578576802852
31, -176878.80, -121011.38, -160918.41, -187500.02, -185866.95, -166491.92, -120829.28, -187500.02, 0.000, 0.000, 0.000, 15:33:22.852, 1578576802852
32, -176878.89, -121010.38, -160917.73, -187500.02, -185866.80, -166491.45, -120827.96, -187500.02, 0.000, 0.000, 0.000, 15:33:22.853, 1578576802853
33, -176880.50, -121010.91, -160918.61, -187500.02, -185868.11, -166492.48, -120828.30, -187500.02, 0.000, 0.000, 0.000, 15:33:22.853, 1578576802853
34, -176880.56, -121009.88, -160917.94, -187500.02, -185867.84, -166492.03, -120827.00, -187500.02, 0.000, 0.000, 0.000, 15:33:22.853, 1578576802853
35, -176880.33, -121008.45, -160916.89, -187500.02, -185867.36, -166491.08, -120825.28, -187500.02, -0.018, -0.016, 0.974, 15:33:22.853, 1578576802853
36, -176880.14, -121007.11, -160916.03, -187500.02, -185866.97, -166490.30, -120823.73, -187500.02, 0.000, 0.000, 0.000, 15:33:22.853, 1578576802853
37, -176877.70, -121003.45, -160912.84, -187500.02, -185864.14, -166487.20, -120819.87, -187500.02, 0.000, 0.000, 0.000, 15:33:22.853, 1578576802853
38, -176875.70, -121000.47, -160910.11, -187500.02, -185861.92, -166484.59, -120816.45, -187500.02, 0.000, 0.000, 0.000, 15:33:22.854, 1578576802854
39, -176876.72, -121000.41, -160910.34, -187500.02, -185862.73, -166485.00, -120816.02, -187500.02, 0.000, 0.000, 0.000, 15:33:22.854, 1578576802854
40, -176875.36, -120997.95, -160908.27, -187500.02, -185861.16, -166483.09, -120813.39, -187500.02, 0.000, 0.000, 0.000, 15:33:22.854, 1578576802854
41, -176874.13, -120995.82, -160906.45, -187500.02, -185859.89, -166481.39, -120810.75, -187500.02, 0.000, 0.000, 0.000, 15:33:22.854, 1578576802854
42, -176872.61, -120993.19, -160904.13, -187500.02, -185858.06, -166479.25, -120807.76, -187500.02, 0.000, 0.000, 0.000, 15:33:22.854, 1578576802854
43, -176874.00, -120993.38, -160904.75, -187500.02, -185859.16, -166479.98, -120807.76, -187500.02, 0.000, 0.000, 0.000, 15:33:22.854, 1578576802854
44, -176872.05, -120990.21, -160901.86, -187500.02, -185856.84, -166477.38, -120804.31, -187500.02, -0.024, -0.014, 0.974, 15:33:22.854, 1578576802854
45, -176870.48, -120987.53, -160899.56, -187500.02, -185855.06, -166475.16, -120801.32, -187500.02, 0.000, 0.000, 0.000, 15:33:22.855, 1578576802855
46, -176869.91, -120986.01, -160898.41, -187500.02, -185854.33, -166474.13, -120799.48, -187500.02, 0.000, 0.000, 0.000, 15:33:22.855, 1578576802855
47, -176868.66, -120983.57, -160896.39, -187500.02, -185852.78, -166472.13, -120796.69, -187500.02, 0.000, 0.000, 0.000, 15:33:22.855, 1578576802855
48, -176867.16, -120980.87, -160894.16, -187500.02, -185850.97, -166470.05, -120793.72, -187500.02, 0.000, 0.000, 0.000, 15:33:22.855, 1578576802855
49, -176866.47, -120979.02, -160892.50, -187500.02, -185849.94, -166468.77, -120791.62, -187500.02, 0.000, 0.000, 0.000, 15:33:22.856, 1578576802856
50, -176867.97, -120979.41, -160893.19, -187500.02, -185851.11, -166469.64, -120791.70, -187500.02, 0.000, 0.000, 0.000, 15:33:22.856, 1578576802856
51, -176866.05, -120976.42, -160890.69, -187500.02, -185849.08, -166467.11, -120788.35, -187500.02, 0.000, 0.000, 0.000, 15:33:22.856, 1578576802856
52, -176864.03, -120973.31, -160888.00, -187500.02, -185846.86, -166464.55, -120785.05, -187500.02, 0.000, 0.000, 0.000, 15:33:22.857, 1578576802857
53, -176866.36, -120974.55, -160889.55, -187500.02, -185848.88, -166466.27, -120785.91, -187500.02, 0.000, 0.000, 0.000, 15:33:22.857, 1578576802857
54, -176865.06, -120972.04, -160887.45, -187500.02, -185847.27, -166464.31, -120783.16, -187500.02, -0.024, -0.018, 0.976, 15:33:22.858, 1578576802858
55, -176865.64, -120971.50, -160887.22, -187500.02, -185847.58, -166464.30, -120782.25, -187500.02, 0.000, 0.000, 0.000, 15:33:22.859, 1578576802859
56, -176866.16, -120971.02, -160887.09, -187500.02, -185847.80, -166464.20, -120781.47, -187500.02, 0.000, 0.000, 0.000, 15:33:22.860, 1578576802860
57, -176865.44, -120969.23, -160885.55, -187500.02, -185846.77, -166462.98, -120779.32, -187500.02, 0.000, 0.000, 0.000, 15:33:22.860, 1578576802860
58, -176862.17, -120964.89, -160881.64, -187500.02, -185843.45, -166459.25, -120774.72, -187500.02, 0.000, 0.000, 0.000, 15:33:22.860, 1578576802860
59, -176862.23, -120963.91, -160881.02, -187500.02, -185843.38, -166458.80, -120773.42, -187500.02, 0.000, 0.000, 0.000, 15:33:22.861, 1578576802861
60, -176863.47, -120963.97, -160881.39, -187500.02, -185844.31, -166459.27, -120773.11, -187500.02, 0.000, 0.000, 0.000, 15:33:22.861, 1578576802861
61, -176864.52, -120963.86, -160881.77, -187500.02, -185845.05, -166459.69, -120772.80, -187500.02, 0.000, 0.000, 0.000, 15:33:22.861, 1578576802861
62, -176863.42, -120961.67, -160879.94, -187500.02, -185843.70, -166458.06, -120770.36, -187500.02, 0.000, 0.000, 0.000, 15:33:22.862, 1578576802862
63, -176863.30, -120960.46, -160878.98, -187500.02, -185843.38, -166457.38, -120768.80, -187500.02, 0.000, 0.000, 0.000, 15:33:22.862, 1578576802862
64, -176863.20, -120959.23, -160878.23, -187500.02, -185842.98, -166456.70, -120767.25, -187500.02, -0.022, -0.018, 0.974, 15:33:22.862, 1578576802862
65, -176860.39, -120955.37, -160874.64, -187500.02, -185839.92, -166453.22, -120763.03, -187500.02, 0.000, 0.000, 0.000, 15:33:22.862, 1578576802862
66, -176860.42, -120954.27, -160873.91, -187500.02, -185839.69, -166452.63, -120761.71, -187500.02, 0.000, 0.000, 0.000, 15:33:22.862, 1578576802862
67, -176861.61, -120954.36, -160874.47, -187500.02, -185840.63, -166453.25, -120761.46, -187500.02, 0.000, 0.000, 0.000, 15:33:22.862, 1578576802862
68, -176860.34, -120952.08, -160872.30, -187500.02, -185839.03, -166451.36, -120758.72, -187500.02, 0.000, 0.000, 0.000, 15:33:22.862, 1578576802862
69, -176861.22, -120951.74, -160872.42, -187500.02, -185839.58, -166451.53, -120758.16, -187500.02, 0.000, 0.000, 0.000, 15:33:22.863, 1578576802863
70, -176858.97, -120948.33, -160869.59, -187500.02, -185837.19, -166448.81, -120754.53, -187500.02, 0.000, 0.000, 0.000, 15:33:22.863, 1578576802863
71, -176856.66, -120945.04, -160866.53, -187500.02, -185834.72, -166445.98, -120750.91, -187500.02, 0.000, 0.000, 0.000, 15:33:22.863, 1578576802863
72, -176856.81, -120944.13, -160865.97, -187500.02, -185834.56, -166445.52, -120749.75, -187500.02, 0.000, 0.000, 0.000, 15:33:22.863, 1578576802863
73, -176855.92, -120942.09, -160864.36, -187500.02, -185833.38, -166444.06, -120747.45, -187500.02, 0.000, 0.000, 0.000, 15:33:22.863, 1578576802863
74, -176855.63, -120940.68, -160863.36, -187500.02, -185832.94, -166443.20, -120745.77, -187500.02, -0.020, -0.016, 0.976, 15:33:22.863, 1578576802863
75, -176856.09, -120939.90, -160862.95, -187500.02, -185833.09, -166442.95, -120744.70, -187500.02, 0.000, 0.000, 0.000, 15:33:22.864, 1578576802864
76, -176856.27, -120939.05, -160862.44, -187500.02, -185833.00, -166442.53, -120743.49, -187500.02, 0.000, 0.000, 0.000, 15:33:22.864, 1578576802864
77, -176855.17, -120936.81, -160860.47, -187500.02, -185831.64, -166440.81, -120740.92, -187500.02, 0.000, 0.000, 0.000, 15:33:22.864, 1578576802864
78, -176853.77, -120934.31, -160858.17, -187500.02, -185829.94, -166438.77, -120738.11, -187500.02, 0.000, 0.000, 0.000, 15:33:22.864, 1578576802864
79, -176856.47, -120935.88, -160860.17, -187500.02, -185832.36, -166440.89, -120739.34, -187500.02, 0.000, 0.000, 0.000, 15:33:22.864, 1578576802864
80, -176853.72, -120932.03, -160856.77, -187500.02, -185829.41, -166437.55, -120735.16, -187500.02, 0.000, 0.000, 0.000, 15:33:22.864, 1578576802864
81, -176852.36, -120929.68, -160854.66, -187500.02, -185827.81, -166435.69, -120732.52, -187500.02, 0.000, 0.000, 0.000, 15:33:22.864, 1578576802864
82, -176852.73, -120928.99, -160854.30, -187500.02, -185828.00, -166435.48, -120731.49, -187500.02, 0.000, 0.000, 0.000, 15:33:22.865, 1578576802865
83, -176851.63, -120926.64, -160852.33, -187500.02, -185826.55, -166433.72, -120728.92, -187500.02, -0.018, -0.022, 0.974, 15:33:22.865, 1578576802865
84, -176850.39, -120924.27, -160850.45, -187500.02, -185825.06, -166431.91, -120726.30, -187500.02, 0.000, 0.000, 0.000, 15:33:22.865, 1578576802865
85, -176849.03, -120921.86, -160848.44, -187500.02, -185823.48, -166430.03, -120723.51, -187500.02, 0.000, 0.000, 0.000, 15:33:22.865, 1578576802865
86, -176849.14, -120920.85, -160847.86, -187500.02, -185823.36, -166429.56, -120722.20, -187500.02, 0.000, 0.000, 0.000, 15:33:22.865, 1578576802865
87, -176848.83, -120919.47, -160846.80, -187500.02, -185822.78, -166428.61, -120720.41, -187500.02, 0.000, 0.000, 0.000, 15:33:22.865, 1578576802865
88, -176849.72, -120919.27, -160846.83, -187500.02, -185823.39, -166428.89, -120719.91, -187500.02, 0.000, 0.000, 0.000, 15:33:22.866, 1578576802866
89, -176847.55, -120915.94, -160843.84, -187500.02, -185820.94, -166426.08, -120716.23, -187500.02, 0.000, 0.000, 0.000, 15:33:22.866, 1578576802866
90, -176846.11, -120913.37, -160841.73, -187500.02, -185819.19, -166424.13, -120713.43, -187500.02, 0.000, 0.000, 0.000, 15:33:22.866, 1578576802866
91, -176845.63, -120911.78, -160840.55, -187500.02, -185818.47, -166423.02, -120711.62, -187500.02, 0.000, 0.000, 0.000, 15:33:22.866, 1578576802866
92, -176845.31, -120910.35, -160839.48, -187500.02, -185818.06, -166422.17, -120709.95, -187500.02, 0.000, 0.000, 0.000, 15:33:22.866, 1578576802866
93, -176847.13, -120911.02, -160840.55, -187500.02, -185819.64, -166423.47, -120710.34, -187500.02, -0.022, -0.026, 0.976, 15:33:22.866, 1578576802866
94, -176847.28, -120909.99, -160839.84, -187500.02, -185819.25, -166422.80, -120709.01, -187500.02, 0.000, 0.000, 0.000, 15:33:22.866, 1578576802866
95, -176847.59, -120909.30, -160839.48, -187500.02, -185819.33, -166422.55, -120707.84, -187500.02, 0.000, 0.000, 0.000, 15:33:22.867, 1578576802867
96, -176847.08, -120907.60, -160838.19, -187500.02, -185818.58, -166421.41, -120705.80, -187500.02, 0.000, 0.000, 0.000, 15:33:22.867, 1578576802867
97, -176845.75, -120905.14, -160836.00, -187500.02, -185816.92, -166419.38, -120703.13, -187500.02, 0.000, 0.000, 0.000, 15:33:22.867, 1578576802867
98, -176845.56, -120904.00, -160835.09, -187500.02, -185816.55, -166418.70, -120701.67, -187500.02, 0.000, 0.000, 0.000, 15:33:22.867, 1578576802867
99, -176844.63, -120901.97, -160833.56, -187500.02, -185815.44, -166417.20, -120699.44, -187500.02, 0.000, 0.000, 0.000, 15:33:22.867, 1578576802867
100, -176844.00, -120900.23, -160832.17, -187500.02, -185814.50, -166415.97, -120697.34, -187500.02, 0.000, 0.000, 0.000, 15:33:22.867, 1578576802867
101, -176841.78, -120896.83, -160829.13, -187500.02, -185811.97, -166413.11, -120693.67, -187500.02, 0.000, 0.000, 0.000, 15:33:22.868, 1578576802868
102, -176842.48, -120896.55, -160829.16, -187500.02, -185812.48, -166413.30, -120692.98, -187500.02, 0.000, 0.000, 0.000, 15:33:22.868, 1578576802868
103, -176842.25, -120895.22, -160828.27, -187500.02, -185812.06, -166412.47, -120691.39, -187500.02, -0.022, -0.016, 0.970, 15:33:22.868, 1578576802868
104, -176839.75, -120891.57, -160824.91, -187500.02, -185809.17, -166409.31, -120687.46, -187500.02, 0.000, 0.000, 0.000, 15:33:22.868, 1578576802868
105, -176838.09, -120888.84, -160822.50, -187500.02, -185807.34, -166407.17, -120684.53, -187500.02, 0.000, 0.000, 0.000, 15:33:23.315, 1578576803315
106, -176838.25, -120887.98, -160822.00, -187500.02, -185807.36, -166406.81, -120683.28, -187500.02, 0.000, 0.000, 0.000, 15:33:23.315, 1578576803315
107, -176839.75, -120888.29, -160822.72, -187500.02, -185808.50, -166407.64, -120683.16, -187500.02, 0.000, 0.000, 0.000, 15:33:23.316, 1578576803316
108, -176839.22, -120886.74, -160821.38, -187500.02, -185807.61, -166406.50, -120681.24, -187500.02, 0.000, 0.000, 0.000, 15:33:23.316, 1578576803316
109, -176836.92, -120883.35, -160818.41, -187500.02, -185805.11, -166403.59, -120677.55, -187500.02, 0.000, 0.000, 0.000, 15:33:23.316, 1578576803316
110, -176837.73, -120882.84, -160818.36, -187500.02, -185805.70, -166403.75, -120676.91, -187500.02, 0.000, 0.000, 0.000, 15:33:23.316, 1578576803316
111, -176839.59, -120883.73, -160819.48, -187500.02, -185807.27, -166405.14, -120677.45, -187500.02, 0.000, 0.000, 0.000, 15:33:23.316, 1578576803316
112, -176839.11, -120882.05, -160818.27, -187500.02, -185806.45, -166403.95, -120675.55, -187500.02, 0.000, 0.000, 0.000, 15:33:23.316, 1578576803316
113, -176837.86, -120879.70, -160816.42, -187500.02, -185805.13, -166402.23, -120672.86, -187500.02, -0.020, -0.024, 0.976, 15:33:23.316, 1578576803316
114, -176834.61, -120875.30, -160812.45, -187500.02, -185801.55, -166398.38, -120668.19, -187500.02, 0.000, 0.000, 0.000, 15:33:23.316, 1578576803316
115, -176829.83, -120869.36, -160806.84, -187500.02, -185796.39, -166392.95, -120662.02, -187500.02, 0.000, 0.000, 0.000, 15:33:23.317, 1578576803317
116, -176824.17, -120862.78, -160800.41, -187500.02, -185790.55, -166386.84, -120655.02, -187500.02, 0.000, 0.000, 0.000, 15:33:23.317, 1578576803317
117, -176824.11, -120861.65, -160799.63, -187500.02, -185790.20, -166386.14, -120653.46, -187500.02, 0.000, 0.000, 0.000, 15:33:23.317, 1578576803317
118, -176827.58, -120863.92, -160802.41, -187500.02, -185793.50, -166388.95, -120655.47, -187500.02, 0.000, 0.000, 0.000, 15:33:23.317, 1578576803317
119, -176829.81, -120864.98, -160803.97, -187500.02, -185795.52, -166390.53, -120656.26, -187500.02, 0.000, 0.000, 0.000, 15:33:23.317, 1578576803317
120, -176835.19, -120869.31, -160808.59, -187500.02, -185800.61, -166395.34, -120660.23, -187500.02, 0.000, 0.000, 0.000, 15:33:23.318, 1578576803318
121, -176835.69, -120868.66, -160808.30, -187500.02, -185800.75, -166395.25, -120659.27, -187500.02, 0.000, 0.000, 0.000, 15:33:23.318, 1578576803318
122, -176835.95, -120867.81, -160807.67, -187500.02, -185800.70, -166394.92, -120658.16, -187500.02, -0.020, -0.026, 0.976, 15:33:23.319, 1578576803319
123, -176832.80, -120863.50, -160803.67, -187500.02, -185797.23, -166391.16, -120653.62, -187500.02, 0.000, 0.000, 0.000, 15:33:23.319, 1578576803319
124, -176832.05, -120861.66, -160802.28, -187500.02, -185796.34, -166389.86, -120651.56, -187500.02, 0.000, 0.000, 0.000, 15:33:23.320, 1578576803320
125, -176831.44, -120860.04, -160800.92, -187500.02, -185795.50, -166388.69, -120649.51, -187500.02, 0.000, 0.000, 0.000, 15:33:23.320, 1578576803320
126, -176830.98, -120858.43, -160799.86, -187500.02, -185794.88, -166387.66, -120647.63, -187500.02, 0.000, 0.000, 0.000, 15:33:23.321, 1578576803321
127, -176829.00, -120855.37, -160797.28, -187500.02, -185792.66, -166385.06, -120644.27, -187500.02, 0.000, 0.000, 0.000, 15:33:23.321, 1578576803321
128, -176828.47, -120853.73, -160795.84, -187500.02, -185791.78, -166383.98, -120642.44, -187500.02, 0.000, 0.000, 0.000, 15:33:23.321, 1578576803321
129, -176827.28, -120851.43, -160793.84, -187500.02, -185790.31, -166382.14, -120639.76, -187500.02, 0.000, 0.000, 0.000, 15:33:23.322, 1578576803322
130, -176825.20, -120848.39, -160791.09, -187500.02, -185788.08, -166379.45, -120636.34, -187500.02, 0.000, 0.000, 0.000, 15:33:23.322, 1578576803322
131, -176824.47, -120846.47, -160789.59, -187500.02, -185787.02, -166378.09, -120634.13, -187500.02, 0.000, 0.000, 0.000, 15:33:23.322, 1578576803322
132, -176825.69, -120846.63, -160790.08, -187500.02, -185788.03, -166378.80, -120633.99, -187500.02, -0.024, -0.024, 0.978, 15:33:23.322, 1578576803322
133, -176824.39, -120844.19, -160788.08, -187500.02, -185786.38, -166376.88, -120631.34, -187500.02, 0.000, 0.000, 0.000, 15:33:23.322, 1578576803322
134, -176823.06, -120841.82, -160786.02, -187500.02, -185784.88, -166374.98, -120628.56, -187500.02, 0.000, 0.000, 0.000, 15:33:23.322, 1578576803322
135, -176824.06, -120841.69, -160786.34, -187500.02, -185785.69, -166375.41, -120628.18, -187500.02, 0.000, 0.000, 0.000, 15:33:23.322, 1578576803322
136, -176823.42, -120839.83, -160784.91, -187500.02, -185784.70, -166374.09, -120626.10, -187500.02, 0.000, 0.000, 0.000, 15:33:23.323, 1578576803323
137, -176825.30, -120840.63, -160786.06, -187500.02, -185786.38, -166375.45, -120626.52, -187500.02, 0.000, 0.000, 0.000, 15:33:23.323, 1578576803323
138, -176823.75, -120838.00, -160783.73, -187500.02, -185784.61, -166373.38, -120623.58, -187500.02, 0.000, 0.000, 0.000, 15:33:23.323, 1578576803323
139, -176819.86, -120832.95, -160779.13, -187500.02, -185780.36, -166368.75, -120618.23, -187500.02, 0.000, 0.000, 0.000, 15:33:23.323, 1578576803323
140, -176819.92, -120831.89, -160778.48, -187500.02, -185780.20, -166368.28, -120616.91, -187500.02, 0.000, 0.000, 0.000, 15:33:23.324, 1578576803324
141, -176818.86, -120829.70, -160776.63, -187500.02, -185778.89, -166366.64, -120614.41, -187500.02, 0.000, 0.000, 0.000, 15:33:23.324, 1578576803324
142, -176815.80, -120825.52, -160772.83, -187500.02, -185775.56, -166362.95, -120609.88, -187500.02, -0.020, -0.018, 0.974, 15:33:23.324, 1578576803324
143, -176815.28, -120823.85, -160771.48, -187500.02, -185774.78, -166361.70, -120607.95, -187500.02, 0.000, 0.000, 0.000, 15:33:23.324, 1578576803324
144, -176815.84, -120823.40, -160771.44, -187500.02, -185775.17, -166361.81, -120607.17, -187500.02, 0.000, 0.000, 0.000, 15:33:23.325, 1578576803325
145, -176816.70, -120823.27, -160771.63, -187500.02, -185775.75, -166362.22, -120606.73, -187500.02, 0.000, 0.000, 0.000, 15:33:23.325, 1578576803325
146, -176815.19, -120820.65, -160769.34, -187500.02, -185774.03, -166360.05, -120603.80, -187500.02, 0.000, 0.000, 0.000, 15:33:23.325, 1578576803325
147, -176813.77, -120818.02, -160767.00, -187500.02, -185772.30, -166358.02, -120600.94, -187500.02, 0.000, 0.000, 0.000, 15:33:23.325, 1578576803325
148, -176814.45, -120817.52, -160766.92, -187500.02, -185772.63, -166358.08, -120600.22, -187500.02, 0.000, 0.000, 0.000, 15:33:23.325, 1578576803325
149, -176815.14, -120817.08, -160766.89, -187500.02, -185773.03, -166358.17, -120599.44, -187500.02, 0.000, 0.000, 0.000, 15:33:23.326, 1578576803326
150, -176815.19, -120816.00, -160766.19, -187500.02, -185772.89, -166357.66, -120598.07, -187500.02, 0.000, 0.000, 0.000, 15:33:23.326, 1578576803326
151, -176811.03, -120810.82, -160761.39, -187500.02, -185768.50, -166352.89, -120592.51, -187500.02, 0.000, 0.000, 0.000, 15:33:23.326, 1578576803326
152, -176807.41, -120806.10, -160756.98, -187500.02, -185764.56, -166348.67, -120587.43, -187500.02, -0.020, -0.012, 0.980, 15:33:23.326, 1578576803326
153, -176809.94, -120807.55, -160758.77, -187500.02, -185766.89, -166350.66, -120588.69, -187500.02, 0.000, 0.000, 0.000, 15:33:23.326, 1578576803326
154, -176810.05, -120806.57, -160758.08, -187500.02, -185766.77, -166350.22, -120587.41, -187500.02, 0.000, 0.000, 0.000, 15:33:23.326, 1578576803326
155, -176806.98, -120802.41, -160754.23, -187500.02, -185763.42, -166346.50, -120582.85, -187500.02, 0.000, 0.000, 0.000, 15:33:23.326, 1578576803326
156, -176806.81, -120801.14, -160753.34, -187500.02, -185763.08, -166345.77, -120581.22, -187500.02, 0.000, 0.000, 0.000, 15:33:23.326, 1578576803326
157, -176802.61, -120795.88, -160748.53, -187500.02, -185758.64, -166341.03, -120575.61, -187500.02, 0.000, 0.000, 0.000, 15:33:23.326, 1578576803326
158, -176802.16, -120794.21, -160747.27, -187500.02, -185757.89, -166339.86, -120573.73, -187500.02, 0.000, 0.000, 0.000, 15:33:23.326, 1578576803326
159, -176804.13, -120794.91, -160748.36, -187500.02, -185759.44, -166341.14, -120574.09, -187500.02, 0.000, 0.000, 0.000, 15:33:23.326, 1578576803326
160, -176805.20, -120794.97, -160748.73, -187500.02, -185760.27, -166341.77, -120573.93, -187500.02, 0.000, 0.000, 0.000, 15:33:23.326, 1578576803326
161, -176803.34, -120792.00, -160746.08, -187500.02, -185758.22, -166339.36, -120570.70, -187500.02, -0.020, -0.012, 0.976, 15:33:23.327, 1578576803327
162, -176802.97, -120790.48, -160745.00, -187500.02, -185757.58, -166338.33, -120568.91, -187500.02, 0.000, 0.000, 0.000, 15:33:23.327, 1578576803327
163, -176803.30, -120789.78, -160744.53, -187500.02, -185757.67, -166338.03, -120567.83, -187500.02, 0.000, 0.000, 0.000, 15:33:23.327, 1578576803327
164, -176804.44, -120789.80, -160744.98, -187500.02, -185758.53, -166338.61, -120567.56, -187500.02, 0.000, 0.000, 0.000, 15:33:23.327, 1578576803327
165, -176803.25, -120787.51, -160743.03, -187500.02, -185757.11, -166336.88, -120564.97, -187500.02, 0.000, 0.000, 0.000, 15:33:23.329, 1578576803329
166, -176802.67, -120785.85, -160741.72, -187500.02, -185756.25, -166335.66, -120563.00, -187500.02, 0.000, 0.000, 0.000, 15:33:23.329, 1578576803329
167, -176801.53, -120783.62, -160739.80, -187500.02, -185754.81, -166333.92, -120560.41, -187500.02, 0.000, 0.000, 0.000, 15:33:23.330, 1578576803330
168, -176799.86, -120780.80, -160737.36, -187500.02, -185752.88, -166331.66, -120557.30, -187500.02, 0.000, 0.000, 0.000, 15:33:23.330, 1578576803330
169, -176800.42, -120780.30, -160737.22, -187500.02, -185753.30, -166331.69, -120556.52, -187500.02, 0.000, 0.000, 0.000, 15:33:23.330, 1578576803330
170, -176801.64, -120780.38, -160737.64, -187500.02, -185754.20, -166332.33, -120556.32, -187500.02, 0.000, 0.000, 0.000, 15:33:23.330, 1578576803330
171, -176800.64, -120778.34, -160735.91, -187500.02, -185752.98, -166330.72, -120553.84, -187500.02, -0.022, -0.014, 0.980, 15:33:23.330, 1578576803330
172, -176799.08, -120775.73, -160733.72, -187500.02, -185751.28, -166328.64, -120550.98, -187500.02, 0.000, 0.000, 0.000, 15:33:23.330, 1578576803330
173, -176796.75, -120772.26, -160730.73, -187500.02, -185748.59, -166325.73, -120547.20, -187500.02, 0.000, 0.000, 0.000, 15:33:23.331, 1578576803331
174, -176794.42, -120768.80, -160727.70, -187500.02, -185746.08, -166322.83, -120543.53, -187500.02, 0.000, 0.000, 0.000, 15:33:23.331, 1578576803331
175, -176798.50, -120771.79, -160730.94, -187500.02, -185749.89, -166326.28, -120546.17, -187500.02, 0.000, 0.000, 0.000, 15:33:23.331, 1578576803331
176, -176798.41, -120770.70, -160730.14, -187500.02, -185749.58, -166325.63, -120544.67, -187500.02, 0.000, 0.000, 0.000, 15:33:23.331, 1578576803331
177, -176797.64, -120768.91, -160728.64, -187500.02, -185748.58, -166324.27, -120542.51, -187500.02, 0.000, 0.000, 0.000, 15:33:23.331, 1578576803331
178, -176797.31, -120767.32, -160727.59, -187500.02, -185747.89, -166323.28, -120540.70, -187500.02, 0.000, 0.000, 0.000, 15:33:23.332, 1578576803332
179, -176796.50, -120765.40, -160725.95, -187500.02, -185746.75, -166321.92, -120538.53, -187500.02, 0.000, 0.000, 0.000, 15:33:23.332, 1578576803332
180, -176797.16, -120764.99, -160725.83, -187500.02, -185747.19, -166322.05, -120537.81, -187500.02, 0.000, 0.000, 0.000, 15:33:23.332, 1578576803332
181, -176798.25, -120764.88, -160726.14, -187500.02, -185747.95, -166322.44, -120537.41, -187500.02, -0.016, -0.014, 0.980, 15:33:23.332, 1578576803332
182, -176796.70, -120762.23, -160723.88, -187500.02, -185746.16, -166320.33, -120534.48, -187500.02, 0.000, 0.000, 0.000, 15:33:23.332, 1578576803332
183, -176794.30, -120758.70, -160720.80, -187500.02, -185743.48, -166317.42, -120530.59, -187500.02, 0.000, 0.000, 0.000, 15:33:23.333, 1578576803333
184, -176793.84, -120757.11, -160719.63, -187500.02, -185742.78, -166316.31, -120528.67, -187500.02, 0.000, 0.000, 0.000, 15:33:23.333, 1578576803333
185, -176796.66, -120758.85, -160721.58, -187500.02, -185745.36, -166318.50, -120530.15, -187500.02, 0.000, 0.000, 0.000, 15:33:23.333, 1578576803333
186, -176797.06, -120758.18, -160721.28, -187500.02, -185745.61, -166318.47, -120529.25, -187500.02, 0.000, 0.000, 0.000, 15:33:23.333, 1578576803333
187, -176796.17, -120756.16, -160719.67, -187500.02, -185744.36, -166316.98, -120527.02, -187500.02, 0.000, 0.000, 0.000, 15:33:23.333, 1578576803333
188, -176795.67, -120754.53, -160718.42, -187500.02, -185743.55, -166315.86, -120525.14, -187500.02, 0.000, 0.000, 0.000, 15:33:23.333, 1578576803333
189, -176793.63, -120751.36, -160715.67, -187500.02, -185741.25, -166313.27, -120521.67, -187500.02, 0.000, 0.000, 0.000, 15:33:23.334, 1578576803334
190, -176792.72, -120749.46, -160714.05, -187500.02, -185740.13, -166311.84, -120519.35, -187500.02, 0.000, 0.000, 0.000, 15:33:23.334, 1578576803334
191, -176789.64, -120745.35, -160710.28, -187500.02, -185736.91, -166308.13, -120514.90, -187500.02, -0.014, -0.010, 0.978, 15:33:23.334, 1578576803334
192, -176787.89, -120742.38, -160707.73, -187500.02, -185734.92, -166305.84, -120511.70, -187500.02, 0.000, 0.000, 0.000, 15:33:23.334, 1578576803334
193, -176788.97, -120742.51, -160708.14, -187500.02, -185735.77, -166306.34, -120511.41, -187500.02, 0.000, 0.000, 0.000, 15:33:23.334, 1578576803334
194, -176791.75, -120744.09, -160710.11, -187500.02, -185738.19, -166308.44, -120512.71, -187500.02, 0.000, 0.000, 0.000, 15:33:23.334, 1578576803334
195, -176790.73, -120741.91, -160708.23, -187500.02, -185736.83, -166306.73, -120510.23, -187500.02, 0.000, 0.000, 0.000, 15:33:23.334, 1578576803334
196, -176788.25, -120738.35, -160705.02, -187500.02, -185734.14, -166303.77, -120506.41, -187500.02, 0.000, 0.000, 0.000, 15:33:23.334, 1578576803334
197, -176784.72, -120733.70, -160700.70, -187500.02, -185730.23, -166299.61, -120501.38, -187500.02, 0.000, 0.000, 0.000, 15:33:23.335, 1578576803335
198, -176783.97, -120731.83, -160699.25, -187500.02, -185729.31, -166298.30, -120499.19, -187500.02, 0.000, 0.000, 0.000, 15:33:23.335, 1578576803335
199, -176782.22, -120729.08, -160696.83, -187500.02, -185727.39, -166296.02, -120496.06, -187500.02, 0.000, 0.000, 0.000, 15:33:23.335, 1578576803335
200, -176782.13, -120727.87, -160695.88, -187500.02, -185726.94, -166295.28, -120494.61, -187500.02, 0.000, 0.000, 0.000, 15:33:23.335, 1578576803335
201, -176781.97, -120726.55, -160694.94, -187500.02, -185726.45, -166294.48, -120492.95, -187500.02, -0.012, -0.014, 0.982, 15:33:23.335, 1578576803335
202, -176783.11, -120726.62, -160695.31, -187500.02, -185727.36, -166295.13, -120492.75, -187500.02, 0.000, 0.000, 0.000, 15:33:23.335, 1578576803335
203, -176785.06, -120727.49, -160696.52, -187500.02, -185729.05, -166296.50, -120493.35, -187500.02, 0.000, 0.000, 0.000, 15:33:23.335, 1578576803335
204, -176783.11, -120724.36, -160693.75, -187500.02, -185726.78, -166293.83, -120489.91, -187500.02, 0.000, 0.000, 0.000, 15:33:23.336, 1578576803336
205, -176781.61, -120721.74, -160691.61, -187500.02, -185725.11, -166291.83, -120486.96, -187500.02, 0.000, 0.000, 0.000, 15:33:23.336, 1578576803336
206, -176777.27, -120716.20, -160686.48, -187500.02, -185720.34, -166286.78, -120481.09, -187500.02, 0.000, 0.000, 0.000, 15:33:23.336, 1578576803336
207, -176774.83, -120712.63, -160683.28, -187500.02, -185717.70, -166283.66, -120477.17, -187500.02, 0.000, 0.000, 0.000, 15:33:23.336, 1578576803336
208, -176776.44, -120713.19, -160684.20, -187500.02, -185719.16, -166284.75, -120477.55, -187500.02, 0.000, 0.000, 0.000, 15:33:23.337, 1578576803337
209, -176777.28, -120712.98, -160684.36, -187500.02, -185719.75, -166285.17, -120477.09, -187500.02, 0.000, 0.000, 0.000, 15:33:23.337, 1578576803337
210, -176778.42, -120713.07, -160684.70, -187500.02, -185720.61, -166285.63, -120476.70, -187500.02, -0.016, -0.014, 0.984, 15:33:23.337, 1578576803337
211, -176778.52, -120712.05, -160684.14, -187500.02, -185720.50, -166285.19, -120475.43, -187500.02, 0.000, 0.000, 0.000, 15:33:23.337, 1578576803337
212, -176777.17, -120709.72, -160682.03, -187500.02, -185718.89, -166283.34, -120472.81, -187500.02, 0.000, 0.000, 0.000, 15:33:23.338, 1578576803338
213, -176778.63, -120710.01, -160682.70, -187500.02, -185720.11, -166284.08, -120472.86, -187500.02, 0.000, 0.000, 0.000, 15:33:23.338, 1578576803338
214, -176777.59, -120707.82, -160680.94, -187500.02, -185718.81, -166282.48, -120470.34, -187500.02, 0.000, 0.000, 0.000, 15:33:23.338, 1578576803338
215, -176776.72, -120705.90, -160679.28, -187500.02, -185717.70, -166281.13, -120468.09, -187500.02, 0.000, 0.000, 0.000, 15:33:23.338, 1578576803338
216, -176774.28, -120702.37, -160676.20, -187500.02, -185714.92, -166278.11, -120464.30, -187500.02, 0.000, 0.000, 0.000, 15:33:23.339, 1578576803339
217, -176773.73, -120700.84, -160675.00, -187500.02, -185714.20, -166276.95, -120462.42, -187500.02, 0.000, 0.000, 0.000, 15:33:23.339, 1578576803339
218, -176773.45, -120699.53, -160673.98, -187500.02, -185713.70, -166276.09, -120460.74, -187500.02, 0.000, 0.000, 0.000, 15:33:23.339, 1578576803339
219, -176771.11, -120695.93, -160670.84, -187500.02, -185711.05, -166273.08, -120456.90, -187500.02, 0.000, 0.000, 0.000, 15:33:23.339, 1578576803339
220, -176771.20, -120694.95, -160670.08, -187500.02, -185710.94, -166272.63, -120455.60, -187500.02, -0.018, -0.014, 0.974, 15:33:23.339, 1578576803339
221, -176769.25, -120691.88, -160667.44, -187500.02, -185708.72, -166270.08, -120452.18, -187500.02, 0.000, 0.000, 0.000, 15:33:23.339, 1578576803339
222, -176766.47, -120687.95, -160663.97, -187500.02, -185705.69, -166266.73, -120447.96, -187500.02, 0.000, 0.000, 0.000, 15:33:23.340, 1578576803340
223, -176766.84, -120687.32, -160663.66, -187500.02, -185705.84, -166266.53, -120447.04, -187500.02, 0.000, 0.000, 0.000, 15:33:23.340, 1578576803340
224, -176768.30, -120687.70, -160664.31, -187500.02, -185706.98, -166267.45, -120447.09, -187500.02, 0.000, 0.000, 0.000, 15:33:23.340, 1578576803340
225, -176766.89, -120685.16, -160662.17, -187500.02, -185705.48, -166265.45, -120444.29, -187500.02, 0.000, 0.000, 0.000, 15:33:23.796, 1578576803796
226, -176765.56, -120682.70, -160660.06, -187500.02, -185703.81, -166263.48, -120441.50, -187500.02, 0.000, 0.000, 0.000, 15:33:23.796, 1578576803796
227, -176766.39, -120682.43, -160660.17, -187500.02, -185704.41, -166263.77, -120440.96, -187500.02, 0.000, 0.000, 0.000, 15:33:23.796, 1578576803796
228, -176763.83, -120678.61, -160656.80, -187500.02, -185701.45, -166260.55, -120436.94, -187500.02, 0.000, 0.000, 0.000, 15:33:23.796, 1578576803796
229, -176762.75, -120676.37, -160655.02, -187500.02, -185700.08, -166258.80, -120434.34, -187500.02, 0.000, 0.000, 0.000, 15:33:23.797, 1578576803797
230, -176761.91, -120674.47, -160653.56, -187500.02, -185699.11, -166257.44, -120432.24, -187500.02, -0.020, -0.016, 0.980, 15:33:23.797, 1578576803797
231, -176763.63, -120675.08, -160654.47, -187500.02, -185700.45, -166258.63, -120432.52, -187500.02, 0.000, 0.000, 0.000, 15:33:23.797, 1578576803797
232, -176762.95, -120673.48, -160653.09, -187500.02, -185699.47, -166257.33, -120430.48, -187500.02, 0.000, 0.000, 0.000, 15:33:23.797, 1578576803797
233, -176761.41, -120670.83, -160650.72, -187500.02, -185697.70, -166255.20, -120427.51, -187500.02, 0.000, 0.000, 0.000, 15:33:23.797, 1578576803797
234, -176761.86, -120670.18, -160650.36, -187500.02, -185697.92, -166255.02, -120426.55, -187500.02, 0.000, 0.000, 0.000, 15:33:23.797, 1578576803797
235, -176762.48, -120669.66, -160650.19, -187500.02, -185698.22, -166255.08, -120425.77, -187500.02, 0.000, 0.000, 0.000, 15:33:23.797, 1578576803797
236, -176764.50, -120670.60, -160651.45, -187500.02, -185700.00, -166256.56, -120426.41, -187500.02, 0.000, 0.000, 0.000, 15:33:23.797, 1578576803797
237, -176762.55, -120667.50, -160648.84, -187500.02, -185697.89, -166253.98, -120423.08, -187500.02, 0.000, 0.000, 0.000, 15:33:23.797, 1578576803797
238, -176760.36, -120664.19, -160645.73, -187500.02, -185695.36, -166251.16, -120419.44, -187500.02, 0.000, 0.000, 0.000, 15:33:23.797, 1578576803797
239, -176760.09, -120662.89, -160644.80, -187500.02, -185694.91, -166250.44, -120417.80, -187500.02, 0.000, 0.000, 0.000, 15:33:23.798, 1578576803798
240, -176759.94, -120661.55, -160643.95, -187500.02, -185694.47, -166249.70, -120416.17, -187500.02, -0.020, -0.014, 0.976, 15:33:23.798, 1578576803798
241, -176756.30, -120656.88, -160639.61, -187500.02, -185690.69, -166245.42, -120411.13, -187500.02, 0.000, 0.000, 0.000, 15:33:23.798, 1578576803798
242, -176754.92, -120654.40, -160637.36, -187500.02, -185688.94, -166243.47, -120408.38, -187500.02, 0.000, 0.000, 0.000, 15:33:23.798, 1578576803798
243, -176755.02, -120653.44, -160636.81, -187500.02, -185688.81, -166243.00, -120407.16, -187500.02, 0.000, 0.000, 0.000, 15:33:23.798, 1578576803798
244, -176753.59, -120650.87, -160634.77, -187500.02, -185687.13, -166240.92, -120404.30, -187500.02, 0.000, 0.000, 0.000, 15:33:23.798, 1578576803798
245, -176753.47, -120649.57, -160633.75, -187500.02, -185686.80, -166240.13, -120402.65, -187500.02, 0.000, 0.000, 0.000, 15:33:23.798, 1578576803798
246, -176756.03, -120650.89, -160635.48, -187500.02, -185689.02, -166242.03, -120403.68, -187500.02, 0.000, 0.000, 0.000, 15:33:23.799, 1578576803799
247, -176755.11, -120648.88, -160633.84, -187500.02, -185687.83, -166240.67, -120401.45, -187500.02, 0.000, 0.000, 0.000, 15:33:23.799, 1578576803799
248, -176754.06, -120646.87, -160632.08, -187500.02, -185686.59, -166239.13, -120399.05, -187500.02, 0.000, 0.000, 0.000, 15:33:23.799, 1578576803799
249, -176753.03, -120644.84, -160630.34, -187500.02, -185685.33, -166237.41, -120396.59, -187500.02, -0.018, -0.020, 0.974, 15:33:23.799, 1578576803799
250, -176752.38, -120643.02, -160628.97, -187500.02, -185684.36, -166236.09, -120394.65, -187500.02, 0.000, 0.000, 0.000, 15:33:23.799, 1578576803799
251, -176750.22, -120639.80, -160626.06, -187500.02, -185681.88, -166233.38, -120391.07, -187500.02, 0.000, 0.000, 0.000, 15:33:23.799, 1578576803799
252, -176748.53, -120636.98, -160623.67, -187500.02, -185679.91, -166231.14, -120387.95, -187500.02, 0.000, 0.000, 0.000, 15:33:23.800, 1578576803800
253, -176746.69, -120634.04, -160621.03, -187500.02, -185677.83, -166228.63, -120384.57, -187500.02, 0.000, 0.000, 0.000, 15:33:23.800, 1578576803800
254, -176749.16, -120635.40, -160622.78, -187500.02, -185680.05, -166230.63, -120385.66, -187500.02, 0.000, 0.000, 0.000, 15:33:23.800, 1578576803800
255, -176751.08, -120636.25, -160624.02, -187500.02, -185681.75, -166232.00, -120386.24, -187500.02, 0.000, 0.000, 0.000, 15:33:23.801, 1578576803801
0, -176751.53, -120635.53, -160623.72, -187500.02, -185681.88, -166231.80, -120385.17, -187500.02, 0.000, 0.000, 0.000, 15:33:23.801, 1578576803801
1, -176750.48, -120633.32, -160621.80, -187500.02, -185680.52, -166230.08, -120382.70, -187500.02, 0.000, 0.000, 0.000, 15:33:23.801, 1578576803801
2, -176750.41, -120632.12, -160620.97, -187500.02, -185680.09, -166229.45, -120381.17, -187500.02, 0.000, 0.000, 0.000, 15:33:23.801, 1578576803801
3, -176747.13, -120627.76, -160616.92, -187500.02, -185676.42, -166225.53, -120376.39, -187500.02, -0.018, -0.024, 0.978, 15:33:23.803, 1578576803803
4, -176747.44, -120626.98, -160616.55, -187500.02, -185676.61, -166225.33, -120375.36, -187500.02, 0.000, 0.000, 0.000, 15:33:23.803, 1578576803803
5, -176747.69, -120626.13, -160616.03, -187500.02, -185676.81, -166225.06, -120374.22, -187500.02, 0.000, 0.000, 0.000, 15:33:23.803, 1578576803803
6, -176744.16, -120621.63, -160611.84, -187500.02, -185673.08, -166220.95, -120369.44, -187500.02, 0.000, 0.000, 0.000, 15:33:23.803, 1578576803803
7, -176743.95, -120620.20, -160610.83, -187500.02, -185672.56, -166220.13, -120367.83, -187500.02, 0.000, 0.000, 0.000, 15:33:23.803, 1578576803803
8, -176741.00, -120616.06, -160607.14, -187500.02, -185669.39, -166216.63, -120363.49, -187500.02, 0.000, 0.000, 0.000, 15:33:23.804, 1578576803804
9, -176739.66, -120613.83, -160605.03, -187500.02, -185667.84, -166214.77, -120360.81, -187500.02, 0.000, 0.000, 0.000, 15:33:23.804, 1578576803804
10, -176742.20, -120615.26, -160606.75, -187500.02, -185670.06, -166216.64, -120361.81, -187500.02, 0.000, 0.000, 0.000, 15:33:23.804, 1578576803804
11, -176740.84, -120612.80, -160604.75, -187500.02, -185668.45, -166214.66, -120359.09, -187500.02, 0.000, 0.000, 0.000, 15:33:23.804, 1578576803804
12, -176739.50, -120610.45, -160602.83, -187500.02, -185666.81, -166212.75, -120356.38, -187500.02, 0.000, 0.000, 0.000, 15:33:23.804, 1578576803804
13, -176740.78, -120610.50, -160603.27, -187500.02, -185667.83, -166213.41, -120356.23, -187500.02, -0.016, -0.024, 0.980, 15:33:23.805, 1578576803805
14, -176741.52, -120610.10, -160603.25, -187500.02, -185668.31, -166213.52, -120355.63, -187500.02, 0.000, 0.000, 0.000, 15:33:23.805, 1578576803805
15, -176740.53, -120608.09, -160601.50, -187500.02, -185667.02, -166211.97, -120353.08, -187500.02, 0.000, 0.000, 0.000, 15:33:23.805, 1578576803805
16, -176739.38, -120605.80, -160599.58, -187500.02, -185665.56, -166210.31, -120350.64, -187500.02, 0.000, 0.000, 0.000, 15:33:23.805, 1578576803805
17, -176738.75, -120604.06, -160598.16, -187500.02, -185664.67, -166209.06, -120348.59, -187500.02, 0.000, 0.000, 0.000, 15:33:23.805, 1578576803805
18, -176739.97, -120604.16, -160598.55, -187500.02, -185665.63, -166209.63, -120348.31, -187500.02, 0.000, 0.000, 0.000, 15:33:23.805, 1578576803805
19, -176737.56, -120600.62, -160595.44, -187500.02, -185662.97, -166206.66, -120344.49, -187500.02, 0.000, 0.000, 0.000, 15:33:23.805, 1578576803805
20, -176735.80, -120597.70, -160592.88, -187500.02, -185660.92, -166204.23, -120341.25, -187500.02, 0.000, 0.000, 0.000, 15:33:23.805, 1578576803805
21, -176735.03, -120595.75, -160591.38, -187500.02, -185659.81, -166202.94, -120339.02, -187500.02, 0.000, 0.000, 0.000, 15:33:23.806, 1578576803806
22, -176735.06, -120594.74, -160590.78, -187500.02, -185659.73, -166202.42, -120337.81, -187500.02, 0.000, 0.000, 0.000, 15:33:23.806, 1578576803806
23, -176735.55, -120594.12, -160590.55, -187500.02, -185659.97, -166202.31, -120336.94, -187500.02, -0.022, -0.022, 0.982, 15:33:23.806, 1578576803806
24, -176734.44, -120591.84, -160588.66, -187500.02, -185658.55, -166200.56, -120334.32, -187500.02, 0.000, 0.000, 0.000, 15:33:23.806, 1578576803806
25, -176733.89, -120590.25, -160587.36, -187500.02, -185657.77, -166199.39, -120332.49, -187500.02, 0.000, 0.000, 0.000, 15:33:23.806, 1578576803806
26, -176733.16, -120588.48, -160585.92, -187500.02, -185656.69, -166198.05, -120330.30, -187500.02, 0.000, 0.000, 0.000, 15:33:23.807, 1578576803807
27, -176732.22, -120586.49, -160584.19, -187500.02, -185655.53, -166196.61, -120327.95, -187500.02, 0.000, 0.000, 0.000, 15:33:23.807, 1578576803807
28, -176729.67, -120582.88, -160580.88, -187500.02, -185652.80, -166193.55, -120324.04, -187500.02, 0.000, 0.000, 0.000, 15:33:23.807, 1578576803807
29, -176727.59, -120579.70, -160578.03, -187500.02, -185650.47, -166190.89, -120320.58, -187500.02, 0.000, 0.000, 0.000, 15:33:23.807, 1578576803807
30, -176728.42, -120579.37, -160578.03, -187500.02, -185651.02, -166191.09, -120319.97, -187500.02, 0.000, 0.000, 0.000, 15:33:23.807, 1578576803807
31, -176728.55, -120578.47, -160577.44, -187500.02, -185650.88, -166190.75, -120318.68, -187500.02, 0.000, 0.000, 0.000, 15:33:23.808, 1578576803808
32, -176727.22, -120575.97, -160575.38, -187500.02, -185649.25, -166188.72, -120315.77, -187500.02, -0.022, -0.024, 0.982, 15:33:23.808, 1578576803808
33, -176726.55, -120574.27, -160574.06, -187500.02, -185648.36, -166187.61, -120313.78, -187500.02, 0.000, 0.000, 0.000, 15:33:23.808, 1578576803808
34, -176724.55, -120571.25, -160571.38, -187500.02, -185646.20, -166185.03, -120310.52, -187500.02, 0.000, 0.000, 0.000, 15:33:23.809, 1578576803809
35, -176724.16, -120569.69, -160570.14, -187500.02, -185645.58, -166184.00, -120308.66, -187500.02, 0.000, 0.000, 0.000, 15:33:23.809, 1578576803809
36, -176722.61, -120566.96, -160567.75, -187500.02, -185643.80, -166181.84, -120305.73, -187500.02, 0.000, 0.000, 0.000, 15:33:23.809, 1578576803809
37, -176720.80, -120563.95, -160565.25, -187500.02, -185641.67, -166179.42, -120302.41, -187500.02, 0.000, 0.000, 0.000, 15:33:23.810, 1578576803810
38, -176718.14, -120560.21, -160561.89, -187500.02, -185638.81, -166176.11, -120298.47, -187500.02, 0.000, 0.000, 0.000, 15:33:23.810, 1578576803810
39, -176717.28, -120558.24, -160560.27, -187500.02, -185637.63, -166174.70, -120296.10, -187500.02, 0.000, 0.000, 0.000, 15:33:23.811, 1578576803811
40, -176716.03, -120555.94, -160558.30, -187500.02, -185636.13, -166172.94, -120293.46, -187500.02, 0.000, 0.000, 0.000, 15:33:23.811, 1578576803811
41, -176716.55, -120555.34, -160558.14, -187500.02, -185636.42, -166172.94, -120292.70, -187500.02, 0.000, 0.000, 0.000, 15:33:23.811, 1578576803811
42, -176716.22, -120553.93, -160557.09, -187500.02, -185635.83, -166172.08, -120290.94, -187500.02, -0.022, -0.022, 0.974, 15:33:23.811, 1578576803811
43, -176716.75, -120553.30, -160556.78, -187500.02, -185635.97, -166172.00, -120289.91, -187500.02, 0.000, 0.000, 0.000, 15:33:23.811, 1578576803811
44, -176715.36, -120550.82, -160554.66, -187500.02, -185634.42, -166169.92, -120287.20, -187500.02, 0.000, 0.000, 0.000, 15:33:23.811, 1578576803811
45, -176716.16, -120550.51, -160554.81, -187500.02, -185635.05, -166170.17, -120286.63, -187500.02, 0.000, 0.000, 0.000, 15:33:23.812, 1578576803812
46, -176718.50, -120551.73, -160556.38, -187500.02, -185637.11, -166171.95, -120287.48, -187500.02, 0.000, 0.000, 0.000, 15:33:23.812, 1578576803812
47, -176719.61, -120551.73, -160556.73, -187500.02, -185637.92, -166172.41, -120287.20, -187500.02, 0.000, 0.000, 0.000, 15:33:23.812, 1578576803812
48, -176721.17, -120552.25, -160557.48, -187500.02, -185639.09, -166173.34, -120287.30, -187500.02, 0.000, 0.000, 0.000, 15:33:23.814, 1578576803814
49, -176720.27, -120550.27, -160555.81, -187500.02, -185638.08, -166171.89, -120285.06, -187500.02, 0.000, 0.000, 0.000, 15:33:23.814, 1578576803814
50, -176720.50, -120549.37, -160555.33, -187500.02, -185637.95, -166171.52, -120283.90, -187500.02, 0.000, 0.000, 0.000, 15:33:23.814, 1578576803814
51, -176720.50, -120548.19, -160554.61, -187500.02, -185637.69, -166171.00, -120282.47, -187500.02, 0.000, 0.000, 0.000, 15:33:23.814, 1578576803814
52, -176716.70, -120543.34, -160550.05, -187500.02, -185633.58, -166166.70, -120277.39, -187500.02, -0.020, -0.014, 0.976, 15:33:23.815, 1578576803815
53, -176716.84, -120542.46, -160549.33, -187500.02, -185633.48, -166166.17, -120276.09, -187500.02, 0.000, 0.000, 0.000, 15:33:23.815, 1578576803815
54, -176714.39, -120538.80, -160546.11, -187500.02, -185630.78, -166163.02, -120272.12, -187500.02, 0.000, 0.000, 0.000, 15:33:23.815, 1578576803815
55, -176713.89, -120537.30, -160544.84, -187500.02, -185629.98, -166161.91, -120270.24, -187500.02, 0.000, 0.000, 0.000, 15:33:23.815, 1578576803815
56, -176714.55, -120536.77, -160544.73, -187500.02, -185630.34, -166161.95, -120269.46, -187500.02, 0.000, 0.000, 0.000, 15:33:23.815, 1578576803815
57, -176715.02, -120536.09, -160544.42, -187500.02, -185630.47, -166161.91, -120268.38, -187500.02, 0.000, 0.000, 0.000, 15:33:23.815, 1578576803815
58, -176713.83, -120533.90, -160542.63, -187500.02, -185629.11, -166160.14, -120265.75, -187500.02, 0.000, 0.000, 0.000, 15:33:23.815, 1578576803815
59, -176711.81, -120530.77, -160539.91, -187500.02, -185626.84, -166157.50, -120262.35, -187500.02, 0.000, 0.000, 0.000, 15:33:23.816, 1578576803816
60, -176711.48, -120529.37, -160538.77, -187500.02, -185626.25, -166156.58, -120260.67, -187500.02, 0.000, 0.000, 0.000, 15:33:23.816, 1578576803816
61, -176712.13, -120528.80, -160538.53, -187500.02, -185626.53, -166156.66, -120259.91, -187500.02, 0.000, 0.000, 0.000, 15:33:23.816, 1578576803816
62, -176709.98, -120525.63, -160535.70, -187500.02, -185624.19, -166153.97, -120256.43, -187500.02, -0.020, -0.016, 0.976, 15:33:23.816, 1578576803816
63, -176709.13, -120523.71, -160534.11, -187500.02, -185623.14, -166152.63, -120254.19, -187500.02, 0.000, 0.000, 0.000, 15:33:23.816, 1578576803816
64, -176710.31, -120523.87, -160534.66, -187500.02, -185624.19, -166153.23, -120254.03, -187500.02, 0.000, 0.000, 0.000, 15:33:23.816, 1578576803816
65, -176711.48, -120523.93, -160535.09, -187500.02, -185625.02, -166153.81, -120253.81, -187500.02, 0.000, 0.000, 0.000, 15:33:23.816, 1578576803816
66, -176711.81, -120523.10, -160534.73, -187500.02, -185625.13, -166153.61, -120252.72, -187500.02, 0.000, 0.000, 0.000, 15:33:23.817, 1578576803817
67, -176708.45, -120518.63, -160530.52, -187500.02, -185621.44, -166149.55, -120247.84, -187500.02, 0.000, 0.000, 0.000, 15:33:23.817, 1578576803817
68, -176706.72, -120515.73, -160527.98, -187500.02, -185619.47, -166147.17, -120244.83, -187500.02, 0.000, 0.000, 0.000, 15:33:23.817, 1578576803817
69, -176708.75, -120516.63, -160529.22, -187500.02, -185621.22, -166148.69, -120245.41, -187500.02, 0.000, 0.000, 0.000, 15:33:23.817, 1578576803817
70, -176708.69, -120515.51, -160528.50, -187500.02, -185620.95, -166148.16, -120244.09, -187500.02, 0.000, 0.000, 0.000, 15:33:23.817, 1578576803817
71, -176704.53, -120510.27, -160523.70, -187500.02, -185616.53, -166143.44, -120238.43, -187500.02, -0.018, -0.018, 0.978, 15:33:23.817, 1578576803817
72, -176701.11, -120505.73, -160519.52, -187500.02, -185612.86, -166139.44, -120233.59, -187500.02, 0.000, 0.000, 0.000, 15:33:23.817, 1578576803817
73, -176697.38, -120500.91, -160514.95, -187500.02, -185608.83, -166135.08, -120228.38, -187500.02, 0.000, 0.000, 0.000, 15:33:23.818, 1578576803818
74, -176698.33, -120500.73, -160515.16, -187500.02, -185609.48, -166135.34, -120227.88, -187500.02, 0.000, 0.000, 0.000, 15:33:23.818, 1578576803818
75, -176696.50, -120497.80, -160512.66, -187500.02, -185607.38, -166132.95, -120224.71, -187500.02, 0.000, 0.000, 0.000, 15:33:23.818, 1578576803818
76, -176694.64, -120494.90, -160510.16, -187500.02, -185605.44, -166130.63, -120221.58, -187500.02, 0.000, 0.000, 0.000, 15:33:23.818, 1578576803818
77, -176693.23, -120492.39, -160508.03, -187500.02, -185603.69, -166128.58, -120218.65, -187500.02, 0.000, 0.000, 0.000, 15:33:23.818, 1578576803818
78, -176694.20, -120492.13, -160508.11, -187500.02, -185604.30, -166128.91, -120218.16, -187500.02, 0.000, 0.000, 0.000, 15:33:23.818, 1578576803818
79, -176695.94, -120492.88, -160509.14, -187500.02, -185605.84, -166130.14, -120218.52, -187500.02, 0.000, 0.000, 0.000, 15:33:23.818, 1578576803818
80, -176694.73, -120490.67, -160507.17, -187500.02, -185604.28, -166128.27, -120215.84, -187500.02, 0.000, 0.000, 0.000, 15:33:23.819, 1578576803819
81, -176694.61, -120489.51, -160506.28, -187500.02, -185603.94, -166127.55, -120214.38, -187500.02, -0.018, -0.014, 0.972, 15:33:23.819, 1578576803819
82, -176696.09, -120489.89, -160507.16, -187500.02, -185605.28, -166128.59, -120214.52, -187500.02, 0.000, 0.000, 0.000, 15:33:23.819, 1578576803819
83, -176696.50, -120489.11, -160506.75, -187500.02, -185605.23, -166128.28, -120213.49, -187500.02, 0.000, 0.000, 0.000, 15:33:23.819, 1578576803819
84, -176694.80, -120486.23, -160504.20, -187500.02, -185603.31, -166125.98, -120210.29, -187500.02, 0.000, 0.000, 0.000, 15:33:23.819, 1578576803819
85, -176693.03, -120483.25, -160501.70, -187500.02, -185601.25, -166123.56, -120207.09, -187500.02, 0.000, 0.000, 0.000, 15:33:23.819, 1578576803819
86, -176689.70, -120478.78, -160497.59, -187500.02, -185597.61, -166119.72, -120202.42, -187500.02, 0.000, 0.000, 0.000, 15:33:23.819, 1578576803819
87, -176687.50, -120475.66, -160494.66, -187500.02, -185595.11, -166116.97, -120198.83, -187500.02, 0.000, 0.000, 0.000, 15:33:23.820, 1578576803820
88, -176688.33, -120475.27, -160494.66, -187500.02, -185595.67, -166117.22, -120198.13, -187500.02, 0.000, 0.000, 0.000, 15:33:23.820, 1578576803820
89, -176688.33, -120474.13, -160493.86, -187500.02, -185595.48, -166116.61, -120196.81, -187500.02, 0.000, 0.000, 0.000, 15:33:23.820, 1578576803820
90, -176686.69, -120471.36, -160491.59, -187500.02, -185593.70, -166114.45, -120193.75, -187500.02, 0.000, 0.000, 0.000, 15:33:24.278, 1578576804278
91, -176687.63, -120471.18, -160491.83, -187500.02, -185594.39, -166114.78, -120193.28, -187500.02, -0.018, -0.016, 0.970, 15:33:24.278, 1578576804278
92, -176687.45, -120469.93, -160490.95, -187500.02, -185593.97, -166114.11, -120191.79, -187500.02, 0.000, 0.000, 0.000, 15:33:24.279, 1578576804279
93, -176688.17, -120469.59, -160490.86, -187500.02, -185594.48, -166114.22, -120191.02, -187500.02, 0.000, 0.000, 0.000, 15:33:24.279, 1578576804279
94, -176689.80, -120470.18, -160491.75, -187500.02, -185595.80, -166115.28, -120191.27, -187500.02, 0.000, 0.000, 0.000, 15:33:24.279, 1578576804279
95, -176689.08, -120468.37, -160490.33, -187500.02, -185594.91, -166113.94, -120189.28, -187500.02, 0.000, 0.000, 0.000, 15:33:24.279, 1578576804279
96, -176688.28, -120466.48, -160488.84, -187500.02, -185593.84, -166112.61, -120187.07, -187500.02, 0.000, 0.000, 0.000, 15:33:24.279, 1578576804279
97, -176686.83, -120463.88, -160486.48, -187500.02, -185591.98, -166110.48, -120184.09, -187500.02, 0.000, 0.000, 0.000, 15:33:24.279, 1578576804279
98, -176685.22, -120461.21, -160484.22, -187500.02, -185590.22, -166108.34, -120181.13, -187500.02, 0.000, 0.000, 0.000, 15:33:24.279, 1578576804279
99, -176685.45, -120460.43, -160483.78, -187500.02, -185590.19, -166107.94, -120179.96, -187500.02, 0.000, 0.000, 0.000, 15:33:24.279, 1578576804279
100, -176683.98, -120457.73, -160481.41, -187500.02, -185588.38, -166105.80, -120176.97, -187500.02, 0.000, 0.000, 0.000, 15:33:24.280, 1578576804280
101, -176684.23, -120456.81, -160480.88, -187500.02, -185588.45, -166105.53, -120175.80, -187500.02, -0.022, -0.022, 0.968, 15:33:24.280, 1578576804280
102, -176682.69, -120454.30, -160478.75, -187500.02, -185586.77, -166103.56, -120172.90, -187500.02, 0.000, 0.000, 0.000, 15:33:24.280, 1578576804280
103, -176681.03, -120451.47, -160476.28, -187500.02, -185584.81, -166101.38, -120169.77, -187500.02, 0.000, 0.000, 0.000, 15:33:24.280, 1578576804280
104, -176679.61, -120448.90, -160474.17, -187500.02, -185583.16, -166099.42, -120166.98, -187500.02, 0.000, 0.000, 0.000, 15:33:24.280, 1578576804280
105, -176678.03, -120446.35, -160471.92, -187500.02, -185581.36, -166097.34, -120164.07, -187500.02, 0.000, 0.000, 0.000, 15:33:24.280, 1578576804280
106, -176679.11, -120446.22, -160472.17, -187500.02, -185582.08, -166097.70, -120163.73, -187500.02, 0.000, 0.000, 0.000, 15:33:24.280, 1578576804280
107, -176678.22, -120444.43, -160470.61, -187500.02, -185580.97, -166096.28, -120161.50, -187500.02, 0.000, 0.000, 0.000, 15:33:24.280, 1578576804280
108, -176678.83, -120443.82, -160470.30, -187500.02, -185581.19, -166096.23, -120160.59, -187500.02, 0.000, 0.000, 0.000, 15:33:24.280, 1578576804280
109, -176678.16, -120441.97, -160468.83, -187500.02, -185580.25, -166094.89, -120158.44, -187500.02, 0.000, 0.000, 0.000, 15:33:24.281, 1578576804281
110, -176679.33, -120442.02, -160469.22, -187500.02, -185581.05, -166095.42, -120158.23, -187500.02, 0.000, 0.000, 0.000, 15:33:24.281, 1578576804281
111, -176677.44, -120438.93, -160466.50, -187500.02, -185578.81, -166092.88, -120154.81, -187500.02, -0.026, -0.022, 0.966, 15:33:24.281, 1578576804281
112, -176676.72, -120437.27, -160465.14, -187500.02, -185577.94, -166091.66, -120152.83, -187500.02, 0.000, 0.000, 0.000, 15:33:24.281, 1578576804281
113, -176677.34, -120436.88, -160465.09, -187500.02, -185578.41, -166091.78, -120152.11, -187500.02, 0.000, 0.000, 0.000, 15:33:24.281, 1578576804281
114, -176679.16, -120437.52, -160466.13, -187500.02, -185579.86, -166093.02, -120152.45, -187500.02, 0.000, 0.000, 0.000, 15:33:24.281, 1578576804281
115, -176677.77, -120434.97, -160464.00, -187500.02, -185578.28, -166091.14, -120149.72, -187500.02, 0.000, 0.000, 0.000, 15:33:24.281, 1578576804281
116, -176677.06, -120433.25, -160462.63, -187500.02, -185577.34, -166089.84, -120147.59, -187500.02, 0.000, 0.000, 0.000, 15:33:24.281, 1578576804281
117, -176676.03, -120431.10, -160460.84, -187500.02, -185576.16, -166088.19, -120145.14, -187500.02, 0.000, 0.000, 0.000, 15:33:24.281, 1578576804281
118, -176673.41, -120427.30, -160457.56, -187500.02, -185573.20, -166085.06, -120141.12, -187500.02, 0.000, 0.000, 0.000, 15:33:24.281, 1578576804281
119, -176673.59, -120426.34, -160457.00, -187500.02, -185573.16, -166084.61, -120139.88, -187500.02, 0.000, 0.000, 0.000, 15:33:24.281, 1578576804281
120, -176675.36, -120427.10, -160458.05, -187500.02, -185574.75, -166085.84, -120140.33, -187500.02, -0.020, -0.016, 0.974, 15:33:24.281, 1578576804281
121, -176672.45, -120423.13, -160454.31, -187500.02, -185571.50, -166082.44, -120135.99, -187500.02, 0.000, 0.000, 0.000, 15:33:24.282, 1578576804282
122, -176671.52, -120421.05, -160452.66, -187500.02, -185570.33, -166080.81, -120133.56, -187500.02, 0.000, 0.000, 0.000, 15:33:24.282, 1578576804282
123, -176670.50, -120418.74, -160450.86, -187500.02, -185569.00, -166079.11, -120131.15, -187500.02, 0.000, 0.000, 0.000, 15:33:24.282, 1578576804282
124, -176668.72, -120415.98, -160448.39, -187500.02, -185567.06, -166076.81, -120127.93, -187500.02, 0.000, 0.000, 0.000, 15:33:24.282, 1578576804282
125, -176669.14, -120415.33, -160448.11, -187500.02, -185567.27, -166076.70, -120126.97, -187500.02, 0.000, 0.000, 0.000, 15:33:24.282, 1578576804282
126, -176669.39, -120414.37, -160447.56, -187500.02, -185567.17, -166076.36, -120125.73, -187500.02, 0.000, 0.000, 0.000, 15:33:24.282, 1578576804282
127, -176668.05, -120411.95, -160445.47, -187500.02, -185565.50, -166074.34, -120122.96, -187500.02, 0.000, 0.000, 0.000, 15:33:24.282, 1578576804282
128, -176667.47, -120410.27, -160444.17, -187500.02, -185564.64, -166073.19, -120121.00, -187500.02, 0.000, 0.000, 0.000, 15:33:24.282, 1578576804282
129, -176668.22, -120409.94, -160444.11, -187500.02, -185565.20, -166073.39, -120120.39, -187500.02, 0.000, 0.000, 0.000, 15:33:24.282, 1578576804282
130, -176667.72, -120408.24, -160442.81, -187500.02, -185564.42, -166072.22, -120118.49, -187500.02, -0.016, -0.014, 0.978, 15:33:24.282, 1578576804282
131, -176665.56, -120405.09, -160439.94, -187500.02, -185562.13, -166069.66, -120114.98, -187500.02, 0.000, 0.000, 0.000, 15:33:24.282, 1578576804282
132, -176664.58, -120403.08, -160438.33, -187500.02, -185560.89, -166068.14, -120112.62, -187500.02, 0.000, 0.000, 0.000, 15:33:24.283, 1578576804283
133, -176666.23, -120403.57, -160439.25, -187500.02, -185562.25, -166069.20, -120112.88, -187500.02, 0.000, 0.000, 0.000, 15:33:24.283, 1578576804283
134, -176663.41, -120399.59, -160435.56, -187500.02, -185559.13, -166065.72, -120108.62, -187500.02, 0.000, 0.000, 0.000, 15:33:24.283, 1578576804283
135, -176662.27, -120397.31, -160433.70, -187500.02, -185557.66, -166063.98, -120106.00, -187500.02, 0.000, 0.000, 0.000, 15:33:24.283, 1578576804283
136, -176663.16, -120397.06, -160433.91, -187500.02, -185558.39, -166064.27, -120105.53, -187500.02, 0.000, 0.000, 0.000, 15:33:24.283, 1578576804283
137, -176662.33, -120395.25, -160432.34, -187500.02, -185557.31, -166062.89, -120103.34, -187500.02, 0.000, 0.000, 0.000, 15:33:24.283, 1578576804283
138, -176659.44, -120391.23, -160428.64, -187500.02, -185554.14, -166059.52, -120098.91, -187500.02, 0.000, 0.000, 0.000, 15:33:24.283, 1578576804283
139, -176656.48, -120387.19, -160425.02, -187500.02, -185550.94, -166055.94, -120094.53, -187500.02, 0.000, 0.000, 0.000, 15:33:24.283, 1578576804283
140, -176656.05, -120385.58, -160423.77, -187500.02, -185550.16, -166054.75, -120092.63, -187500.02, -0.020, -0.014, 0.974, 15:33:24.283, 1578576804283
141, -176657.70, -120386.07, -160424.59, -187500.02, -185551.48, -166055.75, -120092.84, -187500.02, 0.000, 0.000, 0.000, 15:33:24.283, 1578576804283
142, -176659.58, -120386.85, -160425.75, -187500.02, -185553.09, -166057.19, -120093.37, -187500.02, 0.000, 0.000, 0.000, 15:33:24.283, 1578576804283
143, -176657.88, -120384.10, -160423.36, -187500.02, -185551.30, -166054.88, -120090.30, -187500.02, 0.000, 0.000, 0.000, 15:33:24.283, 1578576804283
144, -176658.25, -120383.52, -160423.00, -187500.02, -185551.34, -166054.77, -120089.37, -187500.02, 0.000, 0.000, 0.000, 15:33:24.284, 1578576804284
145, -176656.98, -120381.06, -160420.83, -187500.02, -185549.78, -166052.88, -120086.62, -187500.02, 0.000, 0.000, 0.000, 15:33:24.284, 1578576804284
146, -176657.25, -120380.26, -160420.36, -187500.02, -185549.78, -166052.53, -120085.50, -187500.02, 0.000, 0.000, 0.000, 15:33:24.284, 1578576804284
147, -176657.81, -120379.77, -160420.23, -187500.02, -185550.19, -166052.58, -120084.67, -187500.02, 0.000, 0.000, 0.000, 15:33:24.284, 1578576804284
148, -176656.81, -120377.59, -160418.48, -187500.02, -185548.91, -166050.88, -120082.20, -187500.02, 0.000, 0.000, 0.000, 15:33:24.284, 1578576804284
149, -176657.16, -120376.88, -160418.16, -187500.02, -185549.02, -166050.61, -120081.26, -187500.02, 0.000, 0.000, 0.000, 15:33:24.284, 1578576804284
150, -176657.92, -120376.48, -160418.08, -187500.02, -185549.36, -166050.80, -120080.52, -187500.02, -0.016, -0.012, 0.976, 15:33:24.284, 1578576804284
151, -176658.75, -120376.21, -160418.16, -187500.02, -185549.98, -166051.06, -120079.87, -187500.02, 0.000, 0.000, 0.000, 15:33:24.284, 1578576804284
152, -176657.50, -120373.75, -160416.13, -187500.02, -185548.55, -166049.22, -120077.23, -187500.02, 0.000, 0.000, 0.000, 15:33:24.284, 1578576804284
153, -176654.56, -120369.75, -160412.31, -187500.02, -185545.31, -166045.67, -120072.83, -187500.02, 0.000, 0.000, 0.000, 15:33:24.284, 1578576804284
154, -176654.23, -120368.38, -160411.33, -187500.02, -185544.69, -166044.94, -120071.20, -187500.02, 0.000, 0.000, 0.000, 15:33:24.285, 1578576804285
155, -176653.45, -120366.45, -160409.80, -187500.02, -185543.52, -166043.55, -120068.91, -187500.02, 0.000, 0.000, 0.000, 15:33:24.285, 1578576804285
156, -176651.17, -120363.20, -160406.84, -187500.02, -185541.06, -166040.73, -120065.27, -187500.02, 0.000, 0.000, 0.000, 15:33:24.285, 1578576804285
157, -176649.09, -120359.94, -160404.03, -187500.02, -185538.72, -166038.08, -120061.72, -187500.02, 0.000, 0.000, 0.000, 15:33:24.285, 1578576804285
158, -176648.20, -120357.93, -160402.44, -187500.02, -185537.59, -166036.52, -120059.42, -187500.02, 0.000, 0.000, 0.000, 15:33:24.285, 1578576804285
159, -176646.92, -120355.47, -160400.41, -187500.02, -185536.02, -166034.67, -120056.67, -187500.02, -0.018, -0.016, 0.976, 15:33:24.285, 1578576804285
160, -176648.38, -120355.87, -160401.03, -187500.02, -185537.11, -166035.55, -120056.67, -187500.02, 0.000, 0.000, 0.000, 15:33:24.285, 1578576804285
161, -176649.66, -120356.16, -160401.67, -187500.02, -185538.36, -166036.33, -120056.76, -187500.02, 0.000, 0.000, 0.000, 15:33:24.285, 1578576804285
162, -176647.80, -120353.21, -160399.05, -187500.02, -185536.22, -166033.92, -120053.43, -187500.02, 0.000, 0.000, 0.000, 15:33:24.285, 1578576804285
163, -176645.39, -120349.70, -160395.91, -187500.02, -185533.44, -166030.89, -120049.47, -187500.02, 0.000, 0.000, 0.000, 15:33:24.285, 1578576804285
164, -176644.94, -120348.12, -160394.69, -187500.02, -185532.69, -166029.80, -120047.68, -187500.02, 0.000, 0.000, 0.000, 15:33:24.286, 1578576804286
165, -176646.19, -120348.25, -160395.22, -187500.02, -185533.59, -166030.41, -120047.52, -187500.02, 0.000, 0.000, 0.000, 15:33:24.286, 1578576804286
166, -176645.20, -120346.05, -160393.30, -187500.02, -185532.33, -166028.89, -120045.05, -187500.02, 0.000, 0.000, 0.000, 15:33:24.286, 1578576804286
167, -176644.67, -120344.56, -160392.09, -187500.02, -185531.67, -166027.88, -120043.19, -187500.02, 0.000, 0.000, 0.000, 15:33:24.286, 1578576804286
168, -176643.89, -120342.66, -160390.59, -187500.02, -185530.69, -166026.52, -120041.07, -187500.02, 0.000, 0.000, 0.000, 15:33:24.286, 1578576804286
169, -176645.03, -120342.73, -160391.00, -187500.02, -185531.47, -166027.03, -120040.84, -187500.02, -0.020, -0.020, 0.976, 15:33:24.286, 1578576804286
170, -176646.45, -120343.06, -160391.67, -187500.02, -185532.64, -166027.95, -120040.84, -187500.02, 0.000, 0.000, 0.000, 15:33:24.286, 1578576804286
171, -176645.97, -120341.38, -160390.41, -187500.02, -185531.98, -166026.78, -120038.88, -187500.02, 0.000, 0.000, 0.000, 15:33:24.286, 1578576804286
172, -176643.03, -120337.32, -160386.66, -187500.02, -185528.70, -166023.25, -120034.56, -187500.02, 0.000, 0.000, 0.000, 15:33:24.286, 1578576804286
173, -176642.13, -120335.24, -160384.98, -187500.02, -185527.59, -166021.84, -120032.26, -187500.02, 0.000, 0.000, 0.000, 15:33:24.286, 1578576804286
174, -176642.70, -120334.68, -160384.95, -187500.02, -185527.91, -166021.78, -120031.28, -187500.02, 0.000, 0.000, 0.000, 15:33:24.286, 1578576804286
175, -176642.88, -120333.88, -160384.42, -187500.02, -185527.88, -166021.44, -120030.07, -187500.02, 0.000, 0.000, 0.000, 15:33:24.287, 1578576804287
176, -176641.78, -120331.64, -160382.55, -187500.02, -185526.45, -166019.67, -120027.55, -187500.02, 0.000, 0.000, 0.000, 15:33:24.287, 1578576804287
177, -176641.34, -120330.05, -160381.31, -187500.02, -185525.75, -166018.72, -120025.78, -187500.02, 0.000, 0.000, 0.000, 15:33:24.287, 1578576804287
178, -176643.30, -120330.86, -160382.50, -187500.02, -185527.41, -166020.02, -120026.34, -187500.02, 0.000, 0.000, 0.000, 15:33:24.287, 1578576804287
179, -176643.84, -120330.43, -160382.28, -187500.02, -185527.75, -166020.03, -120025.55, -187500.02, -0.020, -0.018, 0.974, 15:33:24.287, 1578576804287
180, -176643.59, -120329.14, -160381.31, -187500.02, -185527.20, -166019.19, -120023.88, -187500.02, 0.000, 0.000, 0.000, 15:33:24.288, 1578576804288
181, -176640.69, -120325.02, -160377.58, -187500.02, -185523.88, -166015.56, -120019.38, -187500.02, 0.000, 0.000, 0.000, 15:33:24.288, 1578576804288
182, -176637.94, -120321.13, -160374.13, -187500.02, -185520.95, -166012.23, -120015.14, -187500.02, 0.000, 0.000, 0.000, 15:33:24.289, 1578576804289
183, -176636.53, -120318.56, -160371.95, -187500.02, -185519.39, -166010.30, -120012.39, -187500.02, 0.000, 0.000, 0.000, 15:33:24.289, 1578576804289
184, -176632.59, -120313.63, -160367.30, -187500.02, -185515.11, -166005.89, -120007.18, -187500.02, 0.000, 0.000, 0.000, 15:33:24.289, 1578576804289
185, -176633.64, -120313.54, -160367.64, -187500.02, -185515.92, -166006.33, -120006.87, -187500.02, 0.000, 0.000, 0.000, 15:33:24.289, 1578576804289
186, -176634.66, -120313.49, -160367.88, -187500.02, -185516.70, -166006.75, -120006.51, -187500.02, 0.000, 0.000, 0.000, 15:33:24.289, 1578576804289
187, -176634.36, -120312.13, -160366.88, -187500.02, -185516.17, -166005.89, -120004.74, -187500.02, 0.000, 0.000, 0.000, 15:33:24.289, 1578576804289
188, -176632.98, -120309.73, -160364.80, -187500.02, -185514.48, -166003.92, -120001.95, -187500.02, 0.000, 0.000, 0.000, 15:33:24.289, 1578576804289
189, -176633.17, -120308.71, -160364.13, -187500.02, -185514.38, -166003.42, -120000.66, -187500.02, -0.020, -0.018, 0.972, 15:33:24.289, 1578576804289
190, -176633.98, -120308.30, -160364.13, -187500.02, -185515.00, -166003.56, -119999.96, -187500.02, 0.000, 0.000, 0.000, 15:33:24.289, 1578576804289
191, -176632.42, -120305.66, -160361.83, -187500.02, -185513.19, -166001.45, -119997.03, -187500.02, 0.000, 0.000, 0.000, 15:33:24.289, 1578576804289
192, -176629.16, -120301.31, -160357.80, -187500.02, -185509.61, -165997.69, -119992.30, -187500.02, 0.000, 0.000, 0.000, 15:33:24.290, 1578576804290
193, -176627.30, -120298.45, -160355.28, -187500.02, -185507.52, -165995.30, -119989.19, -187500.02, 0.000, 0.000, 0.000, 15:33:24.290, 1578576804290
194, -176627.19, -120297.27, -160354.45, -187500.02, -185507.20, -165994.64, -119987.71, -187500.02, 0.000, 0.000, 0.000, 15:33:24.290, 1578576804290
195, -176626.19, -120295.05, -160352.66, -187500.02, -185505.84, -165992.97, -119985.23, -187500.02, 0.000, 0.000, 0.000, 15:33:24.290, 1578576804290
196, -176624.91, -120292.59, -160350.56, -187500.02, -185504.20, -165991.00, -119982.46, -187500.02, 0.000, 0.000, 0.000, 15:33:24.290, 1578576804290
197, -176626.98, -120293.55, -160352.02, -187500.02, -185506.11, -165992.52, -119983.20, -187500.02, 0.000, 0.000, 0.000, 15:33:24.290, 1578576804290
198, -176628.33, -120293.80, -160352.64, -187500.02, -185507.16, -165993.34, -119983.06, -187500.02, -0.020, -0.018, 0.974, 15:33:24.290, 1578576804290
199, -176627.70, -120292.01, -160351.20, -187500.02, -185506.27, -165992.09, -119981.08, -187500.02, 0.000, 0.000, 0.000, 15:33:24.290, 1578576804290
200, -176626.16, -120289.33, -160348.84, -187500.02, -185504.42, -165989.84, -119978.04, -187500.02, 0.000, 0.000, 0.000, 15:33:24.291, 1578576804291
201, -176625.17, -120287.32, -160347.16, -187500.02, -185503.25, -165988.31, -119975.69, -187500.02, 0.000, 0.000, 0.000, 15:33:24.291, 1578576804291
202, -176624.80, -120285.88, -160346.06, -187500.02, -185502.53, -165987.38, -119973.90, -187500.02, 0.000, 0.000, 0.000, 15:33:24.291, 1578576804291
203, -176622.63, -120282.58, -160343.16, -187500.02, -185500.08, -165984.56, -119970.30, -187500.02, 0.000, 0.000, 0.000, 15:33:24.291, 1578576804291
204, -176622.41, -120281.28, -160342.17, -187500.02, -185499.61, -165983.83, -119968.72, -187500.02, 0.000, 0.000, 0.000, 15:33:24.291, 1578576804291
205, -176621.16, -120278.87, -160340.14, -187500.02, -185498.06, -165981.95, -119966.01, -187500.02, 0.000, 0.000, 0.000, 15:33:24.291, 1578576804291
206, -176619.33, -120276.01, -160337.59, -187500.02, -185496.03, -165979.58, -119962.84, -187500.02, 0.000, 0.000, 0.000, 15:33:24.291, 1578576804291
207, -176619.33, -120274.82, -160336.86, -187500.02, -185495.80, -165979.00, -119961.43, -187500.02, 0.000, 0.000, 0.000, 15:33:24.291, 1578576804291
208, -176619.64, -120273.81, -160336.36, -187500.02, -185495.78, -165978.64, -119960.18, -187500.02, -0.018, -0.020, 0.976, 15:33:24.291, 1578576804291
209, -176618.25, -120271.38, -160334.22, -187500.02, -185494.06, -165976.67, -119957.47, -187500.02, 0.000, 0.000, 0.000, 15:33:24.291, 1578576804291
210, -176618.92, -120271.07, -160334.20, -187500.02, -185494.53, -165976.78, -119956.80, -187500.02, 0.000, 0.000, 0.000, 15:33:24.759, 1578576804759
211, -176619.03, -120270.13, -160333.66, -187500.02, -185494.48, -165976.31, -119955.57, -187500.02, 0.000, 0.000, 0.000, 15:33:24.759, 1578576804759
212, -176616.59, -120266.51, -160330.38, -187500.02, -185491.73, -165973.36, -119951.64, -187500.02, 0.000, 0.000, 0.000, 15:33:24.759, 1578576804759
213, -176615.47, -120264.16, -160328.47, -187500.02, -185490.34, -165971.58, -119949.05, -187500.02, 0.000, 0.000, 0.000, 15:33:24.759, 1578576804759
214, -176617.48, -120265.13, -160329.70, -187500.02, -185492.05, -165973.08, -119949.63, -187500.02, 0.000, 0.000, 0.000, 15:33:24.760, 1578576804760
215, -176618.83, -120265.37, -160330.31, -187500.02, -185493.13, -165973.91, -119949.67, -187500.02, 0.000, 0.000, 0.000, 15:33:24.760, 1578576804760
216, -176619.50, -120264.88, -160330.22, -187500.02, -185493.48, -165973.91, -119948.84, -187500.02, 0.000, 0.000, 0.000, 15:33:24.760, 1578576804760
217, -176618.77, -120263.16, -160328.77, -187500.02, -185492.67, -165972.66, -119946.77, -187500.02, 0.000, 0.000, 0.000, 15:33:24.760, 1578576804760
218, -176619.41, -120262.64, -160328.50, -187500.02, -185493.02, -165972.67, -119945.96, -187500.02, -0.022, -0.020, 0.976, 15:33:24.760, 1578576804760
219, -176619.75, -120261.92, -160328.09, -187500.02, -185493.03, -165972.42, -119944.87, -187500.02, 0.000, 0.000, 0.000, 15:33:24.760, 1578576804760
220, -176620.38, -120261.41, -160328.03, -187500.02, -185493.45, -165972.58, -119944.15, -187500.02, 0.000, 0.000, 0.000, 15:33:24.760, 1578576804760
221, -176619.33, -120259.18, -160326.22, -187500.02, -185492.11, -165970.91, -119941.60, -187500.02, 0.000, 0.000, 0.000, 15:33:24.761, 1578576804761
222, -176620.80, -120259.63, -160327.00, -187500.02, -185493.36, -165971.80, -119941.71, -187500.02, 0.000, 0.000, 0.000, 15:33:24.761, 1578576804761
223, -176619.80, -120257.43, -160325.19, -187500.02, -185492.09, -165970.25, -119939.23, -187500.02, 0.000, 0.000, 0.000, 15:33:24.761, 1578576804761
224, -176618.84, -120255.47, -160323.58, -187500.02, -185490.91, -165968.80, -119937.02, -187500.02, 0.000, 0.000, 0.000, 15:33:24.761, 1578576804761
225, -176616.06, -120251.71, -160320.09, -187500.02, -185488.05, -165965.55, -119932.91, -187500.02, 0.000, 0.000, 0.000, 15:33:24.761, 1578576804761
226, -176614.19, -120248.72, -160317.55, -187500.02, -185485.92, -165963.06, -119929.63, -187500.02, 0.000, 0.000, 0.000, 15:33:24.761, 1578576804761
227, -176611.16, -120244.36, -160313.56, -187500.02, -185482.50, -165959.33, -119925.02, -187500.02, 0.000, 0.000, 0.000, 15:33:24.761, 1578576804761
228, -176609.16, -120241.27, -160310.75, -187500.02, -185480.27, -165956.69, -119921.62, -187500.02, -0.018, -0.026, 0.976, 15:33:24.761, 1578576804761
229, -176606.52, -120237.56, -160307.42, -187500.02, -185477.31, -165953.53, -119917.51, -187500.02, 0.000, 0.000, 0.000, 15:33:24.761, 1578576804761
230, -176606.17, -120236.22, -160306.53, -187500.02, -185476.78, -165952.78, -119915.88, -187500.02, 0.000, 0.000, 0.000, 15:33:24.762, 1578576804762
231, -176607.70, -120236.73, -160307.38, -187500.02, -185478.05, -165953.73, -119916.13, -187500.02, 0.000, 0.000, 0.000, 15:33:24.762, 1578576804762
232, -176607.50, -120235.33, -160306.42, -187500.02, -185477.52, -165952.94, -119914.55, -187500.02, 0.000, 0.000, 0.000, 15:33:24.762, 1578576804762
233, -176606.14, -120232.96, -160304.30, -187500.02, -185475.97, -165951.02, -119911.77, -187500.02, 0.000, 0.000, 0.000, 15:33:24.762, 1578576804762
234, -176603.09, -120228.80, -160300.45, -187500.02, -185472.63, -165947.34, -119907.31, -187500.02, 0.000, 0.000, 0.000, 15:33:24.762, 1578576804762
235, -176600.25, -120224.76, -160296.78, -187500.02, -185469.45, -165943.88, -119902.98, -187500.02, 0.000, 0.000, 0.000, 15:33:24.763, 1578576804763
236, -176600.84, -120224.20, -160296.58, -187500.02, -185469.73, -165943.81, -119902.02, -187500.02, 0.000, 0.000, 0.000, 15:33:24.763, 1578576804763
237, -176600.17, -120222.59, -160295.28, -187500.02, -185468.88, -165942.67, -119900.03, -187500.02, -0.024, -0.022, 0.976, 15:33:24.763, 1578576804763
238, -176599.05, -120220.38, -160293.55, -187500.02, -185467.53, -165941.14, -119897.52, -187500.02, 0.000, 0.000, 0.000, 15:33:24.763, 1578576804763
239, -176599.81, -120219.99, -160293.47, -187500.02, -185468.06, -165941.20, -119896.88, -187500.02, 0.000, 0.000, 0.000, 15:33:24.764, 1578576804764
240, -176599.98, -120219.08, -160292.95, -187500.02, -185468.05, -165940.80, -119895.63, -187500.02, 0.000, 0.000, 0.000, 15:33:24.764, 1578576804764
241, -176599.94, -120217.87, -160292.00, -187500.02, -185467.53, -165940.08, -119894.17, -187500.02, 0.000, 0.000, 0.000, 15:33:24.764, 1578576804764
242, -176596.56, -120213.40, -160287.86, -187500.02, -185463.89, -165936.19, -119889.37, -187500.02, 0.000, 0.000, 0.000, 15:33:24.764, 1578576804764
243, -176597.08, -120212.80, -160287.58, -187500.02, -185464.27, -165936.13, -119888.45, -187500.02, 0.000, 0.000, 0.000, 15:33:24.764, 1578576804764
244, -176598.59, -120213.18, -160288.44, -187500.02, -185465.52, -165937.02, -119888.59, -187500.02, 0.000, 0.000, 0.000, 15:33:24.764, 1578576804764
245, -176597.02, -120210.45, -160286.17, -187500.02, -185463.58, -165934.89, -119885.68, -187500.02, 0.000, 0.000, 0.000, 15:33:24.764, 1578576804764
246, -176596.13, -120208.46, -160284.52, -187500.02, -185462.41, -165933.48, -119883.35, -187500.02, 0.000, 0.000, 0.000, 15:33:24.764, 1578576804764
247, -176596.80, -120208.03, -160284.31, -187500.02, -185462.78, -165933.47, -119882.55, -187500.02, -0.020, -0.020, 0.972, 15:33:24.765, 1578576804765
248, -176596.09, -120206.27, -160282.86, -187500.02, -185461.83, -165932.23, -119880.42, -187500.02, 0.000, 0.000, 0.000, 15:33:24.765, 1578576804765
249, -176595.25, -120204.33, -160281.36, -187500.02, -185460.73, -165930.88, -119878.13, -187500.02, 0.000, 0.000, 0.000, 15:33:24.765, 1578576804765
250, -176595.30, -120203.30, -160280.75, -187500.02, -185460.69, -165930.42, -119876.91, -187500.02, 0.000, 0.000, 0.000, 15:33:24.765, 1578576804765
251, -176593.17, -120200.01, -160277.89, -187500.02, -185458.39, -165927.72, -119873.36, -187500.02, 0.000, 0.000, 0.000, 15:33:24.765, 1578576804765
252, -176591.27, -120196.99, -160275.14, -187500.02, -185456.16, -165925.28, -119869.92, -187500.02, 0.000, 0.000, 0.000, 15:33:24.765, 1578576804765
253, -176593.06, -120197.75, -160276.06, -187500.02, -185457.58, -165926.38, -119870.30, -187500.02, 0.000, 0.000, 0.000, 15:33:24.765, 1578576804765
254, -176592.98, -120196.59, -160275.23, -187500.02, -185457.16, -165925.73, -119868.83, -187500.02, 0.000, 0.000, 0.000, 15:33:24.765, 1578576804765
255, -176591.89, -120194.42, -160273.53, -187500.02, -185455.95, -165924.13, -119866.43, -187500.02, 0.000, 0.000, 0.000, 15:33:24.765, 1578576804765
0, -176590.70, -120192.08, -160271.64, -187500.02, -185454.58, -165922.33, -119863.75, -187500.02, 0.000, 0.000, 0.000, 15:33:24.766, 1578576804766
1, -176589.08, -120189.28, -160269.13, -187500.02, -185452.69, -165920.09, -119860.76, -187500.02, -0.014, -0.012, 0.974, 15:33:24.766, 1578576804766
2, -176587.88, -120186.87, -160267.19, -187500.02, -185451.13, -165918.33, -119858.14, -187500.02, 0.000, 0.000, 0.000, 15:33:24.766, 1578576804766
3, -176587.58, -120185.55, -160266.30, -187500.02, -185450.61, -165917.48, -119856.48, -187500.02, 0.000, 0.000, 0.000, 15:33:24.766, 1578576804766
4, -176587.52, -120184.37, -160265.42, -187500.02, -185450.31, -165916.97, -119855.01, -187500.02, 0.000, 0.000, 0.000, 15:33:24.766, 1578576804766
5, -176589.09, -120184.84, -160266.25, -187500.02, -185451.55, -165917.86, -119855.17, -187500.02, 0.000, 0.000, 0.000, 15:33:24.766, 1578576804766
6, -176585.84, -120180.43, -160262.20, -187500.02, -185448.06, -165914.00, -119850.48, -187500.02, 0.000, 0.000, 0.000, 15:33:24.766, 1578576804766
7, -176583.61, -120177.10, -160259.25, -187500.02, -185445.53, -165911.16, -119846.79, -187500.02, 0.000, 0.000, 0.000, 15:33:24.766, 1578576804766
8, -176583.45, -120175.96, -160258.34, -187500.02, -185445.11, -165910.48, -119845.31, -187500.02, 0.000, 0.000, 0.000, 15:33:24.766, 1578576804766
9, -176583.36, -120174.75, -160257.48, -187500.02, -185444.84, -165909.80, -119843.79, -187500.02, 0.000, 0.000, 0.000, 15:33:24.767, 1578576804767
10, -176584.45, -120174.80, -160257.94, -187500.02, -185445.69, -165910.38, -119843.50, -187500.02, 0.000, 0.000, 0.000, 15:33:24.767, 1578576804767
11, -176585.84, -120175.06, -160258.61, -187500.02, -185446.88, -165911.20, -119843.61, -187500.02, -0.016, -0.012, 0.976, 15:33:24.767, 1578576804767
12, -176586.28, -120174.35, -160258.36, -187500.02, -185447.25, -165911.05, -119842.65, -187500.02, 0.000, 0.000, 0.000, 15:33:24.767, 1578576804767
13, -176585.81, -120172.67, -160257.02, -187500.02, -185446.25, -165909.86, -119840.59, -187500.02, 0.000, 0.000, 0.000, 15:33:24.767, 1578576804767
14, -176583.02, -120168.77, -160253.39, -187500.02, -185443.13, -165906.47, -119836.30, -187500.02, 0.000, 0.000, 0.000, 15:33:24.767, 1578576804767
15, -176581.59, -120166.28, -160251.16, -187500.02, -185441.48, -165904.52, -119833.51, -187500.02, 0.000, 0.000, 0.000, 15:33:24.768, 1578576804768
16, -176580.27, -120163.94, -160249.23, -187500.02, -185439.94, -165902.75, -119830.83, -187500.02, 0.000, 0.000, 0.000, 15:33:24.768, 1578576804768
17, -176581.33, -120164.00, -160249.64, -187500.02, -185440.91, -165903.22, -119830.58, -187500.02, 0.000, 0.000, 0.000, 15:33:24.768, 1578576804768
18, -176579.80, -120161.43, -160247.42, -187500.02, -185439.09, -165901.28, -119827.74, -187500.02, 0.000, 0.000, 0.000, 15:33:24.768, 1578576804768
19, -176579.88, -120160.27, -160246.67, -187500.02, -185438.83, -165900.61, -119826.22, -187500.02, 0.000, 0.000, 0.000, 15:33:24.768, 1578576804768
20, -176580.27, -120159.55, -160246.33, -187500.02, -185439.03, -165900.39, -119825.13, -187500.02, -0.014, -0.012, 0.974, 15:33:24.769, 1578576804769
21, -176580.14, -120158.23, -160245.39, -187500.02, -185438.56, -165899.64, -119823.56, -187500.02, 0.000, 0.000, 0.000, 15:33:24.769, 1578576804769
22, -176577.48, -120154.46, -160241.94, -187500.02, -185435.52, -165896.41, -119819.47, -187500.02, 0.000, 0.000, 0.000, 15:33:24.769, 1578576804769
23, -176578.03, -120153.92, -160241.80, -187500.02, -185435.83, -165896.36, -119818.66, -187500.02, 0.000, 0.000, 0.000, 15:33:24.770, 1578576804770
24, -176579.69, -120154.41, -160242.63, -187500.02, -185437.31, -165897.45, -119818.89, -187500.02, 0.000, 0.000, 0.000, 15:33:24.771, 1578576804771
25, -176579.33, -120152.98, -160241.53, -187500.02, -185436.66, -165896.47, -119817.10, -187500.02, 0.000, 0.000, 0.000, 15:33:24.772, 1578576804772
26, -176580.23, -120152.71, -160241.73, -187500.02, -185437.31, -165896.83, -119816.61, -187500.02, 0.000, 0.000, 0.000, 15:33:24.773, 1578576804773
27, -176579.80, -120151.15, -160240.50, -187500.02, -185436.55, -165895.84, -119814.78, -187500.02, 0.000, 0.000, 0.000, 15:33:24.773, 1578576804773
28, -176578.81, -120149.02, -160238.75, -187500.02, -185435.30, -165894.28, -119812.32, -187500.02, 0.000, 0.000, 0.000, 15:33:24.773, 1578576804773
29, -176580.27, -120149.48, -160239.45, -187500.02, -185436.48, -165895.09, -119812.37, -187500.02, 0.000, 0.000, 0.000, 15:33:24.773, 1578576804773
30, -176579.45, -120147.55, -160237.80, -187500.02, -185435.34, -165893.61, -119810.09, -187500.02, -0.018, -0.012, 0.974, 15:33:24.773, 1578576804773
31, -176578.48, -120145.52, -160236.09, -187500.02, -185434.17, -165892.20, -119807.78, -187500.02, 0.000, 0.000, 0.000, 15:33:24.774, 1578576804774
