%OpenBCI Raw EEG Data
%Number of channels = 8
%Sample Rate = 250.0 Hz
%First Column = SampleIndex
%Last Column = Timestamp 
%Other Columns = EEG data in microvolts followed by Accel Data (in G) interleaved with Aux Data
0, -90066.15, -88292.94, -93750.01, -93750.01, -93750.01, -93750.01, -93750.01, -74702.21, -0.028, 0.000, 0.884, 16:32:47.026, 1578580367026
1, -155014.08, -149885.61, -184132.80, -183992.06, -177340.92, -168937.31, -176666.78, -177263.28, 0.000, 0.000, 0.000, 16:32:47.027, 1578580367027
2, -180132.91, -176588.47, -187500.02, -187500.02, -187500.02, -187500.02, -187500.02, -149342.48, 0.000, 0.000, 0.000, 16:32:47.027, 1578580367027
3, -155337.00, -150149.33, -184130.53, -183989.77, -177339.09, -169285.77, -176664.94, -177257.38, 0.000, 0.000, 0.000, 16:32:47.027, 1578580367027
4, -180133.22, -176589.91, -187500.02, -187500.02, -187500.02, -187500.02, -187500.02, -149259.78, 0.000, 0.000, 0.000, 16:32:47.027, 1578580367027
5, -155668.78, -150419.56, -184124.70, -183983.97, -177265.53, -169643.92, -176657.50, -177251.16, 0.000, 0.000, 0.000, 16:32:47.027, 1578580367027
6, -180134.92, -176592.80, -187500.02, -187500.02, -187500.02, -187500.02, -187500.02, -149178.78, -0.016, -0.006, 0.924, 16:32:47.027, 1578580367027
7, -155982.05, -150673.44, -184119.34, -183978.63, -177311.83, -169963.52, -176657.67, -177251.34, 0.000, 0.000, 0.000, 16:32:47.027, 1578580367027
8, -180134.20, -176591.36, -187500.02, -187500.02, -187500.02, -187500.02, -187500.02, -149096.09, 0.000, 0.000, 0.000, 16:32:47.027, 1578580367027
9, -156302.70, -150931.48, -184115.97, -183975.22, -177328.98, -170306.73, -176650.05, -177244.55, 0.000, 0.000, 0.000, 16:32:47.027, 1578580367027
10, -180134.48, -176594.11, -187500.02, -187500.02, -187500.02, -187500.02, -187500.02, -149014.41, 0.000, 0.000, 0.000, 16:32:47.027, 1578580367027
11, -156629.84, -151197.88, -184110.42, -183969.63, -177253.16, -170666.50, -176645.06, -177237.89, 0.000, 0.000, 0.000, 16:32:47.027, 1578580367027
12, -180136.48, -176598.73, -187500.02, -187500.02, -187500.02, -187500.02, -187500.02, -148934.63, 0.000, 0.000, 0.000, 16:32:47.027, 1578580367027
13, -156945.05, -151451.95, -184108.52, -183967.84, -177293.94, -170992.31, -176646.72, -177238.70, 0.000, 0.000, 0.000, 16:32:47.027, 1578580367027
14, -180136.53, -176596.83, -187500.02, -187500.02, -187500.02, -187500.02, -187500.02, -148854.03, 0.000, 0.000, 0.000, 16:32:47.028, 1578580367028
15, -157267.38, -151713.59, -184102.03, -183961.38, -177321.19, -171334.50, -176638.34, -177230.66, 0.000, 0.000, 0.000, 16:32:47.028, 1578580367028
16, -180138.42, -176601.08, -187500.02, -187500.02, -187500.02, -187500.02, -187500.02, -148774.92, -0.008, -0.014, 0.956, 16:32:47.028, 1578580367028
17, -157593.52, -151975.09, -184100.42, -183959.75, -177241.48, -171689.47, -176637.42, -177228.70, 0.000, 0.000, 0.000, 16:32:47.028, 1578580367028
18, -180141.05, -176606.89, -187500.02, -187500.02, -187500.02, -187500.02, -187500.02, -148696.98, 0.000, 0.000, 0.000, 16:32:47.028, 1578580367028
19, -157908.08, -152225.08, -184097.81, -183957.20, -177289.06, -172015.02, -176634.97, -177228.83, 0.000, 0.000, 0.000, 16:32:47.028, 1578580367028
20, -180140.38, -176609.00, -187500.02, -187500.02, -187500.02, -187500.02, -187500.02, -148616.41, 0.000, 0.000, 0.000, 16:32:47.028, 1578580367028
21, -158238.63, -152488.78, -184092.67, -183951.92, -177303.48, -172365.58, -176626.56, -177221.30, 0.000, 0.000, 0.000, 16:32:47.028, 1578580367028
22, -180140.95, -176607.88, -187500.02, -187500.02, -187500.02, -187500.02, -187500.02, -148537.94, 0.000, 0.000, 0.000, 16:32:47.028, 1578580367028
23, -158566.63, -152753.72, -184087.86, -183947.11, -177226.38, -172724.47, -176623.48, -177216.41, 0.000, 0.000, 0.000, 16:32:47.028, 1578580367028
24, -180143.98, -176610.20, -187500.02, -187500.02, -187500.02, -187500.02, -187500.02, -148462.09, 0.000, 0.000, 0.000, 16:32:47.028, 1578580367028
25, -158876.66, -153005.11, -184082.95, -183942.25, -177261.23, -173046.19, -176619.39, -177212.72, 0.000, 0.000, 0.000, 16:32:47.028, 1578580367028
26, -180142.47, -176606.58, -187500.02, -187500.02, -187500.02, -187500.02, -187500.02, -148381.64, -0.008, -0.016, 0.962, 16:32:47.028, 1578580367028
27, -159196.63, -153263.16, -184079.42, -183938.72, -177294.95, -173389.34, -176614.27, -177207.50, 0.000, 0.000, 0.000, 16:32:47.028, 1578580367028
28, -180145.11, -176610.94, -187500.02, -187500.02, -187500.02, -187500.02, -187500.02, -148305.36, 0.000, 0.000, 0.000, 16:32:47.028, 1578580367028
29, -159527.05, -153530.59, -184076.02, -183935.22, -177219.98, -173751.19, -176610.97, -177206.80, 0.000, 0.000, 0.000, 16:32:47.028, 1578580367028
30, -180145.52, -176614.98, -187500.02, -187500.02, -187500.02, -187500.02, -187500.02, -148227.20, 0.000, 0.000, 0.000, 16:32:47.028, 1578580367028
31, -159839.63, -153782.33, -184070.77, -183930.20, -177257.39, -174077.69, -176606.98, -177202.55, 0.000, 0.000, 0.000, 16:32:47.028, 1578580367028
32, -180145.23, -176612.09, -187500.02, -187500.02, -187500.02, -187500.02, -187500.02, -148149.25, 0.000, 0.000, 0.000, 16:32:47.028, 1578580367028
33, -160157.33, -154035.91, -184066.66, -183926.08, -177277.45, -174425.03, -176604.09, -177195.11, 0.000, 0.000, 0.000, 16:32:47.029, 1578580367029
34, -180146.09, -176616.58, -187500.02, -187500.02, -187500.02, -187500.02, -187500.02, -148072.30, 0.000, 0.000, 0.000, 16:32:47.029, 1578580367029
35, -160481.50, -154298.13, -184064.28, -183923.72, -177200.95, -174786.80, -176597.69, -177192.98, 0.000, 0.000, 0.000, 16:32:47.029, 1578580367029
36, -180148.86, -176620.91, -187500.02, -187500.02, -187500.02, -187500.02, -187500.02, -147997.98, -0.006, -0.014, 0.970, 16:32:47.029, 1578580367029
37, -160796.72, -154551.00, -184060.33, -183919.72, -177241.84, -175116.72, -176597.27, -177191.45, 0.000, 0.000, 0.000, 16:32:47.029, 1578580367029
38, -180148.92, -176618.45, -187500.02, -187500.02, -187500.02, -187500.02, -187500.02, -147921.56, 0.000, 0.000, 0.000, 16:32:47.029, 1578580367029
39, -161119.42, -154810.19, -184055.83, -183915.28, -177267.72, -175465.66, -176589.86, -177184.23, 0.000, 0.000, 0.000, 16:32:47.029, 1578580367029
40, -180149.59, -176620.64, -187500.02, -187500.02, -187500.02, -187500.02, -187500.02, -147845.55, 0.000, 0.000, 0.000, 16:32:47.029, 1578580367029
41, -161440.44, -155069.36, -184053.89, -183913.33, -177187.28, -175822.13, -176592.86, -177185.69, 0.000, 0.000, 0.000, 16:32:47.029, 1578580367029
42, -180152.38, -176627.39, -187500.02, -187500.02, -187500.02, -187500.02, -187500.02, -147771.92, 0.000, 0.000, 0.000, 16:32:47.029, 1578580367029
43, -161751.39, -155315.86, -184050.03, -183909.44, -177262.58, -176148.53, -176587.41, -177178.47, 0.000, 0.000, 0.000, 16:32:47.029, 1578580367029
44, -180151.50, -176624.47, -187500.02, -187500.02, -187500.02, -187500.02, -187500.02, -147695.67, 0.000, 0.000, 0.000, 16:32:47.029, 1578580367029
45, -162078.78, -155579.31, -184045.00, -183904.38, -177259.23, -176511.05, -176578.34, -177171.08, -0.006, -0.018, 0.976, 16:32:47.029, 1578580367029
46, -180152.08, -176623.77, -187500.02, -187500.02, -187500.02, -187500.02, -187500.02, -147620.97, 0.000, 0.000, 0.000, 16:32:47.029, 1578580367029
47, -162404.13, -155844.34, -184040.17, -183899.55, -177181.44, -176876.19, -176577.09, -177168.34, 0.000, 0.000, 0.000, 16:32:47.029, 1578580367029
48, -180153.42, -176626.73, -187500.02, -187500.02, -187500.02, -187500.02, -187500.02, -147546.83, 0.000, 0.000, 0.000, 16:32:47.030, 1578580367030
49, -162713.16, -156093.52, -184036.64, -183895.95, -177215.16, -177203.81, -176573.59, -177168.80, 0.000, 0.000, 0.000, 16:32:47.030, 1578580367030
50, -180152.17, -176625.02, -187500.02, -187500.02, -187500.02, -187500.02, -187500.02, -147470.84, 0.000, 0.000, 0.000, 16:32:47.030, 1578580367030
51, -163045.16, -156364.02, -184031.09, -183890.45, -177251.00, -177699.78, -176563.55, -177154.63, 0.000, 0.000, 0.000, 16:32:47.030, 1578580367030
52, -180157.28, -176632.42, -187500.02, -187500.02, -187500.02, -187500.02, -187500.02, -147400.92, 0.000, 0.000, 0.000, 16:32:47.030, 1578580367030
53, -163415.39, -156670.77, -184032.75, -183892.09, -177215.89, -177808.56, -176565.31, -177156.48, 0.000, 0.000, 0.000, 16:32:47.030, 1578580367030
54, -180162.16, -176643.50, -187500.02, -187500.02, -187500.02, -187500.02, -187500.02, -147331.45, 0.000, 0.000, 0.000, 16:32:47.030, 1578580367030
55, -163788.14, -156980.41, -184033.39, -183892.78, -177182.58, -177770.22, -176567.11, -177156.30, -0.002, -0.014, 0.978, 16:32:47.030, 1578580367030
56, -180167.14, -176651.53, -187500.02, -187500.02, -187500.02, -187500.02, -187500.02, -147263.14, 0.000, 0.000, 0.000, 16:32:47.030, 1578580367030
57, -164156.55, -157282.73, -184031.78, -183891.17, -177149.89, -177727.55, -176563.86, -177153.73, 0.000, 0.000, 0.000, 16:32:47.030, 1578580367030
58, -180171.69, -176657.92, -187500.02, -187500.02, -187500.02, -187500.02, -187500.02, -147195.11, 0.000, 0.000, 0.000, 16:32:47.030, 1578580367030
59, -164506.31, -157571.48, -184029.75, -183889.03, -177270.05, -177673.66, -176560.20, -177151.83, 0.000, 0.000, 0.000, 16:32:47.030, 1578580367030
60, -180173.25, -176659.58, -187500.02, -187500.02, -187500.02, -187500.02, -187500.02, -147124.39, 0.000, 0.000, 0.000, 16:32:47.030, 1578580367030
61, -164878.84, -157878.97, -184027.94, -183887.34, -177269.11, -177636.73, -176559.50, -177149.33, 0.000, 0.000, 0.000, 16:32:47.031, 1578580367031
62, -180179.78, -176669.77, -187500.02, -187500.02, -187500.02, -187500.02, -187500.02, -147058.63, 0.000, 0.000, 0.000, 16:32:47.031, 1578580367031
63, -165250.17, -158185.70, -184031.20, -183890.52, -177234.59, -177600.41, -176562.86, -177152.39, 0.000, 0.000, 0.000, 16:32:47.031, 1578580367031
64, -180184.92, -176680.31, -187500.02, -187500.02, -187500.02, -187500.02, -187500.02, -146992.17, 0.000, 0.000, 0.000, 16:32:47.031, 1578580367031
65, -165619.64, -158494.42, -184029.22, -183888.72, -177200.13, -177563.55, -176558.28, -177147.58, -0.002, -0.014, 0.982, 16:32:47.031, 1578580367031
66, -180187.28, -176682.91, -187500.02, -187500.02, -187500.02, -187500.02, -187500.02, -146924.03, 0.000, 0.000, 0.000, 16:32:47.031, 1578580367031
67, -165992.34, -158802.55, -184026.55, -183885.94, -177166.63, -177528.56, -176560.48, -177145.41, 0.000, 0.000, 0.000, 16:32:47.031, 1578580367031
68, -180191.84, -176691.31, -187500.02, -187500.02, -187500.02, -187500.02, -187500.02, -146857.97, 0.000, 0.000, 0.000, 16:32:47.031, 1578580367031
69, -166353.75, -159101.70, -184026.59, -183885.94, -177191.56, -177483.39, -176562.84, -177150.98, 0.000, 0.000, 0.000, 16:32:47.031, 1578580367031
70, -180194.28, -176694.56, -187500.02, -187500.02, -187500.02, -187500.02, -187500.02, -146790.61, 0.000, 0.000, 0.000, 16:32:47.031, 1578580367031
71, -166712.41, -159397.38, -184024.34, -183883.64, -177275.20, -177436.91, -176561.00, -177145.64, 0.000, 0.000, 0.000, 16:32:47.031, 1578580367031
72, -180197.66, -176701.52, -187500.02, -187500.02, -187500.02, -187500.02, -187500.02, -146724.36, 0.000, 0.000, 0.000, 16:32:47.031, 1578580367031
73, -167082.56, -159703.19, -184023.34, -183882.63, -177239.84, -177398.91, -176558.91, -177143.73, 0.000, 0.000, 0.000, 16:32:47.031, 1578580367031
74, -180200.89, -176709.20, -187500.02, -187500.02, -187500.02, -187500.02, -187500.02, -146658.47, 0.000, 0.000, 0.000, 16:32:47.031, 1578580367031
75, -167457.31, -160009.66, -184024.63, -183883.84, -177206.09, -177362.67, -176555.44, -177147.42, -0.002, -0.014, 0.980, 16:32:47.031, 1578580367031
76, -180205.97, -176718.55, -187500.02, -187500.02, -187500.02, -187500.02, -187500.02, -146595.25, 0.000, 0.000, 0.000, 16:32:47.031, 1578580367031
77, -167833.95, -160316.86, -184024.61, -183883.89, -177175.17, -177329.39, -176552.95, -177143.73, 0.000, 0.000, 0.000, 16:32:47.031, 1578580367031
78, -180209.33, -176726.59, -187500.02, -187500.02, -187500.02, -187500.02, -187500.02, -146530.86, 0.000, 0.000, 0.000, 16:32:47.031, 1578580367031
79, -168199.22, -160615.47, -184025.13, -183884.53, -177162.25, -177288.17, -176559.94, -177151.50, 0.000, 0.000, 0.000, 16:32:47.031, 1578580367031
80, -180212.52, -176735.73, -187500.02, -187500.02, -187500.02, -187500.02, -187500.02, -146466.91, 0.000, 0.000, 0.000, 16:32:47.032, 1578580367032
81, -168553.94, -160903.81, -184022.47, -183881.92, -177274.23, -177235.17, -176556.20, -177148.95, 0.000, 0.000, 0.000, 16:32:47.032, 1578580367032
82, -180213.45, -176736.98, -187500.02, -187500.02, -187500.02, -187500.02, -187500.02, -146401.81, 0.000, 0.000, 0.000, 16:32:47.032, 1578580367032
83, -168928.16, -161212.20, -184020.08, -183879.45, -177245.27, -177129.55, -176552.78, -177146.28, 0.000, 0.000, 0.000, 16:32:47.032, 1578580367032
84, -180215.78, -176739.91, -187500.02, -187500.02, -187500.02, -187500.02, -187500.02, -146338.16, 0.000, 0.000, 0.000, 16:32:47.032, 1578580367032
85, -169275.80, -161490.86, -184019.47, -183878.91, -177183.44, -177099.58, -176556.05, -177149.02, 0.000, -0.018, 0.978, 16:32:47.032, 1578580367032
86, -180216.14, -176739.89, -187500.02, -187500.02, -187500.02, -187500.02, -187500.02, -146272.72, 0.000, 0.000, 0.000, 16:32:47.032, 1578580367032
87, -169602.19, -161746.63, -184014.08, -183873.52, -177152.05, -177553.73, -176550.83, -177143.69, 0.000, 0.000, 0.000, 16:32:47.032, 1578580367032
88, -180217.23, -176741.92, -187500.02, -187500.02, -187500.02, -187500.02, -187500.02, -146208.28, 0.000, 0.000, 0.000, 16:32:47.032, 1578580367032
89, -169951.30, -162025.52, -184012.55, -183871.86, -177271.52, -177793.14, -176545.31, -177134.94, 0.000, 0.000, 0.000, 16:32:47.032, 1578580367032
90, -180221.69, -176750.38, -187500.02, -187500.02, -187500.02, -187500.02, -187500.02, -146147.28, 0.000, 0.000, 0.000, 16:32:47.032, 1578580367032
91, -170328.41, -162331.59, -184012.63, -183872.02, -177240.81, -177756.11, -176549.72, -177136.73, 0.000, 0.000, 0.000, 16:32:47.032, 1578580367032
92, -180223.92, -176754.59, -187500.02, -187500.02, -187500.02, -187500.02, -187500.02, -146084.83, 0.000, 0.000, 0.000, 16:32:47.032, 1578580367032
93, -170709.25, -162640.77, -184011.47, -183870.77, -177209.25, -177722.20, -176542.39, -177133.09, 0.000, 0.000, 0.000, 16:32:47.032, 1578580367032
94, -180229.31, -176761.55, -187500.02, -187500.02, -187500.02, -187500.02, -187500.02, -146026.06, -0.002, -0.014, 0.978, 16:32:47.033, 1578580367033
95, -171087.95, -162946.63, -184013.09, -183872.38, -177175.81, -177684.78, -176545.63, -177139.02, 0.000, 0.000, 0.000, 16:32:47.033, 1578580367033
96, -180233.84, -176770.94, -187500.02, -187500.02, -187500.02, -187500.02, -187500.02, -145966.41, 0.000, 0.000, 0.000, 16:32:47.033, 1578580367033
97, -171465.44, -163250.44, -184012.70, -183872.08, -177136.55, -177647.02, -176544.36, -177134.84, 0.000, 0.000, 0.000, 16:32:47.033, 1578580367033
98, -180235.94, -176775.42, -187500.02, -187500.02, -187500.02, -187500.02, -187500.02, -145905.48, 0.000, 0.000, 0.000, 16:32:47.033, 1578580367033
99, -171825.67, -163538.33, -184009.50, -183868.95, -177220.41, -177593.72, -176543.91, -177134.16, 0.000, 0.000, 0.000, 16:32:47.033, 1578580367033
100, -180237.83, -176777.34, -187500.02, -187500.02, -187500.02, -187500.02, -187500.02, -145844.55, 0.000, 0.000, 0.000, 16:32:47.033, 1578580367033
101, -172203.22, -163843.67, -184009.14, -183868.55, -177253.33, -177553.22, -176541.33, -177129.30, 0.000, 0.000, 0.000, 16:32:47.033, 1578580367033
102, -180240.73, -176782.56, -187500.02, -187500.02, -187500.02, -187500.02, -187500.02, -145784.59, 0.000, 0.000, 0.000, 16:32:47.033, 1578580367033
103, -172583.64, -164151.41, -184008.05, -183867.33, -177217.45, -177518.00, -176539.84, -177128.03, 0.000, 0.000, 0.000, 16:32:47.033, 1578580367033
104, -180243.41, -176788.30, -187500.02, -187500.02, -187500.02, -187500.02, -187500.02, -145724.94, -0.002, -0.018, 0.974, 16:32:47.033, 1578580367033
105, -172963.25, -164456.03, -184006.44, -183865.83, -177179.70, -177479.75, -176538.11, -177128.67, 0.000, 0.000, 0.000, 16:32:47.033, 1578580367033
106, -180245.48, -176791.75, -187500.02, -187500.02, -187500.02, -187500.02, -187500.02, -145665.33, 0.000, 0.000, 0.000, 16:32:47.033, 1578580367033
107, -173347.11, -164761.14, -184005.75, -183865.06, -177144.41, -177442.92, -176536.69, -177130.97, 0.000, 0.000, 0.000, 16:32:47.033, 1578580367033
108, -180250.05, -176800.77, -187500.02, -187500.02, -187500.02, -187500.02, -187500.02, -145608.05, 0.000, 0.000, 0.000, 16:32:47.033, 1578580367033
109, -173721.63, -165052.45, -184006.97, -183866.30, -177168.92, -177395.69, -176540.47, -177135.42, 0.000, 0.000, 0.000, 16:32:47.033, 1578580367033
110, -180252.17, -176807.30, -187500.02, -187500.02, -187500.02, -187500.02, -187500.02, -145549.19, 0.000, 0.000, 0.000, 16:32:47.033, 1578580367033
111, -174095.20, -165346.05, -184004.41, -183863.70, -177262.78, -177347.86, -176536.16, -177125.55, 0.000, 0.000, 0.000, 16:32:47.034, 1578580367034
112, -180252.33, -176808.23, -187500.02, -187500.02, -187500.02, -187500.02, -187500.02, -145489.27, 0.000, 0.000, 0.000, 16:32:47.034, 1578580367034
113, -174480.44, -165650.06, -184002.92, -183862.31, -177225.77, -177309.25, -176536.16, -177132.61, 0.000, 0.000, 0.000, 16:32:47.034, 1578580367034
114, -180257.48, -176816.08, -187500.02, -187500.02, -187500.02, -187500.02, -187500.02, -145434.34, 0.000, -0.022, 0.976, 16:32:47.034, 1578580367034
115, -174871.02, -165955.02, -184003.22, -183862.66, -177188.73, -177272.34, -176534.55, -177125.19, 0.000, 0.000, 0.000, 16:32:47.034, 1578580367034
116, -180257.22, -176818.44, -187500.02, -187500.02, -187500.02, -187500.02, -187500.02, -145374.47, 0.000, 0.000, 0.000, 16:32:47.034, 1578580367034
117, -175264.50, -166266.48, -184000.09, -183859.47, -177155.56, -177238.20, -176530.88, -177119.08, 0.000, 0.000, 0.000, 16:32:47.034, 1578580367034
118, -180260.27, -176822.61, -187500.02, -187500.02, -187500.02, -187500.02, -187500.02, -145318.39, 0.000, 0.000, 0.000, 16:32:47.034, 1578580367034
119, -175650.94, -166572.03, -184000.42, -183859.94, -177116.31, -177178.00, -176539.09, -177128.06, 0.000, 0.000, 0.000, 16:32:47.034, 1578580367034
120, -180263.59, -176828.11, -187500.02, -187500.02, -187500.02, -187500.02, -187500.02, -145262.81, 0.000, 0.000, 0.000, 16:32:47.505, 1578580367505
121, -175997.81, -166836.28, -183998.41, -183857.86, -177210.81, -176987.50, -176538.16, -177131.53, 0.000, 0.000, 0.000, 16:32:47.506, 1578580367506
122, -180260.20, -176823.19, -187500.02, -187500.02, -187500.02, -187500.02, -187500.02, -145201.13, 0.000, 0.000, 0.000, 16:32:47.506, 1578580367506
123, -176344.48, -167098.28, -183993.09, -183852.56, -177196.27, -177341.73, -176529.59, -177121.39, 0.000, 0.000, 0.000, 16:32:47.506, 1578580367506
124, -180261.63, -176823.81, -187500.02, -187500.02, -187500.02, -187500.02, -187500.02, -145143.94, -0.004, -0.020, 0.972, 16:32:47.506, 1578580367506
125, -176713.80, -167387.27, -183991.89, -183851.41, -177143.83, -177777.20, -176525.78, -177113.41, 0.000, 0.000, 0.000, 16:32:47.506, 1578580367506
126, -180263.75, -176827.53, -187500.02, -187500.02, -187500.02, -187500.02, -187500.02, -145087.63, 0.000, 0.000, 0.000, 16:32:47.506, 1578580367506
127, -176906.78, -167718.23, -183992.06, -183851.36, -177109.98, -177761.03, -176525.42, -177112.38, 0.000, 0.000, 0.000, 16:32:47.506, 1578580367506
128, -180267.75, -176833.83, -187500.02, -187500.02, -187500.02, -187500.02, -187500.02, -145033.56, 0.000, 0.000, 0.000, 16:32:47.506, 1578580367506
129, -176905.47, -168065.47, -183989.61, -183849.00, -177214.89, -177716.17, -176522.09, -177116.02, 0.000, 0.000, 0.000, 16:32:47.506, 1578580367506
130, -180269.47, -176834.80, -187500.02, -187500.02, -187500.02, -187500.02, -187500.02, -144977.75, 0.000, 0.000, 0.000, 16:32:47.506, 1578580367506
131, -176902.66, -168435.86, -183989.66, -183848.95, -177249.31, -177690.42, -176516.64, -177109.05, 0.000, 0.000, 0.000, 16:32:47.506, 1578580367506
132, -180274.13, -176845.09, -187500.02, -187500.02, -187500.02, -187500.02, -187500.02, -144924.44, 0.000, 0.000, 0.000, 16:32:47.506, 1578580367506
133, -176904.94, -168811.81, -183991.13, -183850.44, -177230.48, -177670.14, -176521.05, -177113.50, -0.006, -0.018, 0.976, 16:32:47.506, 1578580367506
134, -180277.75, -176851.78, -187500.02, -187500.02, -187500.02, -187500.02, -187500.02, -144871.27, 0.000, 0.000, 0.000, 16:32:47.506, 1578580367506
135, -176903.55, -169189.31, -183990.05, -183849.34, -177208.20, -177645.88, -176521.84, -177115.63, 0.000, 0.000, 0.000, 16:32:47.507, 1578580367507
136, -180284.78, -176861.25, -187500.02, -187500.02, -187500.02, -187500.02, -187500.02, -144821.78, 0.000, 0.000, 0.000, 16:32:47.507, 1578580367507
137, -176906.00, -169564.06, -183992.83, -183852.23, -177183.97, -177620.92, -176522.25, -177116.14, 0.000, 0.000, 0.000, 16:32:47.507, 1578580367507
138, -180290.19, -176870.55, -187500.02, -187500.02, -187500.02, -187500.02, -187500.02, -144771.08, 0.000, 0.000, 0.000, 16:32:47.507, 1578580367507
139, -176903.84, -169943.73, -183993.19, -183852.59, -177163.92, -177599.28, -176521.67, -177115.03, 0.000, 0.000, 0.000, 16:32:47.507, 1578580367507
140, -180294.06, -176875.89, -187500.02, -187500.02, -187500.02, -187500.02, -187500.02, -144719.42, 0.000, 0.000, 0.000, 16:32:47.507, 1578580367507
141, -176903.02, -170326.34, -183992.31, -183851.83, -177145.91, -177579.55, -176522.53, -177113.86, 0.000, 0.000, 0.000, 16:32:47.507, 1578580367507
142, -180298.34, -176884.23, -187500.02, -187500.02, -187500.02, -187500.02, -187500.02, -144668.27, 0.000, 0.000, 0.000, 16:32:47.507, 1578580367507
143, -176907.17, -170707.28, -183993.61, -183853.08, -177124.61, -177555.81, -176523.70, -177112.77, -0.002, -0.020, 0.978, 16:32:47.507, 1578580367507
144, -180302.67, -176895.13, -187500.02, -187500.02, -187500.02, -187500.02, -187500.02, -144617.56, 0.000, 0.000, 0.000, 16:32:47.507, 1578580367507
145, -176910.47, -171071.39, -183994.25, -183853.80, -177143.61, -177520.34, -176529.56, -177117.83, 0.000, 0.000, 0.000, 16:32:47.507, 1578580367507
146, -180304.92, -176901.25, -187500.02, -187500.02, -187500.02, -187500.02, -187500.02, -144565.89, 0.000, 0.000, 0.000, 16:32:47.507, 1578580367507
147, -176903.84, -171433.84, -183991.42, -183850.88, -177250.64, -177484.44, -176527.59, -177120.77, 0.000, 0.000, 0.000, 16:32:47.507, 1578580367507
148, -180307.00, -176906.31, -187500.02, -187500.02, -187500.02, -187500.02, -187500.02, -144514.38, 0.000, 0.000, 0.000, 16:32:47.507, 1578580367507
149, -176905.77, -171817.70, -183992.94, -183852.34, -177232.92, -177463.80, -176525.31, -177114.41, 0.000, 0.000, 0.000, 16:32:47.508, 1578580367508
150, -180314.27, -176916.67, -187500.02, -187500.02, -187500.02, -187500.02, -187500.02, -144468.50, 0.000, 0.000, 0.000, 16:32:47.508, 1578580367508
151, -176910.05, -172195.55, -183995.70, -183855.11, -177210.08, -177440.23, -176529.63, -177118.84, 0.000, 0.000, 0.000, 16:32:47.508, 1578580367508
152, -180317.08, -176920.59, -187500.02, -187500.02, -187500.02, -187500.02, -187500.02, -144418.91, 0.000, 0.000, 0.000, 16:32:47.508, 1578580367508
153, -176907.06, -172576.89, -183993.16, -183852.64, -177186.92, -177415.61, -176523.39, -177113.41, -0.002, -0.018, 0.976, 16:32:47.508, 1578580367508
154, -180321.48, -176930.28, -187500.02, -187500.02, -187500.02, -187500.02, -187500.02, -144370.73, 0.000, 0.000, 0.000, 16:32:47.508, 1578580367508
155, -176906.55, -172961.13, -183995.03, -183854.48, -177165.58, -177391.70, -176522.67, -177113.78, 0.000, 0.000, 0.000, 16:32:47.508, 1578580367508
156, -180325.38, -176936.33, -187500.02, -187500.02, -187500.02, -187500.02, -187500.02, -144322.84, 0.000, 0.000, 0.000, 16:32:47.508, 1578580367508
157, -176905.80, -173348.09, -183994.39, -183853.78, -177144.86, -177369.58, -176521.88, -177112.80, 0.000, 0.000, 0.000, 16:32:47.508, 1578580367508
158, -180328.73, -176942.44, -187500.02, -187500.02, -187500.02, -187500.02, -187500.02, -144274.69, 0.000, 0.000, 0.000, 16:32:47.508, 1578580367508
159, -176910.08, -173728.02, -183996.56, -183856.06, -177123.67, -177341.34, -176528.63, -177121.52, 0.000, 0.000, 0.000, 16:32:47.508, 1578580367508
160, -180334.73, -176952.52, -187500.02, -187500.02, -187500.02, -187500.02, -187500.02, -144229.63, 0.000, 0.000, 0.000, 16:32:47.508, 1578580367508
161, -176909.41, -174086.98, -183994.97, -183854.38, -177246.28, -177296.84, -176525.13, -177115.38, 0.000, 0.000, 0.000, 16:32:47.508, 1578580367508
162, -180337.13, -176954.75, -187500.02, -187500.02, -187500.02, -187500.02, -187500.02, -144181.53, 0.000, 0.000, 0.000, 16:32:47.511, 1578580367511
163, -176907.95, -174466.36, -183994.80, -183854.20, -177249.03, -177270.47, -176526.66, -177117.16, -0.002, -0.018, 0.972, 16:32:47.511, 1578580367511
164, -180339.23, -176959.27, -187500.02, -187500.02, -187500.02, -187500.02, -187500.02, -144133.34, 0.000, 0.000, 0.000, 16:32:47.511, 1578580367511
165, -176908.08, -174854.72, -183995.48, -183854.84, -177228.34, -177249.53, -176526.05, -177117.27, 0.000, 0.000, 0.000, 16:32:47.511, 1578580367511
166, -180344.33, -176969.44, -187500.02, -187500.02, -187500.02, -187500.02, -187500.02, -144088.17, 0.000, 0.000, 0.000, 16:32:47.511, 1578580367511
167, -176908.42, -175243.03, -183996.31, -183855.67, -177204.80, -177224.56, -176527.03, -177118.06, 0.000, 0.000, 0.000, 16:32:47.511, 1578580367511
168, -180348.03, -176975.05, -187500.02, -187500.02, -187500.02, -187500.02, -187500.02, -144042.45, 0.000, 0.000, 0.000, 16:32:47.511, 1578580367511
169, -176907.41, -175628.89, -183995.63, -183855.03, -177178.50, -177197.00, -176528.70, -177119.78, 0.000, 0.000, 0.000, 16:32:47.511, 1578580367511
170, -180351.73, -176980.41, -187500.02, -187500.02, -187500.02, -187500.02, -187500.02, -143996.84, 0.000, 0.000, 0.000, 16:32:47.511, 1578580367511
171, -176907.45, -176016.34, -183997.09, -183856.48, -177153.13, -177115.89, -176527.92, -177119.69, 0.000, 0.000, 0.000, 16:32:47.512, 1578580367512
172, -180355.03, -176986.53, -187500.02, -187500.02, -187500.02, -187500.02, -187500.02, -143951.13, -0.002, -0.018, 0.976, 16:32:47.512, 1578580367512
173, -176912.11, -176366.09, -183995.13, -183854.61, -177124.58, -177048.78, -176532.39, -177123.84, 0.000, 0.000, 0.000, 16:32:47.512, 1578580367512
174, -180353.89, -176985.89, -187500.02, -187500.02, -187500.02, -187500.02, -187500.02, -143901.48, 0.000, 0.000, 0.000, 16:32:47.512, 1578580367512
175, -176906.83, -176733.69, -183990.66, -183850.09, -177236.56, -177469.58, -176523.81, -177120.94, 0.000, 0.000, 0.000, 16:32:47.512, 1578580367512
176, -180354.20, -176987.77, -187500.02, -187500.02, -187500.02, -187500.02, -187500.02, -143853.47, 0.000, 0.000, 0.000, 16:32:47.512, 1578580367512
177, -176905.13, -177113.27, -183991.19, -183850.73, -177241.86, -177824.33, -176529.11, -177126.53, 0.000, 0.000, 0.000, 16:32:47.512, 1578580367512
178, -180361.61, -176999.92, -187500.02, -187500.02, -187500.02, -187500.02, -187500.02, -143812.58, 0.000, 0.000, 0.000, 16:32:47.512, 1578580367512
179, -176910.91, -177129.83, -183994.38, -183853.80, -177262.97, -177844.13, -176555.70, -177155.47, 0.000, 0.000, 0.000, 16:32:47.512, 1578580367512
180, -180369.58, -177013.84, -187500.02, -187500.02, -187500.02, -187500.02, -187500.02, -143772.70, 0.000, 0.000, 0.000, 16:32:47.512, 1578580367512
181, -176917.19, -177138.63, -184001.34, -183860.75, -177286.25, -177865.03, -176583.58, -177186.77, 0.000, 0.000, 0.000, 16:32:47.512, 1578580367512
182, -180377.63, -177029.19, -187500.02, -187500.02, -187500.02, -187500.02, -187500.02, -143733.78, -0.002, -0.018, 0.976, 16:32:47.512, 1578580367512
183, -176922.08, -177145.80, -184007.33, -183866.77, -177306.92, -177884.19, -176609.70, -177215.75, 0.000, 0.000, 0.000, 16:32:47.512, 1578580367512
184, -180386.69, -177047.47, -187500.02, -187500.02, -187500.02, -187500.02, -187500.02, -143696.44, 0.000, 0.000, 0.000, 16:32:47.512, 1578580367512
185, -176924.78, -177151.84, -184011.69, -183871.14, -177327.36, -177900.77, -176634.45, -177243.73, 0.000, 0.000, 0.000, 16:32:47.512, 1578580367512
186, -180391.56, -177056.66, -187500.02, -187500.02, -187500.02, -187500.02, -187500.02, -143656.20, 0.000, 0.000, 0.000, 16:32:47.512, 1578580367512
187, -176929.81, -177161.58, -184013.02, -183872.47, -177349.78, -177920.19, -176660.81, -177272.63, 0.000, 0.000, 0.000, 16:32:47.512, 1578580367512
188, -180398.64, -177068.09, -187500.02, -187500.02, -187500.02, -187500.02, -187500.02, -143618.72, 0.000, 0.000, 0.000, 16:32:47.512, 1578580367512
189, -176937.14, -177172.64, -184018.64, -183878.20, -177373.31, -177940.88, -176689.03, -177303.08, 0.000, 0.000, 0.000, 16:32:47.512, 1578580367512
190, -180406.72, -177082.81, -187500.02, -187500.02, -187500.02, -187500.02, -187500.02, -143582.44, 0.000, 0.000, 0.000, 16:32:47.512, 1578580367512
191, -176940.67, -177180.31, -184023.47, -183882.86, -177395.31, -177960.36, -176715.55, -177332.52, 0.000, 0.000, 0.000, 16:32:47.513, 1578580367513
192, -180414.11, -177093.38, -187500.02, -187500.02, -187500.02, -187500.02, -187500.02, -143546.42, 0.000, -0.018, 0.974, 16:32:47.513, 1578580367513
193, -176943.58, -177187.81, -184025.30, -183884.83, -177415.31, -177977.59, -176740.11, -177359.45, 0.000, 0.000, 0.000, 16:32:47.513, 1578580367513
194, -180419.92, -177104.23, -187500.02, -187500.02, -187500.02, -187500.02, -187500.02, -143509.06, 0.000, 0.000, 0.000, 16:32:47.513, 1578580367513
195, -176948.50, -177197.38, -184030.38, -183889.83, -177437.08, -177996.53, -176767.36, -177388.80, 0.000, 0.000, 0.000, 16:32:47.513, 1578580367513
196, -180428.28, -177119.22, -187500.02, -187500.02, -187500.02, -187500.02, -187500.02, -143474.61, 0.000, 0.000, 0.000, 16:32:47.513, 1578580367513
197, -176954.78, -177208.95, -184034.38, -183893.81, -177460.66, -178017.17, -176794.84, -177419.36, 0.000, 0.000, 0.000, 16:32:47.513, 1578580367513
198, -180434.66, -177130.86, -187500.02, -187500.02, -187500.02, -187500.02, -187500.02, -143439.08, 0.000, 0.000, 0.000, 16:32:47.513, 1578580367513
199, -176959.31, -177219.00, -184038.02, -183897.52, -177482.20, -178036.41, -176821.50, -177448.70, 0.000, 0.000, 0.000, 16:32:47.513, 1578580367513
200, -180441.36, -177142.08, -187500.02, -187500.02, -187500.02, -187500.02, -187500.02, -143404.45, 0.000, 0.000, 0.000, 16:32:47.513, 1578580367513
201, -176962.53, -177226.63, -184043.30, -183902.80, -177501.52, -178053.72, -176845.20, -177476.20, 0.000, 0.000, 0.000, 16:32:47.513, 1578580367513
202, -180448.13, -177155.06, -187500.02, -187500.02, -187500.02, -187500.02, -187500.02, -143370.44, 0.000, -0.018, 0.972, 16:32:47.513, 1578580367513
203, -176967.47, -177236.91, -184045.44, -183905.05, -177523.88, -178073.17, -176872.36, -177504.73, 0.000, 0.000, 0.000, 16:32:47.513, 1578580367513
204, -180454.02, -177167.94, -187500.02, -187500.02, -187500.02, -187500.02, -187500.02, -143335.88, 0.000, 0.000, 0.000, 16:32:47.513, 1578580367513
205, -176974.31, -177249.19, -184050.58, -183910.17, -177546.98, -178094.06, -176901.17, -177535.39, 0.000, 0.000, 0.000, 16:32:47.513, 1578580367513
206, -180461.88, -177180.86, -187500.02, -187500.02, -187500.02, -187500.02, -187500.02, -143304.14, 0.000, 0.000, 0.000, 16:32:47.513, 1578580367513
207, -176978.83, -177258.53, -184055.61, -183915.13, -177568.23, -178114.08, -176927.73, -177563.17, 0.000, 0.000, 0.000, 16:32:47.513, 1578580367513
208, -180467.69, -177191.59, -187500.02, -187500.02, -187500.02, -187500.02, -187500.02, -143271.09, 0.000, 0.000, 0.000, 16:32:47.513, 1578580367513
209, -176982.22, -177266.36, -184056.75, -183916.30, -177589.31, -178131.75, -176952.27, -177590.81, 0.000, 0.000, 0.000, 16:32:47.513, 1578580367513
210, -180472.89, -177199.69, -187500.02, -187500.02, -187500.02, -187500.02, -187500.02, -143238.02, 0.000, 0.000, 0.000, 16:32:47.514, 1578580367514
211, -176986.92, -177276.84, -184061.02, -183920.45, -177611.00, -178150.55, -176978.45, -177620.20, 0.000, -0.018, 0.970, 16:32:47.514, 1578580367514
212, -180480.45, -177212.69, -187500.02, -187500.02, -187500.02, -187500.02, -187500.02, -143207.16, 0.000, 0.000, 0.000, 16:32:47.514, 1578580367514
213, -176994.58, -177288.23, -184066.05, -183925.55, -177634.66, -178172.13, -177005.77, -177651.69, 0.000, 0.000, 0.000, 16:32:47.514, 1578580367514
214, -180488.16, -177224.45, -187500.02, -187500.02, -187500.02, -187500.02, -187500.02, -143177.25, 0.000, 0.000, 0.000, 16:32:47.514, 1578580367514
215, -176999.06, -177298.69, -184069.47, -183928.86, -177655.45, -178190.97, -177032.47, -177680.41, 0.000, 0.000, 0.000, 16:32:47.514, 1578580367514
216, -180493.66, -177234.06, -187500.02, -187500.02, -187500.02, -187500.02, -187500.02, -143145.42, 0.000, 0.000, 0.000, 16:32:47.514, 1578580367514
217, -177001.77, -177307.05, -184072.08, -183931.41, -177675.44, -178207.69, -177056.95, -177706.80, 0.000, 0.000, 0.000, 16:32:47.514, 1578580367514
218, -180498.64, -177242.48, -187500.02, -187500.02, -187500.02, -187500.02, -187500.02, -143113.52, 0.000, 0.000, 0.000, 16:32:47.514, 1578580367514
219, -177007.58, -177317.39, -184076.09, -183935.53, -177697.17, -178226.70, -177082.94, -177736.22, 0.000, 0.000, 0.000, 16:32:47.514, 1578580367514
220, -180506.36, -177257.47, -187500.02, -187500.02, -187500.02, -187500.02, -187500.02, -143084.83, 0.000, 0.000, 0.000, 16:32:47.514, 1578580367514
221, -177013.83, -177329.69, -184080.47, -183939.88, -177720.30, -178248.00, -177111.17, -177766.72, 0.000, -0.018, 0.976, 16:32:47.514, 1578580367514
222, -180510.95, -177263.88, -187500.02, -187500.02, -187500.02, -187500.02, -187500.02, -143053.80, 0.000, 0.000, 0.000, 16:32:47.514, 1578580367514
223, -177020.13, -177339.77, -184081.58, -183941.03, -177741.84, -178266.94, -177136.39, -177795.52, 0.000, 0.000, 0.000, 16:32:47.514, 1578580367514
224, -180518.67, -177276.17, -187500.02, -187500.02, -187500.02, -187500.02, -187500.02, -143025.77, 0.000, 0.000, 0.000, 16:32:47.514, 1578580367514
225, -177023.39, -177349.23, -184090.28, -183949.69, -177762.13, -178284.55, -177160.33, -177823.05, 0.000, 0.000, 0.000, 16:32:47.514, 1578580367514
226, -180527.19, -177291.70, -187500.02, -187500.02, -187500.02, -187500.02, -187500.02, -142999.22, 0.000, 0.000, 0.000, 16:32:47.514, 1578580367514
227, -177029.20, -177359.52, -184094.28, -183953.64, -177784.78, -178304.27, -177186.16, -177852.05, 0.000, 0.000, 0.000, 16:32:47.514, 1578580367514
228, -180532.34, -177300.95, -187500.02, -187500.02, -187500.02, -187500.02, -187500.02, -142970.05, 0.000, 0.000, 0.000, 16:32:47.514, 1578580367514
229, -177036.38, -177372.50, -184097.52, -183956.84, -177808.50, -178325.14, -177214.17, -177882.42, 0.000, 0.000, 0.000, 16:32:47.514, 1578580367514
230, -180538.88, -177311.80, -187500.02, -187500.02, -187500.02, -187500.02, -187500.02, -142942.55, 0.000, 0.000, 0.000, 16:32:47.515, 1578580367515
231, -177040.77, -177384.02, -184100.53, -183959.91, -177830.11, -178344.41, -177240.44, -177911.30, -0.002, -0.018, 0.972, 16:32:47.515, 1578580367515
232, -180543.06, -177320.47, -187500.02, -187500.02, -187500.02, -187500.02, -187500.02, -142913.19, 0.000, 0.000, 0.000, 16:32:47.515, 1578580367515
233, -177043.41, -177393.05, -184105.05, -183964.44, -177850.48, -178362.02, -177264.95, -177938.47, 0.000, 0.000, 0.000, 16:32:47.515, 1578580367515
234, -180549.88, -177335.06, -187500.02, -187500.02, -187500.02, -187500.02, -187500.02, -142886.78, 0.000, 0.000, 0.000, 16:32:47.515, 1578580367515
235, -177049.50, -177404.06, -184108.91, -183968.27, -177872.38, -178381.22, -177291.44, -177967.73, 0.000, 0.000, 0.000, 16:32:47.515, 1578580367515
236, -180555.39, -177344.56, -187500.02, -187500.02, -187500.02, -187500.02, -187500.02, -142859.92, 0.000, 0.000, 0.000, 16:32:47.515, 1578580367515
237, -177056.81, -177417.44, -184114.28, -183973.63, -177895.36, -178403.08, -177319.38, -177998.06, 0.000, 0.000, 0.000, 16:32:47.515, 1578580367515
238, -180562.42, -177354.38, -187500.02, -187500.02, -187500.02, -187500.02, -187500.02, -142835.33, 0.000, 0.000, 0.000, 16:32:47.515, 1578580367515
239, -177063.03, -177428.67, -184117.55, -183976.95, -177917.48, -178423.16, -177345.11, -178027.45, 0.000, 0.000, 0.000, 16:32:47.515, 1578580367515
240, -180570.19, -177365.94, -187500.02, -187500.02, -187500.02, -187500.02, -187500.02, -142811.23, 0.000, 0.000, 0.000, 16:32:47.986, 1578580367986
241, -177067.03, -177438.02, -184123.81, -183983.17, -177937.16, -178440.30, -177370.19, -178054.19, -0.004, -0.014, 0.966, 16:32:47.986, 1578580367986
242, -180576.27, -177377.69, -187500.02, -187500.02, -187500.02, -187500.02, -187500.02, -142785.91, 0.000, 0.000, 0.000, 16:32:47.986, 1578580367986
243, -177072.88, -177449.48, -184128.50, -183987.89, -177958.77, -178460.17, -177396.36, -178083.11, 0.000, 0.000, 0.000, 16:32:47.986, 1578580367986
244, -180582.16, -177389.09, -187500.02, -187500.02, -187500.02, -187500.02, -187500.02, -142760.97, 0.000, 0.000, 0.000, 16:32:47.986, 1578580367986
245, -177080.27, -177461.83, -184130.95, -183990.28, -177983.11, -178480.75, -177425.09, -178114.83, 0.000, 0.000, 0.000, 16:32:47.986, 1578580367986
246, -180587.06, -177396.89, -187500.02, -187500.02, -187500.02, -187500.02, -187500.02, -142735.70, 0.000, 0.000, 0.000, 16:32:47.986, 1578580367986
247, -177086.25, -177474.56, -184133.47, -183992.89, -178004.59, -178500.27, -177451.19, -178143.95, 0.000, 0.000, 0.000, 16:32:47.986, 1578580367986
248, -180591.36, -177405.20, -187500.02, -187500.02, -187500.02, -187500.02, -187500.02, -142710.05, 0.000, 0.000, 0.000, 16:32:47.986, 1578580367986
249, -177089.69, -177483.02, -184138.27, -183997.75, -178025.61, -178518.73, -177476.08, -178170.70, 0.000, 0.000, 0.000, 16:32:47.986, 1578580367986
250, -180598.80, -177420.92, -187500.02, -187500.02, -187500.02, -187500.02, -187500.02, -142687.77, 0.000, -0.018, 0.970, 16:32:47.986, 1578580367986
251, -177096.03, -177495.05, -184143.50, -184002.89, -178047.75, -178538.53, -177502.08, -178199.91, 0.000, 0.000, 0.000, 16:32:47.986, 1578580367986
252, -180603.11, -177428.25, -187500.02, -187500.02, -187500.02, -187500.02, -187500.02, -142663.36, 0.000, 0.000, 0.000, 16:32:47.986, 1578580367986
253, -177104.88, -177508.39, -184147.09, -184006.44, -178072.36, -178560.17, -177530.59, -178231.22, 0.000, 0.000, 0.000, 16:32:47.986, 1578580367986
254, -180607.86, -177438.38, -187500.02, -187500.02, -187500.02, -187500.02, -187500.02, -142639.55, 0.000, 0.000, 0.000, 16:32:47.986, 1578580367986
255, -177109.83, -177519.31, -184149.89, -184009.30, -178094.20, -178579.77, -177557.20, -178259.84, 0.000, 0.000, 0.000, 16:32:47.987, 1578580367987
0, -180613.95, -177448.69, -187500.02, -187500.02, -187500.02, -187500.02, -187500.02, -142617.47, 0.000, 0.000, 0.000, 16:32:47.987, 1578580367987
1, -177114.92, -177529.47, -184154.19, -184013.55, -178115.19, -178597.81, -177582.44, -178287.75, 0.000, 0.000, 0.000, 16:32:47.987, 1578580367987
2, -180619.61, -177456.48, -187500.02, -187500.02, -187500.02, -187500.02, -187500.02, -142595.61, 0.000, 0.000, 0.000, 16:32:47.987, 1578580367987
3, -177121.66, -177540.70, -184157.73, -184017.02, -178137.61, -178617.50, -177608.08, -178316.83, 0.000, 0.000, 0.000, 16:32:47.987, 1578580367987
4, -180625.06, -177465.11, -187500.02, -187500.02, -187500.02, -187500.02, -187500.02, -142573.75, -0.002, -0.018, 0.972, 16:32:47.987, 1578580367987
5, -177129.55, -177555.45, -184160.70, -184019.92, -178161.50, -178639.31, -177636.30, -178347.16, 0.000, 0.000, 0.000, 16:32:47.987, 1578580367987
6, -180629.38, -177473.27, -187500.02, -187500.02, -187500.02, -187500.02, -187500.02, -142550.92, 0.000, 0.000, 0.000, 16:32:47.987, 1578580367987
7, -177135.36, -177566.77, -184164.00, -184023.25, -178183.58, -178658.97, -177663.14, -178376.23, 0.000, 0.000, 0.000, 16:32:47.987, 1578580367987
8, -180635.30, -177483.08, -187500.02, -187500.02, -187500.02, -187500.02, -187500.02, -142530.30, 0.000, 0.000, 0.000, 16:32:47.987, 1578580367987
9, -177138.80, -177576.67, -184168.73, -184028.08, -178204.23, -178675.28, -177687.36, -178403.45, 0.000, 0.000, 0.000, 16:32:47.987, 1578580367987
10, -180641.05, -177492.09, -187500.02, -187500.02, -187500.02, -187500.02, -187500.02, -142509.55, 0.000, 0.000, 0.000, 16:32:47.987, 1578580367987
11, -177144.91, -177588.38, -184172.91, -184032.17, -178225.77, -178693.89, -177713.70, -178432.56, 0.000, 0.000, 0.000, 16:32:47.987, 1578580367987
12, -180647.22, -177503.48, -187500.02, -187500.02, -187500.02, -187500.02, -187500.02, -142489.34, 0.000, 0.000, 0.000, 16:32:47.987, 1578580367987
13, -177152.95, -177602.38, -184177.55, -184036.77, -178249.59, -178714.70, -177741.84, -178463.72, 0.000, 0.000, 0.000, 16:32:47.987, 1578580367987
14, -180651.70, -177513.17, -187500.02, -187500.02, -187500.02, -187500.02, -187500.02, -142468.34, -0.002, -0.016, 0.976, 16:32:47.987, 1578580367987
15, -177158.13, -177614.27, -184180.61, -184039.97, -178271.55, -178733.94, -177767.33, -178492.78, 0.000, 0.000, 0.000, 16:32:47.987, 1578580367987
16, -180654.95, -177518.05, -187500.02, -187500.02, -187500.02, -187500.02, -187500.02, -142446.55, 0.000, 0.000, 0.000, 16:32:47.987, 1578580367987
17, -177162.48, -177624.69, -184181.55, -184040.81, -178291.83, -178751.91, -177791.83, -178519.42, 0.000, 0.000, 0.000, 16:32:47.987, 1578580367987
18, -180660.14, -177526.13, -187500.02, -187500.02, -187500.02, -187500.02, -187500.02, -142426.81, 0.000, 0.000, 0.000, 16:32:47.987, 1578580367987
19, -177169.39, -177635.59, -184186.02, -184045.28, -178313.61, -178771.91, -177818.02, -178549.80, 0.000, 0.000, 0.000, 16:32:47.987, 1578580367987
20, -180664.98, -177533.63, -187500.02, -187500.02, -187500.02, -187500.02, -187500.02, -142407.05, 0.000, 0.000, 0.000, 16:32:47.988, 1578580367988
21, -177177.25, -177649.20, -184190.66, -184049.95, -178337.03, -178793.63, -177846.19, -178579.95, 0.000, 0.000, 0.000, 16:32:47.988, 1578580367988
22, -180673.48, -177547.86, -187500.02, -187500.02, -187500.02, -187500.02, -187500.02, -142390.86, 0.000, 0.000, 0.000, 16:32:47.988, 1578580367988
23, -177183.77, -177661.58, -184197.02, -184056.17, -178359.38, -178812.23, -177872.73, -178608.97, 0.000, 0.000, 0.000, 16:32:47.988, 1578580367988
24, -180678.08, -177556.63, -187500.02, -187500.02, -187500.02, -187500.02, -187500.02, -142371.59, 0.000, -0.020, 0.976, 16:32:47.988, 1578580367988
25, -177187.56, -177672.05, -184199.78, -184059.02, -178379.28, -178829.53, -177896.77, -178636.45, 0.000, 0.000, 0.000, 16:32:47.988, 1578580367988
26, -180682.98, -177564.73, -187500.02, -187500.02, -187500.02, -187500.02, -187500.02, -142352.83, 0.000, 0.000, 0.000, 16:32:47.988, 1578580367988
27, -177194.25, -177684.27, -184203.84, -184063.09, -178401.41, -178848.91, -177922.50, -178665.52, 0.000, 0.000, 0.000, 16:32:47.988, 1578580367988
28, -180687.39, -177575.73, -187500.02, -187500.02, -187500.02, -187500.02, -187500.02, -142333.83, 0.000, 0.000, 0.000, 16:32:47.988, 1578580367988
29, -177201.67, -177696.08, -184208.97, -184068.17, -178425.13, -178870.81, -177950.66, -178695.39, 0.000, 0.000, 0.000, 16:32:47.988, 1578580367988
30, -180692.66, -177585.70, -187500.02, -187500.02, -187500.02, -187500.02, -187500.02, -142316.56, 0.000, 0.000, 0.000, 16:32:47.988, 1578580367988
31, -177208.05, -177708.09, -184211.09, -184070.36, -178447.31, -178889.83, -177976.77, -178723.80, 0.000, 0.000, 0.000, 16:32:47.988, 1578580367988
32, -180695.81, -177590.11, -187500.02, -187500.02, -187500.02, -187500.02, -187500.02, -142297.61, 0.000, 0.000, 0.000, 16:32:47.988, 1578580367988
33, -177212.88, -177719.36, -184216.02, -184075.30, -178467.13, -178907.41, -178001.38, -178750.20, 0.000, -0.022, 0.974, 16:32:47.988, 1578580367988
34, -180702.73, -177602.17, -187500.02, -187500.02, -187500.02, -187500.02, -187500.02, -142282.34, 0.000, 0.000, 0.000, 16:32:47.988, 1578580367988
35, -177219.69, -177731.64, -184219.42, -184078.70, -178489.52, -178926.63, -178027.28, -178779.70, 0.000, 0.000, 0.000, 16:32:47.988, 1578580367988
36, -180707.41, -177609.59, -187500.02, -187500.02, -187500.02, -187500.02, -187500.02, -142265.39, 0.000, 0.000, 0.000, 16:32:47.988, 1578580367988
37, -177227.73, -177745.48, -184226.14, -184085.56, -178513.00, -178948.58, -178053.83, -178809.50, 0.000, 0.000, 0.000, 16:32:47.988, 1578580367988
38, -180714.19, -177621.80, -187500.02, -187500.02, -187500.02, -187500.02, -187500.02, -142250.63, 0.000, 0.000, 0.000, 16:32:47.988, 1578580367988
39, -177234.39, -177758.05, -184228.84, -184088.06, -178534.78, -178967.91, -178079.94, -178838.69, 0.000, 0.000, 0.000, 16:32:47.989, 1578580367989
40, -180717.88, -177628.03, -187500.02, -187500.02, -187500.02, -187500.02, -187500.02, -142233.44, 0.000, 0.000, 0.000, 16:32:47.989, 1578580367989
41, -177238.94, -177768.78, -184232.84, -184092.02, -178555.27, -178985.34, -178104.22, -178865.56, 0.000, 0.000, 0.000, 16:32:47.989, 1578580367989
42, -180721.92, -177635.45, -187500.02, -187500.02, -187500.02, -187500.02, -187500.02, -142216.92, 0.000, 0.000, 0.000, 16:32:47.989, 1578580367989
43, -177244.48, -177780.52, -184235.08, -184094.28, -178577.38, -179005.30, -178130.05, -178894.75, -0.002, -0.016, 0.972, 16:32:47.989, 1578580367989
44, -180724.80, -177644.69, -187500.02, -187500.02, -187500.02, -187500.02, -187500.02, -142199.09, 0.000, 0.000, 0.000, 16:32:47.989, 1578580367989
45, -177252.39, -177794.20, -184239.36, -184098.70, -178601.08, -179025.16, -178158.34, -178924.80, 0.000, 0.000, 0.000, 16:32:47.989, 1578580367989
46, -180730.77, -177652.44, -187500.02, -187500.02, -187500.02, -187500.02, -187500.02, -142185.44, 0.000, 0.000, 0.000, 16:32:47.989, 1578580367989
47, -177258.95, -177806.27, -184244.28, -184103.59, -178623.98, -179044.55, -178184.84, -178953.95, 0.000, 0.000, 0.000, 16:32:47.989, 1578580367989
48, -180736.52, -177662.36, -187500.02, -187500.02, -187500.02, -187500.02, -187500.02, -142171.47, 0.000, 0.000, 0.000, 16:32:47.989, 1578580367989
49, -177263.75, -177817.17, -184248.95, -184108.23, -178642.83, -179062.23, -178209.94, -178981.92, 0.000, 0.000, 0.000, 16:32:47.989, 1578580367989
50, -180741.52, -177671.13, -187500.02, -187500.02, -187500.02, -187500.02, -187500.02, -142157.25, 0.000, 0.000, 0.000, 16:32:47.989, 1578580367989
51, -177270.58, -177829.05, -184252.47, -184111.73, -178664.17, -179082.28, -178234.80, -179010.00, 0.000, 0.000, 0.000, 16:32:47.989, 1578580367989
52, -180746.73, -177679.67, -187500.02, -187500.02, -187500.02, -187500.02, -187500.02, -142143.41, 0.000, 0.000, 0.000, 16:32:47.989, 1578580367989
53, -177279.69, -177842.92, -184256.67, -184115.94, -178689.03, -179104.33, -178262.73, -179039.97, -0.002, -0.014, 0.978, 16:32:47.989, 1578580367989
54, -180750.39, -177685.77, -187500.02, -187500.02, -187500.02, -187500.02, -187500.02, -142128.41, 0.000, 0.000, 0.000, 16:32:47.989, 1578580367989
55, -177286.52, -177855.75, -184260.33, -184119.61, -178711.11, -179122.30, -178289.67, -179069.47, 0.000, 0.000, 0.000, 16:32:47.989, 1578580367989
56, -180756.05, -177695.83, -187500.02, -187500.02, -187500.02, -187500.02, -187500.02, -142115.52, 0.000, 0.000, 0.000, 16:32:47.989, 1578580367989
57, -177291.28, -177867.55, -184264.13, -184123.42, -178731.05, -179139.56, -178313.69, -179096.23, 0.000, 0.000, 0.000, 16:32:47.990, 1578580367990
58, -180758.42, -177699.95, -187500.02, -187500.02, -187500.02, -187500.02, -187500.02, -142099.89, 0.000, 0.000, 0.000, 16:32:47.990, 1578580367990
59, -177299.06, -177879.00, -184267.17, -184126.48, -178753.38, -179160.36, -178339.80, -179125.17, 0.000, 0.000, 0.000, 16:32:47.990, 1578580367990
60, -180765.02, -177711.16, -187500.02, -187500.02, -187500.02, -187500.02, -187500.02, -142088.30, 0.000, 0.000, 0.000, 16:32:47.990, 1578580367990
61, -177308.36, -177893.34, -184270.86, -184130.17, -178777.88, -179181.14, -178368.20, -179156.56, 0.000, 0.000, 0.000, 16:32:47.990, 1578580367990
62, -180766.27, -177715.58, -187500.02, -187500.02, -187500.02, -187500.02, -187500.02, -142071.95, 0.000, 0.000, 0.000, 16:32:47.990, 1578580367990
63, -177314.45, -177905.02, -184274.14, -184133.44, -178799.59, -179201.08, -178394.41, -179186.39, 0.002, -0.016, 0.972, 16:32:47.990, 1578580367990
64, -180772.19, -177724.64, -187500.02, -187500.02, -187500.02, -187500.02, -187500.02, -142060.69, 0.000, 0.000, 0.000, 16:32:47.990, 1578580367990
65, -177319.72, -177917.56, -184279.53, -184138.77, -178820.45, -179218.03, -178419.64, -179213.06, 0.000, 0.000, 0.000, 16:32:47.990, 1578580367990
66, -180777.02, -177733.72, -187500.02, -187500.02, -187500.02, -187500.02, -187500.02, -142048.70, 0.000, 0.000, 0.000, 16:32:47.990, 1578580367990
67, -177326.64, -177929.22, -184282.17, -184141.47, -178842.94, -179238.09, -178445.75, -179242.61, 0.000, 0.000, 0.000, 16:32:47.990, 1578580367990
68, -180780.56, -177738.20, -187500.02, -187500.02, -187500.02, -187500.02, -187500.02, -142035.66, 0.000, 0.000, 0.000, 16:32:47.990, 1578580367990
69, -177335.67, -177942.72, -184285.36, -184144.55, -178866.45, -179259.44, -178473.44, -179273.44, 0.000, 0.000, 0.000, 16:32:47.990, 1578580367990
70, -180785.33, -177745.48, -187500.02, -187500.02, -187500.02, -187500.02, -187500.02, -142023.81, 0.000, 0.000, 0.000, 16:32:47.990, 1578580367990
71, -177343.81, -177955.28, -184289.41, -184148.64, -178888.41, -179278.48, -178498.97, -179302.31, 0.000, 0.000, 0.000, 16:32:47.990, 1578580367990
72, -180788.38, -177751.55, -187500.02, -187500.02, -187500.02, -187500.02, -187500.02, -142010.64, 0.000, 0.000, 0.000, 16:32:47.990, 1578580367990
73, -177348.48, -177967.28, -184291.67, -184150.94, -178909.03, -179296.33, -178523.16, -179329.25, 0.004, -0.020, 0.974, 16:32:47.990, 1578580367990
74, -180792.64, -177759.38, -187500.02, -187500.02, -187500.02, -187500.02, -187500.02, -141998.73, 0.000, 0.000, 0.000, 16:32:47.990, 1578580367990
75, -177354.16, -177980.31, -184296.63, -184155.80, -178931.39, -179315.52, -178548.64, -179358.42, 0.000, 0.000, 0.000, 16:32:47.991, 1578580367991
76, -180798.14, -177769.70, -187500.02, -187500.02, -187500.02, -187500.02, -187500.02, -141988.42, 0.000, 0.000, 0.000, 16:32:47.991, 1578580367991
77, -177363.45, -177994.47, -184301.92, -184161.09, -178954.63, -179336.59, -178577.00, -179389.33, 0.000, 0.000, 0.000, 16:32:47.991, 1578580367991
78, -180803.02, -177776.14, -187500.02, -187500.02, -187500.02, -187500.02, -187500.02, -141978.09, 0.000, 0.000, 0.000, 16:32:47.991, 1578580367991
79, -177370.52, -178007.00, -184306.63, -184165.73, -178976.98, -179357.03, -178602.56, -179417.88, 0.000, 0.000, 0.000, 16:32:47.991, 1578580367991
80, -180807.45, -177784.03, -187500.02, -187500.02, -187500.02, -187500.02, -187500.02, -141967.28, 0.000, 0.000, 0.000, 16:32:47.991, 1578580367991
81, -177375.91, -178017.69, -184307.88, -184167.11, -178997.45, -179374.33, -178627.42, -179444.89, 0.000, 0.000, 0.000, 16:32:47.991, 1578580367991
82, -180809.77, -177789.08, -187500.02, -187500.02, -187500.02, -187500.02, -187500.02, -141954.63, 0.000, -0.020, 0.974, 16:32:47.991, 1578580367991
83, -177382.83, -178030.20, -184312.72, -184171.94, -179019.14, -179393.23, -178653.94, -179473.64, 0.000, 0.000, 0.000, 16:32:47.991, 1578580367991
84, -180815.64, -177796.63, -187500.02, -187500.02, -187500.02, -187500.02, -187500.02, -141945.89, 0.000, 0.000, 0.000, 16:32:47.991, 1578580367991
85, -177393.09, -178044.77, -184316.48, -184175.73, -179044.08, -179414.36, -178681.94, -179503.86, 0.000, 0.000, 0.000, 16:32:47.991, 1578580367991
86, -180820.53, -177801.80, -187500.02, -187500.02, -187500.02, -187500.02, -187500.02, -141936.28, 0.000, 0.000, 0.000, 16:32:47.991, 1578580367991
87, -177401.28, -178057.33, -184319.72, -184179.00, -179065.78, -179433.41, -178707.83, -179533.39, 0.000, 0.000, 0.000, 16:32:47.991, 1578580367991
88, -180824.48, -177809.42, -187500.02, -187500.02, -187500.02, -187500.02, -187500.02, -141925.50, 0.000, 0.000, 0.000, 16:32:47.991, 1578580367991
89, -177404.89, -178068.61, -184325.23, -184184.42, -179085.70, -179450.13, -178731.22, -179559.47, 0.000, 0.000, 0.000, 16:32:47.991, 1578580367991
90, -180829.77, -177819.66, -187500.02, -187500.02, -187500.02, -187500.02, -187500.02, -141916.42, 0.000, 0.000, 0.000, 16:32:47.991, 1578580367991
91, -177411.84, -178082.09, -184329.73, -184188.97, -179108.19, -179470.64, -178757.48, -179588.39, 0.000, 0.000, 0.000, 16:32:47.991, 1578580367991
92, -180833.08, -177827.25, -187500.02, -187500.02, -187500.02, -187500.02, -187500.02, -141905.88, 0.004, -0.018, 0.974, 16:32:47.991, 1578580367991
93, -177420.91, -178095.25, -184332.59, -184191.80, -179132.69, -179491.61, -178785.81, -179619.70, 0.000, 0.000, 0.000, 16:32:47.991, 1578580367991
94, -180836.02, -177834.41, -187500.02, -187500.02, -187500.02, -187500.02, -187500.02, -141895.28, 0.000, 0.000, 0.000, 16:32:47.992, 1578580367992
95, -177427.45, -178107.95, -184336.64, -184195.72, -179153.97, -179511.44, -178812.20, -179648.16, 0.000, 0.000, 0.000, 16:32:47.992, 1578580367992
96, -180841.52, -177841.84, -187500.02, -187500.02, -187500.02, -187500.02, -187500.02, -141887.81, 0.000, 0.000, 0.000, 16:32:47.992, 1578580367992
97, -177432.28, -178119.14, -184341.14, -184200.23, -179173.92, -179528.92, -178835.94, -179675.92, 0.000, 0.000, 0.000, 16:32:47.992, 1578580367992
98, -180844.36, -177846.39, -187500.02, -187500.02, -187500.02, -187500.02, -187500.02, -141877.73, 0.000, 0.000, 0.000, 16:32:47.992, 1578580367992
99, -177440.14, -178132.09, -184343.34, -184202.39, -179196.16, -179548.42, -178862.00, -179704.64, 0.000, 0.000, 0.000, 16:32:47.992, 1578580367992
100, -180849.48, -177854.17, -187500.02, -187500.02, -187500.02, -187500.02, -187500.02, -141870.05, 0.000, 0.000, 0.000, 16:32:47.992, 1578580367992
101, -177449.08, -178146.23, -184349.30, -184208.39, -179220.30, -179569.50, -178889.81, -179734.70, 0.000, 0.000, 0.000, 16:32:47.992, 1578580367992
102, -180855.77, -177863.27, -187500.02, -187500.02, -187500.02, -187500.02, -187500.02, -141863.67, 0.002, -0.016, 0.976, 16:32:47.992, 1578580367992
103, -177456.53, -178159.06, -184354.48, -184213.55, -179241.72, -179589.52, -178915.25, -179763.20, 0.000, 0.000, 0.000, 16:32:47.992, 1578580367992
104, -180858.03, -177869.25, -187500.02, -187500.02, -187500.02, -187500.02, -187500.02, -141853.55, 0.000, 0.000, 0.000, 16:32:48.467, 1578580368467
105, -177461.22, -178170.47, -184356.75, -184215.94, -179261.98, -179606.52, -178939.08, -179790.23, 0.000, 0.000, 0.000, 16:32:48.467, 1578580368467
106, -180861.69, -177877.52, -187500.02, -187500.02, -187500.02, -187500.02, -187500.02, -141845.11, 0.000, 0.000, 0.000, 16:32:48.467, 1578580368467
107, -177468.86, -178183.30, -184360.33, -184219.42, -179283.94, -179625.47, -178965.22, -179818.95, 0.000, 0.000, 0.000, 16:32:48.467, 1578580368467
108, -180864.97, -177883.61, -187500.02, -187500.02, -187500.02, -187500.02, -187500.02, -141836.77, 0.000, 0.000, 0.000, 16:32:48.467, 1578580368467
109, -177478.05, -178197.48, -184362.34, -184221.44, -179308.77, -179645.92, -178992.88, -179850.42, 0.000, 0.000, 0.000, 16:32:48.467, 1578580368467
110, -180866.67, -177884.08, -187500.02, -187500.02, -187500.02, -187500.02, -187500.02, -141827.17, 0.000, 0.000, 0.000, 16:32:48.467, 1578580368467
111, -177486.03, -178211.08, -184365.03, -184224.19, -179330.97, -179665.31, -179018.94, -179878.63, 0.000, 0.000, 0.000, 16:32:48.467, 1578580368467
112, -180870.72, -177891.94, -187500.02, -187500.02, -187500.02, -187500.02, -187500.02, -141819.67, 0.002, -0.018, 0.986, 16:32:48.467, 1578580368467
113, -177492.25, -178222.45, -184369.25, -184228.41, -179351.28, -179683.00, -179044.02, -179905.39, 0.000, 0.000, 0.000, 16:32:48.467, 1578580368467
114, -180875.70, -177900.64, -187500.02, -187500.02, -187500.02, -187500.02, -187500.02, -141813.28, 0.000, 0.000, 0.000, 16:32:48.467, 1578580368467
115, -177499.59, -178235.16, -184373.23, -184232.45, -179372.91, -179702.19, -179070.02, -179933.14, 0.000, 0.000, 0.000, 16:32:48.467, 1578580368467
116, -180878.94, -177906.38, -187500.02, -187500.02, -187500.02, -187500.02, -187500.02, -141805.63, 0.000, 0.000, 0.000, 16:32:48.467, 1578580368467
117, -177509.09, -178250.06, -184379.06, -184238.31, -179396.91, -179723.47, -179098.11, -179964.58, 0.000, 0.000, 0.000, 16:32:48.467, 1578580368467
118, -180884.70, -177917.08, -187500.02, -187500.02, -187500.02, -187500.02, -187500.02, -141800.48, 0.000, 0.000, 0.000, 16:32:48.467, 1578580368467
119, -177517.03, -178262.70, -184383.47, -184242.70, -179419.06, -179742.83, -179123.55, -179994.09, 0.000, 0.000, 0.000, 16:32:48.467, 1578580368467
120, -180888.84, -177922.14, -187500.02, -187500.02, -187500.02, -187500.02, -187500.02, -141794.50, 0.000, 0.000, 0.000, 16:32:48.468, 1578580368468
121, -177521.84, -178274.42, -184386.53, -184245.69, -179439.42, -179760.97, -179147.91, -180021.80, 0.000, -0.014, 0.982, 16:32:48.468, 1578580368468
122, -180891.72, -177925.56, -187500.02, -187500.02, -187500.02, -187500.02, -187500.02, -141787.19, 0.000, 0.000, 0.000, 16:32:48.468, 1578580368468
123, -177530.20, -178287.66, -184388.83, -184248.00, -179461.56, -179779.83, -179174.28, -180049.95, 0.000, 0.000, 0.000, 16:32:48.468, 1578580368468
124, -180894.56, -177930.05, -187500.02, -187500.02, -187500.02, -187500.02, -187500.02, -141779.77, 0.000, 0.000, 0.000, 16:32:48.468, 1578580368468
125, -177538.67, -178300.78, -184391.78, -184250.98, -179484.48, -179800.06, -179202.13, -180080.06, 0.000, 0.000, 0.000, 16:32:48.468, 1578580368468
126, -180898.92, -177939.91, -187500.02, -187500.02, -187500.02, -187500.02, -187500.02, -141773.78, 0.000, 0.000, 0.000, 16:32:48.468, 1578580368468
127, -177545.95, -178315.27, -184397.11, -184256.39, -179506.36, -179819.38, -179228.22, -180108.55, 0.000, 0.000, 0.000, 16:32:48.468, 1578580368468
128, -180901.38, -177945.25, -187500.02, -187500.02, -187500.02, -187500.02, -187500.02, -141766.56, 0.000, 0.000, 0.000, 16:32:48.468, 1578580368468
129, -177551.55, -178326.80, -184399.72, -184258.88, -179527.23, -179837.66, -179251.97, -180136.06, 0.000, 0.000, 0.000, 16:32:48.468, 1578580368468
130, -180904.17, -177950.05, -187500.02, -187500.02, -187500.02, -187500.02, -187500.02, -141760.09, 0.000, 0.000, 0.000, 16:32:48.468, 1578580368468
131, -177560.39, -178340.11, -184402.47, -184261.63, -179549.67, -179857.27, -179277.64, -180164.27, -0.002, -0.012, 0.976, 16:32:48.468, 1578580368468
132, -180907.38, -177955.11, -187500.02, -187500.02, -187500.02, -187500.02, -187500.02, -141754.16, 0.000, 0.000, 0.000, 16:32:48.468, 1578580368468
133, -177569.88, -178354.47, -184406.89, -184265.98, -179573.48, -179878.34, -179305.39, -180194.30, 0.000, 0.000, 0.000, 16:32:48.468, 1578580368468
134, -180912.36, -177962.91, -187500.02, -187500.02, -187500.02, -187500.02, -187500.02, -141749.94, 0.000, 0.000, 0.000, 16:32:48.468, 1578580368468
135, -177578.38, -178367.63, -184411.61, -184270.75, -179595.52, -179897.36, -179331.66, -180223.73, 0.000, 0.000, 0.000, 16:32:48.468, 1578580368468
136, -180916.20, -177970.03, -187500.02, -187500.02, -187500.02, -187500.02, -187500.02, -141744.83, 0.000, 0.000, 0.000, 16:32:48.468, 1578580368468
137, -177583.84, -178379.47, -184414.36, -184273.47, -179615.50, -179914.73, -179355.39, -180250.67, 0.000, 0.000, 0.000, 16:32:48.468, 1578580368468
138, -180918.83, -177974.58, -187500.02, -187500.02, -187500.02, -187500.02, -187500.02, -141738.83, 0.000, 0.000, 0.000, 16:32:48.468, 1578580368468
139, -177591.36, -178392.80, -184417.78, -184276.88, -179637.83, -179933.38, -179380.44, -180279.80, 0.000, 0.000, 0.000, 16:32:48.468, 1578580368468
140, -180922.44, -177982.05, -187500.02, -187500.02, -187500.02, -187500.02, -187500.02, -141733.81, 0.000, 0.000, 0.000, 16:32:48.468, 1578580368468
141, -177600.98, -178407.50, -184422.84, -184281.97, -179661.91, -179955.31, -179407.52, -180310.98, -0.004, -0.018, 0.968, 16:32:48.469, 1578580368469
142, -180926.69, -177987.81, -187500.02, -187500.02, -187500.02, -187500.02, -187500.02, -141729.95, 0.000, 0.000, 0.000, 16:32:48.469, 1578580368469
143, -177609.64, -178420.42, -184426.19, -184285.30, -179684.73, -179974.47, -179434.30, -180339.98, 0.000, 0.000, 0.000, 16:32:48.469, 1578580368469
144, -180930.39, -177996.45, -187500.02, -187500.02, -187500.02, -187500.02, -187500.02, -141725.50, 0.000, 0.000, 0.000, 16:32:48.469, 1578580368469
145, -177615.78, -178432.58, -184432.31, -184291.41, -179704.98, -179992.28, -179458.33, -180366.13, 0.000, 0.000, 0.000, 16:32:48.469, 1578580368469
146, -180934.70, -178005.89, -187500.02, -187500.02, -187500.02, -187500.02, -187500.02, -141722.08, 0.000, 0.000, 0.000, 16:32:48.469, 1578580368469
147, -177622.53, -178445.48, -184436.11, -184295.16, -179727.78, -180012.38, -179484.59, -180395.63, 0.000, 0.000, 0.000, 16:32:48.469, 1578580368469
148, -180936.81, -178008.64, -187500.02, -187500.02, -187500.02, -187500.02, -187500.02, -141717.19, 0.000, 0.000, 0.000, 16:32:48.469, 1578580368469
149, -177632.39, -178460.64, -184437.92, -184297.13, -179752.09, -180034.73, -179512.55, -180426.50, 0.000, 0.000, 0.000, 16:32:48.469, 1578580368469
150, -180941.88, -178014.66, -187500.02, -187500.02, -187500.02, -187500.02, -187500.02, -141715.20, 0.000, 0.000, 0.000, 16:32:48.469, 1578580368469
151, -177640.97, -178473.94, -184444.89, -184304.03, -179774.50, -180055.05, -179538.19, -180456.16, -0.002, -0.014, 0.972, 16:32:48.469, 1578580368469
152, -180945.70, -178019.17, -187500.02, -187500.02, -187500.02, -187500.02, -187500.02, -141711.91, 0.000, 0.000, 0.000, 16:32:48.469, 1578580368469
153, -177647.75, -178486.41, -184444.89, -184304.09, -179794.94, -180072.70, -179563.72, -180485.25, 0.000, 0.000, 0.000, 16:32:48.469, 1578580368469
154, -180946.78, -178022.83, -187500.02, -187500.02, -187500.02, -187500.02, -187500.02, -141705.58, 0.000, 0.000, 0.000, 16:32:48.469, 1578580368469
155, -177656.22, -178499.23, -184448.94, -184308.05, -179817.86, -180092.72, -179590.81, -180515.50, 0.000, 0.000, 0.000, 16:32:48.469, 1578580368469
156, -180950.28, -178031.64, -187500.02, -187500.02, -187500.02, -187500.02, -187500.02, -141701.92, 0.000, 0.000, 0.000, 16:32:48.469, 1578580368469
157, -177667.97, -178513.92, -184453.03, -184312.20, -179843.19, -180115.56, -179619.63, -180547.64, 0.000, 0.000, 0.000, 16:32:48.469, 1578580368469
158, -180953.25, -178036.48, -187500.02, -187500.02, -187500.02, -187500.02, -187500.02, -141698.59, 0.000, 0.000, 0.000, 16:32:48.469, 1578580368469
159, -177676.56, -178528.05, -184456.69, -184315.77, -179866.88, -180136.39, -179647.94, -180579.22, 0.000, 0.000, 0.000, 16:32:48.469, 1578580368469
160, -180957.69, -178042.41, -187500.02, -187500.02, -187500.02, -187500.02, -187500.02, -141696.80, -0.002, -0.018, 0.978, 16:32:48.469, 1578580368469
161, -177683.06, -178541.22, -184460.47, -184319.67, -179888.02, -180155.61, -179673.70, -180608.91, 0.000, 0.000, 0.000, 16:32:48.470, 1578580368470
162, -180959.27, -178043.19, -187500.02, -187500.02, -187500.02, -187500.02, -187500.02, -141692.20, 0.000, 0.000, 0.000, 16:32:48.470, 1578580368470
163, -177692.66, -178555.23, -184460.17, -184319.34, -179911.20, -180176.28, -179700.89, -180639.34, 0.000, 0.000, 0.000, 16:32:48.470, 1578580368470
164, -180962.02, -178047.23, -187500.02, -187500.02, -187500.02, -187500.02, -187500.02, -141688.63, 0.000, 0.000, 0.000, 16:32:48.470, 1578580368470
165, -177703.09, -178570.83, -184466.59, -184325.64, -179936.63, -180198.48, -179729.00, -180670.23, 0.000, 0.000, 0.000, 16:32:48.470, 1578580368470
166, -180966.69, -178057.59, -187500.02, -187500.02, -187500.02, -187500.02, -187500.02, -141686.72, 0.000, 0.000, 0.000, 16:32:48.470, 1578580368470
167, -177711.94, -178584.22, -184470.84, -184329.98, -179959.36, -180219.03, -179755.20, -180701.16, 0.000, 0.000, 0.000, 16:32:48.470, 1578580368470
168, -180970.06, -178062.53, -187500.02, -187500.02, -187500.02, -187500.02, -187500.02, -141684.47, 0.000, 0.000, 0.000, 16:32:48.470, 1578580368470
169, -177718.72, -178597.19, -184472.77, -184331.92, -179980.06, -180237.00, -179780.58, -180729.89, 0.000, 0.000, 0.000, 16:32:48.470, 1578580368470
170, -180970.52, -178062.31, -187500.02, -187500.02, -187500.02, -187500.02, -187500.02, -141679.30, -0.002, -0.014, 0.980, 16:32:48.470, 1578580368470
171, -177728.19, -178610.66, -184473.55, -184332.66, -180002.39, -180256.33, -179807.75, -180759.80, 0.000, 0.000, 0.000, 16:32:48.470, 1578580368470
172, -180972.34, -178067.88, -187500.02, -187500.02, -187500.02, -187500.02, -187500.02, -141675.14, 0.000, 0.000, 0.000, 16:32:48.470, 1578580368470
173, -177739.05, -178625.72, -184478.33, -184337.52, -180027.56, -180278.23, -179835.92, -180791.36, 0.000, 0.000, 0.000, 16:32:48.470, 1578580368470
174, -180976.06, -178076.23, -187500.02, -187500.02, -187500.02, -187500.02, -187500.02, -141673.22, 0.000, 0.000, 0.000, 16:32:48.470, 1578580368470
175, -177748.70, -178639.50, -184482.80, -184342.03, -180051.09, -180299.09, -179862.81, -180819.92, 0.000, 0.000, 0.000, 16:32:48.470, 1578580368470
176, -180980.09, -178081.75, -187500.02, -187500.02, -187500.02, -187500.02, -187500.02, -141672.30, 0.000, 0.000, 0.000, 16:32:48.470, 1578580368470
177, -177754.92, -178651.77, -184485.34, -184344.58, -180071.97, -180316.77, -179887.80, -180848.66, 0.000, 0.000, 0.000, 16:32:48.470, 1578580368470
178, -180982.00, -178085.19, -187500.02, -187500.02, -187500.02, -187500.02, -187500.02, -141669.27, 0.000, 0.000, 0.000, 16:32:48.470, 1578580368470
179, -177763.78, -178665.78, -184488.81, -184348.05, -180095.05, -180336.44, -179914.33, -180878.73, 0.000, 0.000, 0.000, 16:32:48.470, 1578580368470
180, -180984.80, -178089.27, -187500.02, -187500.02, -187500.02, -187500.02, -187500.02, -141667.23, 0.000, -0.016, 0.978, 16:32:48.470, 1578580368470
181, -177774.39, -178681.14, -184490.94, -184350.09, -180120.08, -180357.25, -179941.28, -180910.39, 0.000, 0.000, 0.000, 16:32:48.471, 1578580368471
182, -180987.83, -178093.59, -187500.02, -187500.02, -187500.02, -187500.02, -187500.02, -141665.42, 0.000, 0.000, 0.000, 16:32:48.471, 1578580368471
183, -177783.95, -178694.95, -184496.23, -184355.38, -180142.48, -180377.20, -179968.47, -180939.28, 0.000, 0.000, 0.000, 16:32:48.471, 1578580368471
184, -180992.08, -178101.02, -187500.02, -187500.02, -187500.02, -187500.02, -187500.02, -141664.77, 0.000, 0.000, 0.000, 16:32:48.471, 1578580368471
185, -177791.00, -178707.06, -184500.34, -184359.38, -180163.72, -180395.00, -179993.86, -180966.06, 0.000, 0.000, 0.000, 16:32:48.471, 1578580368471
186, -180996.38, -178104.86, -187500.02, -187500.02, -187500.02, -187500.02, -187500.02, -141664.81, 0.000, 0.000, 0.000, 16:32:48.471, 1578580368471
187, -177798.78, -178720.75, -184505.03, -184364.05, -180187.16, -180415.08, -180019.41, -180995.77, 0.000, 0.000, 0.000, 16:32:48.471, 1578580368471
188, -181001.38, -178112.19, -187500.02, -187500.02, -187500.02, -187500.02, -187500.02, -141665.22, 0.000, 0.000, 0.000, 16:32:48.471, 1578580368471
189, -177809.86, -178735.92, -184509.59, -184368.69, -180212.20, -180435.23, -180046.42, -181026.97, 0.000, 0.000, 0.000, 16:32:48.471, 1578580368471
190, -181003.77, -178116.31, -187500.02, -187500.02, -187500.02, -187500.02, -187500.02, -141663.11, -0.004, -0.016, 0.978, 16:32:48.471, 1578580368471
191, -177819.31, -178750.06, -184511.31, -184370.44, -180234.53, -180455.47, -180073.47, -181056.48, 0.000, 0.000, 0.000, 16:32:48.471, 1578580368471
192, -181005.34, -178117.47, -187500.02, -187500.02, -187500.02, -187500.02, -187500.02, -141660.55, 0.000, 0.000, 0.000, 16:32:48.471, 1578580368471
193, -177826.00, -178762.19, -184513.11, -184372.30, -180255.39, -180473.67, -180098.58, -181083.67, 0.000, 0.000, 0.000, 16:32:48.471, 1578580368471
194, -181007.28, -178122.77, -187500.02, -187500.02, -187500.02, -187500.02, -187500.02, -141657.94, 0.000, 0.000, 0.000, 16:32:48.471, 1578580368471
195, -177834.50, -178776.53, -184517.06, -184376.22, -180277.88, -180493.42, -180124.67, -181113.09, 0.000, 0.000, 0.000, 16:32:48.471, 1578580368471
196, -181010.70, -178129.30, -187500.02, -187500.02, -187500.02, -187500.02, -187500.02, -141657.11, 0.000, 0.000, 0.000, 16:32:48.471, 1578580368471
197, -177845.11, -178790.80, -184520.13, -184379.28, -180302.52, -180514.67, -180153.00, -181144.19, 0.000, 0.000, 0.000, 16:32:48.471, 1578580368471
198, -181012.28, -178133.41, -187500.02, -187500.02, -187500.02, -187500.02, -187500.02, -141654.89, 0.000, 0.000, 0.000, 16:32:48.471, 1578580368471
199, -177853.14, -178804.42, -184524.31, -184383.41, -180324.81, -180534.45, -180179.02, -181173.59, -0.002, -0.018, 0.978, 16:32:48.471, 1578580368471
200, -181016.09, -178141.28, -187500.02, -187500.02, -187500.02, -187500.02, -187500.02, -141654.98, 0.000, 0.000, 0.000, 16:32:48.471, 1578580368471
201, -177860.14, -178816.05, -184528.50, -184387.52, -180344.66, -180552.92, -180202.75, -181200.06, 0.000, 0.000, 0.000, 16:32:48.471, 1578580368471
202, -181018.81, -178145.98, -187500.02, -187500.02, -187500.02, -187500.02, -187500.02, -141654.58, 0.000, 0.000, 0.000, 16:32:48.471, 1578580368471
203, -177869.03, -178830.48, -184531.97, -184391.00, -180366.64, -180572.31, -180228.75, -181229.56, 0.000, 0.000, 0.000, 16:32:48.472, 1578580368472
204, -181021.98, -178151.59, -187500.02, -187500.02, -187500.02, -187500.02, -187500.02, -141654.47, 0.000, 0.000, 0.000, 16:32:48.472, 1578580368472
205, -177878.22, -178845.95, -184536.33, -184395.38, -180390.84, -180593.86, -180255.75, -181259.78, 0.000, 0.000, 0.000, 16:32:48.472, 1578580368472
206, -181026.22, -178155.31, -187500.02, -187500.02, -187500.02, -187500.02, -187500.02, -141655.88, 0.000, 0.000, 0.000, 16:32:48.472, 1578580368472
207, -177886.16, -178859.80, -184539.86, -184398.91, -180412.91, -180612.17, -180282.75, -181288.25, 0.000, 0.000, 0.000, 16:32:48.472, 1578580368472
208, -181028.81, -178159.58, -187500.02, -187500.02, -187500.02, -187500.02, -187500.02, -141655.36, 0.000, 0.000, 0.000, 16:32:48.472, 1578580368472
209, -177893.34, -178871.45, -184542.28, -184401.33, -180434.05, -180629.06, -180305.61, -181315.63, -0.002, -0.018, 0.972, 16:32:48.472, 1578580368472
210, -181030.66, -178163.06, -187500.02, -187500.02, -187500.02, -187500.02, -187500.02, -141654.20, 0.000, 0.000, 0.000, 16:32:48.472, 1578580368472
211, -177900.44, -178883.78, -184545.23, -184404.33, -180454.17, -180648.16, -180331.52, -181343.78, 0.000, 0.000, 0.000, 16:32:48.472, 1578580368472
212, -181033.97, -178167.02, -187500.02, -187500.02, -187500.02, -187500.02, -187500.02, -141654.78, 0.000, 0.000, 0.000, 16:32:48.472, 1578580368472
213, -177910.58, -178898.50, -184549.66, -184408.69, -180477.80, -180668.83, -180358.13, -181373.33, 0.000, 0.000, 0.000, 16:32:48.472, 1578580368472
214, -181036.50, -178173.14, -187500.02, -187500.02, -187500.02, -187500.02, -187500.02, -141654.27, 0.000, 0.000, 0.000, 16:32:48.472, 1578580368472
215, -177918.22, -178912.52, -184553.00, -184411.92, -180500.45, -180688.33, -180382.69, -181402.59, 0.000, 0.000, 0.000, 16:32:48.472, 1578580368472
216, -181040.81, -178179.56, -187500.02, -187500.02, -187500.02, -187500.02, -187500.02, -141655.88, 0.000, 0.000, 0.000, 16:32:48.472, 1578580368472
217, -177924.06, -178924.13, -184558.48, -184417.42, -180520.03, -180706.03, -180405.27, -181429.80, 0.000, 0.000, 0.000, 16:32:48.472, 1578580368472
218, -181044.75, -178184.34, -187500.02, -187500.02, -187500.02, -187500.02, -187500.02, -141657.48, 0.000, 0.000, 0.000, 16:32:48.472, 1578580368472
219, -177931.77, -178937.31, -184561.80, -184420.84, -180541.69, -180724.86, -180429.72, -181457.56, 0.000, -0.018, 0.972, 16:32:48.472, 1578580368472
220, -181048.08, -178191.31, -187500.02, -187500.02, -187500.02, -187500.02, -187500.02, -141658.25, 0.000, 0.000, 0.000, 16:32:48.472, 1578580368472
221, -177941.19, -178951.80, -184568.88, -184427.81, -180564.77, -180745.31, -180455.64, -181487.28, 0.000, 0.000, 0.000, 16:32:48.472, 1578580368472
222, -181053.13, -178200.73, -187500.02, -187500.02, -187500.02, -187500.02, -187500.02, -141661.31, 0.000, 0.000, 0.000, 16:32:48.472, 1578580368472
223, -177948.42, -178964.69, -184572.42, -184431.39, -180586.63, -180764.09, -180481.14, -181514.27, 0.000, 0.000, 0.000, 16:32:48.472, 1578580368472
224, -181054.20, -178200.84, -187500.02, -187500.02, -187500.02, -187500.02, -187500.02, -141660.69, 0.000, 0.000, 0.000, 16:32:48.948, 1578580368948
225, -177954.23, -178976.52, -184575.20, -184434.14, -180606.36, -180781.19, -180503.92, -181540.17, 0.000, 0.000, 0.000, 16:32:48.948, 1578580368948
226, -181058.02, -178208.47, -187500.02, -187500.02, -187500.02, -187500.02, -187500.02, -141662.67, 0.000, 0.000, 0.000, 16:32:48.948, 1578580368948
227, -177962.69, -178989.70, -184578.58, -184437.52, -180627.86, -180800.19, -180529.73, -181568.73, 0.000, 0.000, 0.000, 16:32:48.948, 1578580368948
228, -181059.77, -178211.70, -187500.02, -187500.02, -187500.02, -187500.02, -187500.02, -141662.84, 0.000, 0.000, 0.000, 16:32:48.948, 1578580368948
229, -177972.52, -179005.42, -184582.31, -184441.34, -180652.41, -180821.66, -180557.19, -181599.30, 0.002, -0.016, 0.976, 16:32:48.948, 1578580368948
230, -181062.38, -178216.84, -187500.02, -187500.02, -187500.02, -187500.02, -187500.02, -141664.13, 0.000, 0.000, 0.000, 16:32:48.948, 1578580368948
231, -177980.14, -179018.53, -184585.28, -184444.23, -180673.80, -180839.69, -180582.05, -181627.00, 0.000, 0.000, 0.000, 16:32:48.948, 1578580368948
232, -181064.81, -178220.22, -187500.02, -187500.02, -187500.02, -187500.02, -187500.02, -141665.23, 0.000, 0.000, 0.000, 16:32:48.948, 1578580368948
233, -177984.55, -179029.33, -184588.72, -184447.66, -180694.02, -180856.50, -180605.38, -181653.38, 0.000, 0.000, 0.000, 16:32:48.949, 1578580368949
234, -181067.86, -178226.19, -187500.02, -187500.02, -187500.02, -187500.02, -187500.02, -141667.08, 0.000, 0.000, 0.000, 16:32:48.949, 1578580368949
235, -177992.20, -179043.91, -184593.47, -184452.41, -180715.45, -180875.20, -180629.48, -181681.19, 0.000, 0.000, 0.000, 16:32:48.949, 1578580368949
236, -181071.81, -178233.16, -187500.02, -187500.02, -187500.02, -187500.02, -187500.02, -141669.91, 0.000, 0.000, 0.000, 16:32:48.949, 1578580368949
237, -178002.17, -179058.05, -184598.16, -184457.08, -180737.97, -180894.94, -180656.20, -181710.72, 0.000, 0.000, 0.000, 16:32:48.949, 1578580368949
238, -181073.78, -178237.92, -187500.02, -187500.02, -187500.02, -187500.02, -187500.02, -141671.05, 0.000, 0.000, 0.000, 16:32:48.949, 1578580368949
239, -178010.19, -179070.38, -184602.00, -184460.94, -180760.23, -180913.66, -180681.77, -181738.03, 0.002, -0.014, 0.980, 16:32:48.949, 1578580368949
240, -181078.36, -178243.95, -187500.02, -187500.02, -187500.02, -187500.02, -187500.02, -141675.14, 0.000, 0.000, 0.000, 16:32:48.949, 1578580368949
241, -178015.97, -179081.41, -184606.53, -184465.44, -180779.30, -180930.84, -180705.13, -181763.59, 0.000, 0.000, 0.000, 16:32:48.949, 1578580368949
242, -181080.39, -178248.73, -187500.02, -187500.02, -187500.02, -187500.02, -187500.02, -141676.64, 0.000, 0.000, 0.000, 16:32:48.949, 1578580368949
243, -178023.59, -179094.33, -184610.09, -184469.00, -180800.45, -180948.73, -180728.58, -181791.48, 0.000, 0.000, 0.000, 16:32:48.949, 1578580368949
244, -181082.94, -178255.77, -187500.02, -187500.02, -187500.02, -187500.02, -187500.02, -141678.58, 0.000, 0.000, 0.000, 16:32:48.949, 1578580368949
245, -178032.80, -179109.02, -184615.36, -184474.28, -180823.14, -180969.69, -180754.94, -181821.06, 0.000, 0.000, 0.000, 16:32:48.949, 1578580368949
246, -181086.88, -178261.91, -187500.02, -187500.02, -187500.02, -187500.02, -187500.02, -141682.61, 0.000, 0.000, 0.000, 16:32:48.949, 1578580368949
247, -178040.05, -179121.91, -184619.80, -184478.66, -180844.16, -180988.30, -180780.02, -181849.50, 0.000, 0.000, 0.000, 16:32:48.949, 1578580368949
248, -181089.67, -178266.52, -187500.02, -187500.02, -187500.02, -187500.02, -187500.02, -141685.72, 0.000, -0.014, 0.976, 16:32:48.949, 1578580368949
249, -178045.41, -179133.17, -184622.97, -184481.88, -180864.36, -181005.31, -180803.28, -181875.88, 0.000, 0.000, 0.000, 16:32:48.949, 1578580368949
250, -181092.27, -178269.58, -187500.02, -187500.02, -187500.02, -187500.02, -187500.02, -141688.64, 0.000, 0.000, 0.000, 16:32:48.949, 1578580368949
251, -178053.05, -179147.11, -184625.48, -184484.44, -180885.98, -181024.77, -180827.78, -181903.94, 0.000, 0.000, 0.000, 16:32:48.949, 1578580368949
252, -181093.56, -178271.56, -187500.02, -187500.02, -187500.02, -187500.02, -187500.02, -141690.30, 0.000, 0.000, 0.000, 16:32:48.949, 1578580368949
253, -178063.02, -179162.48, -184629.19, -184488.08, -180910.67, -181046.11, -180855.67, -181934.14, 0.000, 0.000, 0.000, 16:32:48.950, 1578580368950
254, -181097.56, -178279.56, -187500.02, -187500.02, -187500.02, -187500.02, -187500.02, -141694.45, 0.000, 0.000, 0.000, 16:32:48.950, 1578580368950
255, -178070.28, -179175.33, -184634.77, -184493.58, -180932.58, -181064.34, -180881.17, -181962.80, 0.000, 0.000, 0.000, 16:32:48.950, 1578580368950
0, -181100.20, -178286.94, -187500.02, -187500.02, -187500.02, -187500.02, -187500.02, -141697.50, 0.000, 0.000, 0.000, 16:32:48.950, 1578580368950
1, -178076.36, -179187.33, -184638.20, -184497.14, -180952.86, -181081.52, -180904.17, -181989.97, 0.000, 0.000, 0.000, 16:32:48.950, 1578580368950
2, -181102.52, -178289.88, -187500.02, -187500.02, -187500.02, -187500.02, -187500.02, -141700.84, -0.002, -0.014, 0.980, 16:32:48.950, 1578580368950
3, -178084.56, -179201.16, -184643.00, -184501.89, -180974.61, -181100.28, -180929.11, -182019.14, 0.000, 0.000, 0.000, 16:32:48.950, 1578580368950
4, -181107.27, -178298.11, -187500.02, -187500.02, -187500.02, -187500.02, -187500.02, -141706.48, 0.000, 0.000, 0.000, 16:32:48.950, 1578580368950
5, -178094.31, -179215.98, -184648.77, -184507.70, -180997.98, -181121.23, -180956.67, -182048.81, 0.000, 0.000, 0.000, 16:32:48.950, 1578580368950
6, -181110.80, -178302.50, -187500.02, -187500.02, -187500.02, -187500.02, -187500.02, -141711.27, 0.000, 0.000, 0.000, 16:32:48.950, 1578580368950
7, -178102.31, -179229.72, -184651.84, -184510.83, -181018.77, -181140.23, -180980.53, -182077.97, 0.000, 0.000, 0.000, 16:32:48.950, 1578580368950
8, -181113.16, -178305.64, -187500.02, -187500.02, -187500.02, -187500.02, -187500.02, -141715.06, 0.000, 0.000, 0.000, 16:32:48.950, 1578580368950
9, -178108.30, -179241.61, -184655.88, -184514.77, -181038.97, -181157.81, -181003.66, -182105.94, 0.000, 0.000, 0.000, 16:32:48.950, 1578580368950
10, -181115.59, -178309.42, -187500.02, -187500.02, -187500.02, -187500.02, -187500.02, -141718.81, 0.000, 0.000, 0.000, 16:32:48.950, 1578580368950
11, -178115.77, -179254.13, -184658.02, -184516.81, -181061.02, -181176.66, -181030.39, -182134.80, 0.000, 0.000, 0.000, 16:32:48.950, 1578580368950
12, -181117.16, -178314.39, -187500.02, -187500.02, -187500.02, -187500.02, -187500.02, -141721.45, -0.002, -0.016, 0.980, 16:32:48.950, 1578580368950
13, -178126.41, -179268.83, -184663.72, -184522.58, -181084.27, -181198.13, -181057.17, -182165.06, 0.000, 0.000, 0.000, 16:32:48.950, 1578580368950
14, -181120.38, -178318.81, -187500.02, -187500.02, -187500.02, -187500.02, -187500.02, -141726.33, 0.000, 0.000, 0.000, 16:32:48.951, 1578580368951
15, -178134.45, -179281.97, -184664.97, -184523.84, -181106.66, -181218.08, -181083.20, -182194.72, 0.000, 0.000, 0.000, 16:32:48.951, 1578580368951
16, -181121.47, -178320.02, -187500.02, -187500.02, -187500.02, -187500.02, -187500.02, -141729.25, 0.000, 0.000, 0.000, 16:32:48.951, 1578580368951
17, -178140.72, -179294.13, -184668.52, -184527.39, -181127.06, -181235.05, -181107.16, -182222.86, 0.000, 0.000, 0.000, 16:32:48.951, 1578580368951
18, -181124.61, -178323.89, -187500.02, -187500.02, -187500.02, -187500.02, -187500.02, -141734.11, 0.000, 0.000, 0.000, 16:32:48.951, 1578580368951
19, -178148.03, -179306.66, -184671.89, -184530.70, -181150.27, -181253.67, -181132.72, -182251.84, 0.000, 0.000, 0.000, 16:32:48.951, 1578580368951
20, -181125.55, -178327.98, -187500.02, -187500.02, -187500.02, -187500.02, -187500.02, -141736.50, 0.000, 0.000, 0.000, 16:32:48.951, 1578580368951
21, -178157.66, -179322.41, -184674.58, -184533.47, -181174.34, -181274.83, -181159.88, -182282.92, 0.000, 0.000, 0.000, 16:32:48.951, 1578580368951
22, -181129.20, -178332.53, -187500.02, -187500.02, -187500.02, -187500.02, -187500.02, -141742.02, 0.000, -0.012, 0.980, 16:32:48.951, 1578580368951
23, -178165.86, -179335.45, -184680.56, -184539.58, -181196.11, -181294.20, -181185.11, -182312.11, 0.000, 0.000, 0.000, 16:32:48.951, 1578580368951
24, -181133.70, -178340.81, -187500.02, -187500.02, -187500.02, -187500.02, -187500.02, -141748.52, 0.000, 0.000, 0.000, 16:32:48.951, 1578580368951
25, -178172.55, -179347.17, -184685.50, -184544.41, -181215.78, -181311.63, -181208.92, -182339.64, 0.000, 0.000, 0.000, 16:32:48.951, 1578580368951
26, -181135.84, -178342.59, -187500.02, -187500.02, -187500.02, -187500.02, -187500.02, -141752.95, 0.000, 0.000, 0.000, 16:32:48.951, 1578580368951
27, -178180.39, -179360.67, -184686.84, -184545.77, -181237.70, -181330.83, -181233.95, -182368.55, 0.000, 0.000, 0.000, 16:32:48.951, 1578580368951
28, -181136.83, -178344.50, -187500.02, -187500.02, -187500.02, -187500.02, -187500.02, -141755.98, 0.000, 0.000, 0.000, 16:32:48.951, 1578580368951
29, -178191.05, -179375.48, -184690.92, -184549.73, -181261.48, -181350.94, -181261.67, -182400.42, 0.000, 0.000, 0.000, 16:32:48.951, 1578580368951
30, -181139.61, -178347.69, -187500.02, -187500.02, -187500.02, -187500.02, -187500.02, -141761.06, 0.000, 0.000, 0.000, 16:32:48.951, 1578580368951
31, -178198.73, -179390.09, -184693.67, -184552.48, -181284.06, -181370.88, -181286.88, -182430.48, 0.000, -0.012, 0.978, 16:32:48.951, 1578580368951
32, -181142.80, -178353.53, -187500.02, -187500.02, -187500.02, -187500.02, -187500.02, -141766.20, 0.000, 0.000, 0.000, 16:32:48.951, 1578580368951
33, -178205.09, -179402.45, -184697.31, -184556.11, -181303.52, -181388.45, -181310.58, -182457.03, 0.000, 0.000, 0.000, 16:32:48.952, 1578580368952
34, -181144.05, -178355.30, -187500.02, -187500.02, -187500.02, -187500.02, -187500.02, -141769.88, 0.000, 0.000, 0.000, 16:32:48.952, 1578580368952
35, -178213.20, -179415.33, -184701.31, -184560.16, -181325.30, -181407.56, -181336.45, -182486.47, 0.000, 0.000, 0.000, 16:32:48.952, 1578580368952
36, -181147.31, -178361.50, -187500.02, -187500.02, -187500.02, -187500.02, -187500.02, -141775.48, 0.000, 0.000, 0.000, 16:32:48.952, 1578580368952
37, -178223.22, -179430.33, -184705.25, -184564.14, -181349.75, -181428.80, -181364.19, -182517.36, 0.000, 0.000, 0.000, 16:32:48.952, 1578580368952
38, -181150.73, -178366.47, -187500.02, -187500.02, -187500.02, -187500.02, -187500.02, -141781.42, 0.000, 0.000, 0.000, 16:32:48.952, 1578580368952
39, -178231.70, -179444.09, -184711.30, -184570.23, -181372.42, -181448.33, -181389.39, -182547.31, 0.000, 0.000, 0.000, 16:32:48.952, 1578580368952
40, -181154.83, -178373.53, -187500.02, -187500.02, -187500.02, -187500.02, -187500.02, -141788.05, 0.000, 0.000, 0.000, 16:32:48.952, 1578580368952
41, -178237.47, -179456.25, -184716.11, -184575.02, -181392.67, -181465.63, -181412.88, -182575.41, 0.000, -0.012, 0.978, 16:32:48.952, 1578580368952
42, -181154.77, -178375.98, -187500.02, -187500.02, -187500.02, -187500.02, -187500.02, -141790.98, 0.000, 0.000, 0.000, 16:32:48.952, 1578580368952
43, -178246.28, -179470.27, -184716.78, -184575.78, -181414.64, -181484.11, -181439.14, -182605.28, 0.000, 0.000, 0.000, 16:32:48.952, 1578580368952
44, -181157.06, -178379.30, -187500.02, -187500.02, -187500.02, -187500.02, -187500.02, -141796.22, 0.000, 0.000, 0.000, 16:32:48.952, 1578580368952
45, -178256.42, -179484.95, -184721.69, -184580.72, -181438.77, -181505.19, -181466.28, -182636.41, 0.000, 0.000, 0.000, 16:32:48.952, 1578580368952
46, -181161.19, -178385.63, -187500.02, -187500.02, -187500.02, -187500.02, -187500.02, -141803.34, 0.000, 0.000, 0.000, 16:32:48.952, 1578580368952
47, -178264.88, -179498.19, -184726.55, -184585.45, -181460.89, -181524.02, -181491.39, -182665.73, 0.000, 0.000, 0.000, 16:32:48.952, 1578580368952
48, -181162.89, -178389.48, -187500.02, -187500.02, -187500.02, -187500.02, -187500.02, -141808.38, 0.000, 0.000, 0.000, 16:32:48.952, 1578580368952
49, -178271.45, -179509.45, -184727.42, -184586.28, -181480.88, -181541.16, -181515.34, -182694.13, 0.000, 0.000, 0.000, 16:32:48.952, 1578580368952
50, -181163.81, -178391.25, -187500.02, -187500.02, -187500.02, -187500.02, -187500.02, -141812.66, 0.000, 0.000, 0.000, 16:32:48.952, 1578580368952
51, -178279.55, -179522.17, -184732.98, -184592.03, -181502.58, -181559.81, -181540.17, -182722.86, -0.004, -0.014, 0.976, 16:32:48.952, 1578580368952
52, -181167.78, -178398.78, -187500.02, -187500.02, -187500.02, -187500.02, -187500.02, -141819.95, 0.000, 0.000, 0.000, 16:32:48.953, 1578580368953
53, -178290.00, -179536.56, -184737.98, -184596.92, -181525.89, -181580.89, -181567.19, -182755.19, 0.000, 0.000, 0.000, 16:32:48.953, 1578580368953
54, -181170.67, -178401.73, -187500.02, -187500.02, -187500.02, -187500.02, -187500.02, -141826.63, 0.000, 0.000, 0.000, 16:32:48.953, 1578580368953
55, -178298.70, -179550.33, -184739.44, -184598.41, -181548.53, -181600.03, -181592.98, -182784.78, 0.000, 0.000, 0.000, 16:32:48.953, 1578580368953
56, -181171.23, -178402.08, -187500.02, -187500.02, -187500.02, -187500.02, -187500.02, -141830.75, 0.000, 0.000, 0.000, 16:32:48.953, 1578580368953
57, -178305.02, -179561.97, -184743.80, -184602.67, -181568.73, -181618.20, -181617.55, -182814.28, 0.000, 0.000, 0.000, 16:32:48.953, 1578580368953
58, -181174.52, -178408.06, -187500.02, -187500.02, -187500.02, -187500.02, -187500.02, -141837.53, 0.000, 0.000, 0.000, 16:32:48.953, 1578580368953
59, -178313.50, -179575.05, -184747.20, -184606.06, -181590.86, -181637.47, -181643.17, -182844.77, 0.000, 0.000, 0.000, 16:32:48.953, 1578580368953
60, -181176.94, -178411.73, -187500.02, -187500.02, -187500.02, -187500.02, -187500.02, -141843.73, 0.000, 0.000, 0.000, 16:32:48.953, 1578580368953
61, -178323.23, -179590.19, -184752.36, -184611.19, -181614.78, -181659.17, -181669.94, -182876.38, -0.002, -0.018, 0.978, 16:32:48.953, 1578580368953
62, -181179.59, -178415.75, -187500.02, -187500.02, -187500.02, -187500.02, -187500.02, -141850.20, 0.000, 0.000, 0.000, 16:32:48.953, 1578580368953
63, -178331.98, -179604.59, -184754.73, -184613.53, -181636.95, -181679.58, -181696.09, -182906.31, 0.000, 0.000, 0.000, 16:32:48.953, 1578580368953
64, -181181.05, -178417.83, -187500.02, -187500.02, -187500.02, -187500.02, -187500.02, -141855.47, 0.000, 0.000, 0.000, 16:32:48.953, 1578580368953
65, -178337.75, -179616.36, -184756.58, -184615.50, -181657.00, -181697.75, -181719.97, -182935.14, 0.000, 0.000, 0.000, 16:32:48.953, 1578580368953
66, -181182.56, -178422.23, -187500.02, -187500.02, -187500.02, -187500.02, -187500.02, -141860.75, 0.000, 0.000, 0.000, 16:32:48.953, 1578580368953
67, -178346.28, -179628.95, -184763.25, -184622.09, -181679.83, -181717.78, -181745.33, -182966.33, 0.000, 0.000, 0.000, 16:32:48.953, 1578580368953
68, -181186.08, -178428.61, -187500.02, -187500.02, -187500.02, -187500.02, -187500.02, -141868.38, 0.000, 0.000, 0.000, 16:32:48.953, 1578580368953
69, -178356.78, -179643.73, -184765.59, -184624.44, -181704.25, -181738.72, -181773.67, -182997.50, 0.000, 0.000, 0.000, 16:32:48.953, 1578580368953
70, -181187.17, -178430.38, -187500.02, -187500.02, -187500.02, -187500.02, -187500.02, -141873.77, 0.000, -0.020, 0.980, 16:32:48.953, 1578580368953
71, -178365.78, -179658.11, -184769.73, -184628.58, -181727.52, -181757.41, -181799.81, -183027.56, 0.000, 0.000, 0.000, 16:32:48.953, 1578580368953
72, -181189.84, -178435.17, -187500.02, -187500.02, -187500.02, -187500.02, -187500.02, -141880.67, 0.000, 0.000, 0.000, 16:32:48.953, 1578580368953
73, -178373.55, -179670.36, -184772.59, -184631.45, -181748.16, -181775.44, -181823.28, -183056.98, 0.000, 0.000, 0.000, 16:32:48.953, 1578580368953
74, -181191.95, -178438.69, -187500.02, -187500.02, -187500.02, -187500.02, -187500.02, -141887.28, 0.000, 0.000, 0.000, 16:32:48.954, 1578580368954
75, -178381.44, -179684.89, -184777.50, -184636.41, -181770.28, -181793.48, -181848.69, -183087.73, 0.000, 0.000, 0.000, 16:32:48.954, 1578580368954
76, -181194.88, -178444.72, -187500.02, -187500.02, -187500.02, -187500.02, -187500.02, -141894.70, 0.000, 0.000, 0.000, 16:32:48.954, 1578580368954
77, -178392.58, -179700.27, -184781.44, -184640.20, -181794.00, -181815.05, -181876.56, -183120.28, 0.000, 0.000, 0.000, 16:32:48.954, 1578580368954
78, -181196.48, -178446.75, -187500.02, -187500.02, -187500.02, -187500.02, -187500.02, -141901.05, 0.000, 0.000, 0.000, 16:32:48.954, 1578580368954
79, -178401.72, -179713.77, -184782.78, -184641.66, -181816.69, -181835.75, -181902.56, -183152.09, 0.000, 0.000, 0.000, 16:32:48.954, 1578580368954
80, -181197.30, -178447.77, -187500.02, -187500.02, -187500.02, -187500.02, -187500.02, -141906.69, -0.010, -0.018, 0.980, 16:32:48.954, 1578580368954
81, -178408.52, -179726.13, -184787.55, -184646.25, -181837.36, -181853.92, -181927.28, -183180.97, 0.000, 0.000, 0.000, 16:32:48.954, 1578580368954
82, -181200.78, -178451.92, -187500.02, -187500.02, -187500.02, -187500.02, -187500.02, -141915.11, 0.000, 0.000, 0.000, 16:32:48.954, 1578580368954
83, -178416.72, -179740.97, -184790.02, -184648.81, -181860.17, -181873.41, -181952.56, -183211.50, 0.000, 0.000, 0.000, 16:32:48.954, 1578580368954
84, -181201.55, -178454.00, -187500.02, -187500.02, -187500.02, -187500.02, -187500.02, -141920.45, 0.000, 0.000, 0.000, 16:32:48.954, 1578580368954
85, -178426.75, -179756.14, -184793.78, -184652.56, -181883.89, -181894.52, -181979.94, -183244.52, 0.000, 0.000, 0.000, 16:32:48.954, 1578580368954
86, -181203.94, -178456.81, -187500.02, -187500.02, -187500.02, -187500.02, -187500.02, -141927.50, 0.000, 0.000, 0.000, 16:32:48.954, 1578580368954
87, -178436.00, -179769.39, -184796.84, -184655.53, -181906.81, -181914.25, -182005.89, -183275.58, 0.000, 0.000, 0.000, 16:32:48.954, 1578580368954
88, -181206.38, -178462.09, -187500.02, -187500.02, -187500.02, -187500.02, -187500.02, -141934.59, 0.000, 0.000, 0.000, 16:32:48.954, 1578580368954
89, -178443.05, -179781.78, -184801.59, -184660.27, -181926.92, -181931.59, -182030.00, -183303.16, 0.000, 0.000, 0.000, 16:32:49.429, 1578580369429
90, -181208.84, -178466.45, -187500.02, -187500.02, -187500.02, -187500.02, -187500.02, -141942.05, -0.008, -0.020, 0.984, 16:32:49.429, 1578580369429
91, -178450.75, -179795.77, -184805.64, -184664.41, -181949.55, -181950.91, -182056.27, -183334.05, 0.000, 0.000, 0.000, 16:32:49.429, 1578580369429
92, -181210.75, -178468.06, -187500.02, -187500.02, -187500.02, -187500.02, -187500.02, -141949.08, 0.000, 0.000, 0.000, 16:32:49.429, 1578580369429
93, -178461.47, -179810.55, -184808.11, -184666.83, -181974.23, -181972.67, -182083.56, -183368.28, 0.000, 0.000, 0.000, 16:32:49.429, 1578580369429
94, -181213.41, -178472.61, -187500.02, -187500.02, -187500.02, -187500.02, -187500.02, -141956.64, 0.000, 0.000, 0.000, 16:32:49.429, 1578580369429
95, -178469.13, -179824.78, -184812.16, -184670.89, -181996.22, -181990.56, -182109.22, -183399.39, 0.000, 0.000, 0.000, 16:32:49.429, 1578580369429
96, -181213.75, -178475.56, -187500.02, -187500.02, -187500.02, -187500.02, -187500.02, -141962.03, 0.000, 0.000, 0.000, 16:32:49.429, 1578580369429
97, -178474.67, -179836.52, -184815.28, -184674.11, -182016.02, -182008.13, -182133.97, -183428.13, 0.000, 0.000, 0.000, 16:32:49.429, 1578580369429
98, -181216.92, -178480.42, -187500.02, -187500.02, -187500.02, -187500.02, -187500.02, -141970.66, 0.000, 0.000, 0.000, 16:32:49.429, 1578580369429
99, -178484.11, -179850.47, -184819.03, -184677.84, -182038.44, -182028.58, -182158.48, -183459.11, 0.000, 0.000, 0.000, 16:32:49.430, 1578580369430
100, -181218.64, -178481.58, -187500.02, -187500.02, -187500.02, -187500.02, -187500.02, -141977.73, -0.006, -0.016, 0.980, 16:32:49.430, 1578580369430
101, -178494.72, -179865.98, -184821.98, -184680.80, -182062.78, -182049.28, -182186.38, -183491.59, 0.000, 0.000, 0.000, 16:32:49.430, 1578580369430
102, -181221.50, -178486.92, -187500.02, -187500.02, -187500.02, -187500.02, -187500.02, -141985.73, 0.000, 0.000, 0.000, 16:32:49.430, 1578580369430
103, -178503.39, -179879.33, -184828.05, -184686.88, -182084.88, -182068.55, -182211.70, -183523.08, 0.000, 0.000, 0.000, 16:32:49.430, 1578580369430
104, -181223.84, -178489.05, -187500.02, -187500.02, -187500.02, -187500.02, -187500.02, -141993.66, 0.000, 0.000, 0.000, 16:32:49.430, 1578580369430
105, -178510.17, -179891.64, -184831.13, -184689.86, -182105.06, -182086.13, -182236.19, -183552.98, 0.000, 0.000, 0.000, 16:32:49.430, 1578580369430
106, -181227.36, -178495.23, -187500.02, -187500.02, -187500.02, -187500.02, -187500.02, -142002.53, 0.000, 0.000, 0.000, 16:32:49.430, 1578580369430
107, -178518.42, -179905.41, -184833.92, -184692.75, -182128.11, -182106.16, -182262.47, -183582.92, 0.000, 0.000, 0.000, 16:32:49.430, 1578580369430
108, -181228.41, -178497.72, -187500.02, -187500.02, -187500.02, -187500.02, -187500.02, -142009.08, 0.000, 0.000, 0.000, 16:32:49.430, 1578580369430
109, -178529.64, -179920.47, -184838.97, -184697.83, -182152.16, -182127.13, -182289.17, -183616.38, -0.004, -0.016, 0.980, 16:32:49.430, 1578580369430
110, -181231.47, -178503.31, -187500.02, -187500.02, -187500.02, -187500.02, -187500.02, -142017.64, 0.000, 0.000, 0.000, 16:32:49.430, 1578580369430
111, -178538.27, -179934.67, -184844.14, -184703.03, -182174.56, -182145.39, -182314.39, -183647.45, 0.000, 0.000, 0.000, 16:32:49.430, 1578580369430
112, -181235.50, -178508.02, -187500.02, -187500.02, -187500.02, -187500.02, -187500.02, -142027.63, 0.000, 0.000, 0.000, 16:32:49.430, 1578580369430
113, -178544.05, -179946.22, -184848.83, -184707.64, -182194.77, -182162.89, -182339.06, -183676.84, 0.000, 0.000, 0.000, 16:32:49.430, 1578580369430
114, -181237.13, -178511.95, -187500.02, -187500.02, -187500.02, -187500.02, -187500.02, -142035.08, 0.000, 0.000, 0.000, 16:32:49.430, 1578580369430
115, -178551.03, -179959.31, -184849.92, -184708.70, -182216.33, -182182.36, -182365.08, -183708.02, 0.000, 0.000, 0.000, 16:32:49.430, 1578580369430
116, -181236.72, -178511.39, -187500.02, -187500.02, -187500.02, -187500.02, -187500.02, -142040.72, 0.000, 0.000, 0.000, 16:32:49.430, 1578580369430
117, -178562.20, -179974.77, -184853.17, -184711.91, -182240.31, -182203.19, -182392.23, -183741.03, 0.000, 0.000, 0.000, 16:32:49.430, 1578580369430
118, -181239.19, -178518.14, -187500.02, -187500.02, -187500.02, -187500.02, -187500.02, -142048.84, 0.000, 0.000, 0.000, 16:32:49.430, 1578580369430
119, -178570.47, -179987.81, -184859.22, -184717.89, -182262.36, -182221.27, -182416.95, -183772.19, -0.002, -0.014, 0.982, 16:32:49.431, 1578580369431
120, -181242.69, -178524.25, -187500.02, -187500.02, -187500.02, -187500.02, -187500.02, -142058.81, 0.000, 0.000, 0.000, 16:32:49.431, 1578580369431
121, -178576.94, -179999.91, -184861.13, -184719.81, -182282.98, -182239.83, -182441.02, -183801.11, 0.000, 0.000, 0.000, 16:32:49.431, 1578580369431
122, -181242.94, -178523.78, -187500.02, -187500.02, -187500.02, -187500.02, -187500.02, -142065.36, 0.000, 0.000, 0.000, 16:32:49.431, 1578580369431
123, -178585.33, -180013.41, -184867.16, -184725.84, -182306.09, -182259.53, -182466.20, -183831.42, 0.000, 0.000, 0.000, 16:32:49.431, 1578580369431
124, -181248.56, -178533.53, -187500.02, -187500.02, -187500.02, -187500.02, -187500.02, -142077.19, 0.000, 0.000, 0.000, 16:32:49.431, 1578580369431
125, -178594.92, -180027.66, -184872.19, -184730.92, -182329.92, -182279.31, -182493.61, -183863.52, 0.000, 0.000, 0.000, 16:32:49.431, 1578580369431
126, -181249.06, -178533.48, -187500.02, -187500.02, -187500.02, -187500.02, -187500.02, -142084.27, 0.000, 0.000, 0.000, 16:32:49.431, 1578580369431
127, -178603.78, -180041.63, -184873.58, -184732.25, -182352.61, -182298.25, -182519.80, -183895.00, 0.000, 0.000, 0.000, 16:32:49.431, 1578580369431
128, -181250.52, -178538.27, -187500.02, -187500.02, -187500.02, -187500.02, -187500.02, -142092.16, 0.000, 0.000, 0.000, 16:32:49.431, 1578580369431
129, -178610.97, -180054.36, -184878.80, -184737.61, -182373.47, -182316.05, -182543.22, -183923.72, 0.000, -0.014, 0.980, 16:32:49.431, 1578580369431
130, -181254.09, -178545.19, -187500.02, -187500.02, -187500.02, -187500.02, -187500.02, -142102.39, 0.000, 0.000, 0.000, 16:32:49.431, 1578580369431
131, -178619.58, -180068.27, -184882.53, -184741.28, -182395.53, -182335.56, -182569.63, -183954.98, 0.000, 0.000, 0.000, 16:32:49.431, 1578580369431
132, -181253.94, -178543.83, -187500.02, -187500.02, -187500.02, -187500.02, -187500.02, -142109.34, 0.000, 0.000, 0.000, 16:32:49.431, 1578580369431
133, -178630.05, -180082.91, -184884.19, -184742.89, -182419.75, -182357.08, -182597.41, -183988.73, 0.000, 0.000, 0.000, 16:32:49.431, 1578580369431
134, -181256.55, -178547.89, -187500.02, -187500.02, -187500.02, -187500.02, -187500.02, -142118.78, 0.000, 0.000, 0.000, 16:32:49.431, 1578580369431
135, -178638.02, -180097.25, -184889.17, -184747.94, -182442.20, -182376.34, -182622.95, -184018.38, 0.000, 0.000, 0.000, 16:32:49.431, 1578580369431
136, -181259.00, -178550.28, -187500.02, -187500.02, -187500.02, -187500.02, -187500.02, -142128.19, 0.000, 0.000, 0.000, 16:32:49.431, 1578580369431
137, -178645.08, -180110.11, -184892.19, -184750.81, -182463.72, -182394.52, -182647.20, -184048.03, 0.000, 0.000, 0.000, 16:32:49.431, 1578580369431
138, -181261.63, -178554.38, -187500.02, -187500.02, -187500.02, -187500.02, -187500.02, -142137.39, 0.000, 0.000, 0.000, 16:32:49.432, 1578580369432
139, -178653.59, -180123.53, -184896.33, -184755.09, -182485.58, -182413.92, -182672.23, -184077.83, -0.002, -0.016, 0.982, 16:32:49.432, 1578580369432
140, -181263.28, -178556.64, -187500.02, -187500.02, -187500.02, -187500.02, -187500.02, -142146.11, 0.000, 0.000, 0.000, 16:32:49.432, 1578580369432
141, -178663.52, -180137.94, -184899.50, -184758.27, -182509.61, -182436.11, -182700.06, -184109.69, 0.000, 0.000, 0.000, 16:32:49.432, 1578580369432
142, -181265.41, -178559.98, -187500.02, -187500.02, -187500.02, -187500.02, -187500.02, -142155.19, 0.000, 0.000, 0.000, 16:32:49.432, 1578580369432
143, -178671.23, -180151.48, -184902.86, -184761.61, -182531.94, -182454.48, -182726.05, -184139.59, 0.000, 0.000, 0.000, 16:32:49.432, 1578580369432
144, -181266.16, -178564.27, -187500.02, -187500.02, -187500.02, -187500.02, -187500.02, -142162.72, 0.000, 0.000, 0.000, 16:32:49.432, 1578580369432
145, -178678.47, -180164.20, -184906.81, -184765.61, -182551.47, -182472.64, -182749.58, -184168.11, 0.000, 0.000, 0.000, 16:32:49.432, 1578580369432
146, -181268.94, -178568.58, -187500.02, -187500.02, -187500.02, -187500.02, -187500.02, -142172.78, 0.000, 0.000, 0.000, 16:32:49.432, 1578580369432
147, -178686.80, -180177.70, -184911.22, -184770.02, -182574.08, -182491.44, -182776.06, -184198.48, 0.000, 0.000, 0.000, 16:32:49.432, 1578580369432
148, -181272.47, -178571.13, -187500.02, -187500.02, -187500.02, -187500.02, -187500.02, -142183.63, 0.000, -0.022, 0.980, 16:32:49.432, 1578580369432
149, -178697.39, -180192.25, -184915.89, -184774.56, -182598.69, -182512.56, -182805.36, -184230.94, 0.000, 0.000, 0.000, 16:32:49.432, 1578580369432
150, -181274.42, -178577.53, -187500.02, -187500.02, -187500.02, -187500.02, -187500.02, -142192.61, 0.000, 0.000, 0.000, 16:32:49.432, 1578580369432
151, -178707.23, -180206.27, -184921.27, -184780.05, -182621.88, -182532.09, -182830.72, -184260.69, 0.000, 0.000, 0.000, 16:32:49.432, 1578580369432
152, -181277.17, -178583.64, -187500.02, -187500.02, -187500.02, -187500.02, -187500.02, -142202.70, 0.000, 0.000, 0.000, 16:32:49.432, 1578580369432
153, -178713.81, -180218.89, -184923.91, -184782.63, -182642.36, -182550.77, -182854.92, -184287.84, 0.000, 0.000, 0.000, 16:32:49.432, 1578580369432
154, -181277.98, -178582.03, -187500.02, -187500.02, -187500.02, -187500.02, -187500.02, -142211.50, 0.000, 0.000, 0.000, 16:32:49.432, 1578580369432
155, -178722.80, -180232.91, -184925.94, -184784.69, -182664.63, -182570.23, -182880.83, -184317.69, 0.000, 0.000, 0.000, 16:32:49.433, 1578580369433
156, -181279.91, -178583.72, -187500.02, -187500.02, -187500.02, -187500.02, -187500.02, -142220.95, 0.000, 0.000, 0.000, 16:32:49.433, 1578580369433
157, -178732.70, -180247.55, -184929.83, -184788.41, -182689.36, -182592.05, -182908.88, -184349.97, 0.000, 0.000, 0.000, 16:32:49.433, 1578580369433
158, -181281.72, -178586.39, -187500.02, -187500.02, -187500.02, -187500.02, -187500.02, -142230.05, 0.000, -0.016, 0.980, 16:32:49.433, 1578580369433
159, -178742.17, -180260.83, -184934.11, -184792.66, -182712.42, -182610.86, -182935.56, -184378.14, 0.000, 0.000, 0.000, 16:32:49.433, 1578580369433
160, -181285.89, -178592.22, -187500.02, -187500.02, -187500.02, -187500.02, -187500.02, -142241.77, 0.000, 0.000, 0.000, 16:32:49.433, 1578580369433
161, -178749.08, -180273.23, -184938.70, -184797.28, -182732.92, -182629.61, -182959.23, -184405.63, 0.000, 0.000, 0.000, 16:32:49.433, 1578580369433
162, -181287.06, -178594.09, -187500.02, -187500.02, -187500.02, -187500.02, -187500.02, -142250.41, 0.000, 0.000, 0.000, 16:32:49.433, 1578580369433
163, -178757.75, -180288.52, -184940.94, -184799.61, -182755.80, -182649.38, -182986.19, -184435.25, 0.000, 0.000, 0.000, 16:32:49.433, 1578580369433
164, -181288.28, -178597.00, -187500.02, -187500.02, -187500.02, -187500.02, -187500.02, -142258.92, 0.000, 0.000, 0.000, 16:32:49.433, 1578580369433
165, -178768.27, -180303.53, -184944.67, -184803.30, -182780.94, -182671.28, -183013.59, -184466.33, 0.000, 0.000, 0.000, 16:32:49.433, 1578580369433
166, -181289.47, -178599.02, -187500.02, -187500.02, -187500.02, -187500.02, -187500.02, -142267.70, 0.000, 0.000, 0.000, 16:32:49.433, 1578580369433
167, -178777.78, -180316.86, -184947.31, -184805.95, -182804.67, -182690.95, -183040.47, -184495.63, 0.000, 0.000, 0.000, 16:32:49.433, 1578580369433
168, -181292.69, -178602.28, -187500.02, -187500.02, -187500.02, -187500.02, -187500.02, -142278.69, 0.000, -0.018, 0.980, 16:32:49.433, 1578580369433
169, -178784.27, -180328.89, -184951.73, -184810.36, -182825.70, -182708.45, -183066.30, -184521.78, 0.000, 0.000, 0.000, 16:32:49.433, 1578580369433
170, -181294.52, -178607.73, -187500.02, -187500.02, -187500.02, -187500.02, -187500.02, -142287.88, 0.000, 0.000, 0.000, 16:32:49.433, 1578580369433
171, -178792.98, -180343.02, -184956.44, -184815.08, -182848.55, -182727.22, -183091.73, -184550.50, 0.000, 0.000, 0.000, 16:32:49.434, 1578580369434
172, -181296.36, -178611.17, -187500.02, -187500.02, -187500.02, -187500.02, -187500.02, -142297.66, 0.000, 0.000, 0.000, 16:32:49.434, 1578580369434
173, -178803.83, -180358.25, -184959.03, -184817.69, -182873.11, -182748.84, -183120.80, -184579.56, 0.000, 0.000, 0.000, 16:32:49.434, 1578580369434
174, -181296.72, -178611.83, -187500.02, -187500.02, -187500.02, -187500.02, -187500.02, -142306.06, 0.000, 0.000, 0.000, 16:32:49.434, 1578580369434
175, -178813.22, -180371.86, -184961.69, -184820.33, -182895.84, -182768.95, -183147.28, -184607.05, 0.000, 0.000, 0.000, 16:32:49.434, 1578580369434
176, -181299.11, -178614.80, -187500.02, -187500.02, -187500.02, -187500.02, -187500.02, -142316.22, 0.000, 0.000, 0.000, 16:32:49.434, 1578580369434
177, -178820.97, -180384.98, -184966.67, -184825.41, -182916.86, -182785.91, -183172.00, -184633.69, 0.000, 0.000, 0.000, 16:32:49.434, 1578580369434
178, -181302.38, -178620.20, -187500.02, -187500.02, -187500.02, -187500.02, -187500.02, -142327.25, -0.004, -0.018, 0.982, 16:32:49.434, 1578580369434
179, -178828.08, -180398.48, -184969.98, -184828.64, -182939.72, -182806.03, -183197.70, -184660.47, 0.000, 0.000, 0.000, 16:32:49.434, 1578580369434
180, -181302.95, -178621.34, -187500.02, -187500.02, -187500.02, -187500.02, -187500.02, -142336.11, 0.000, 0.000, 0.000, 16:32:49.434, 1578580369434
181, -178838.67, -180413.81, -184973.08, -184831.83, -182965.11, -182827.89, -183226.67, -184688.95, 0.000, 0.000, 0.000, 16:32:49.434, 1578580369434
182, -181305.70, -178623.94, -187500.02, -187500.02, -187500.02, -187500.02, -187500.02, -142346.81, 0.000, 0.000, 0.000, 16:32:49.434, 1578580369434
183, -178847.41, -180427.59, -184977.58, -184836.27, -182987.44, -182848.39, -183252.36, -184715.70, 0.000, 0.000, 0.000, 16:32:49.434, 1578580369434
184, -181307.91, -178626.28, -187500.02, -187500.02, -187500.02, -187500.02, -187500.02, -142356.95, 0.000, 0.000, 0.000, 16:32:49.434, 1578580369434
185, -178854.42, -180439.50, -184980.61, -184839.28, -183009.14, -182865.89, -183278.11, -184741.00, 0.000, 0.000, 0.000, 16:32:49.434, 1578580369434
186, -181309.81, -178630.94, -187500.02, -187500.02, -187500.02, -187500.02, -187500.02, -142366.69, 0.000, 0.000, 0.000, 16:32:49.435, 1578580369435
187, -178863.95, -180452.56, -184984.66, -184843.38, -183032.27, -182885.19, -183306.03, -184767.53, 0.000, 0.000, 0.000, 16:32:49.435, 1578580369435
188, -181312.73, -178633.91, -187500.02, -187500.02, -187500.02, -187500.02, -187500.02, -142377.70, 0.000, -0.014, 0.972, 16:32:49.435, 1578580369435
189, -178873.94, -180468.36, -184990.56, -184849.14, -183056.44, -182907.61, -183334.67, -184795.52, 0.000, 0.000, 0.000, 16:32:49.435, 1578580369435
190, -181314.58, -178640.09, -187500.02, -187500.02, -187500.02, -187500.02, -187500.02, -142387.45, 0.000, 0.000, 0.000, 16:32:49.435, 1578580369435
191, -178882.72, -180482.06, -184994.25, -184852.94, -183079.67, -182927.67, -183361.39, -184821.98, 0.000, 0.000, 0.000, 16:32:49.435, 1578580369435
192, -181316.50, -178643.55, -187500.02, -187500.02, -187500.02, -187500.02, -187500.02, -142397.91, 0.000, 0.000, 0.000, 16:32:49.435, 1578580369435
193, -178889.47, -180493.73, -184998.19, -184856.78, -183099.92, -182945.05, -183385.78, -184845.64, 0.000, 0.000, 0.000, 16:32:49.435, 1578580369435
194, -181318.28, -178650.00, -187500.02, -187500.02, -187500.02, -187500.02, -187500.02, -142408.13, 0.000, 0.000, 0.000, 16:32:49.435, 1578580369435
195, -178897.56, -180507.83, -185002.97, -184861.66, -183122.27, -182965.81, -183412.27, -184870.88, 0.000, 0.000, 0.000, 16:32:49.435, 1578580369435
196, -181319.11, -178650.42, -187500.02, -187500.02, -187500.02, -187500.02, -187500.02, -142417.94, 0.000, 0.000, 0.000, 16:32:49.435, 1578580369435
197, -178908.47, -180523.28, -185004.91, -184863.63, -183148.13, -182986.95, -183440.33, -184892.28, 0.000, -0.014, 0.968, 16:32:49.435, 1578580369435
198, -181321.02, -178654.36, -187500.02, -187500.02, -187500.02, -187500.02, -187500.02, -142428.42, 0.000, 0.000, 0.000, 16:32:49.435, 1578580369435
199, -178917.33, -180536.39, -185008.84, -184867.61, -183171.94, -183006.75, -183467.20, -184904.58, 0.000, 0.000, 0.000, 16:32:49.437, 1578580369437
200, -181322.63, -178656.81, -187500.02, -187500.02, -187500.02, -187500.02, -187500.02, -142439.03, 0.000, 0.000, 0.000, 16:32:49.437, 1578580369437
201, -178924.61, -180548.75, -185010.80, -184869.34, -183192.75, -183025.59, -183492.42, -184911.06, 0.000, 0.000, 0.000, 16:32:49.437, 1578580369437
202, -181323.20, -178656.23, -187500.02, -187500.02, -187500.02, -187500.02, -187500.02, -142448.52, 0.000, 0.000, 0.000, 16:32:49.437, 1578580369437
203, -178933.16, -180562.23, -185014.92, -184873.58, -183215.61, -183045.11, -183520.38, -184918.25, 0.000, 0.000, 0.000, 16:32:49.437, 1578580369437
204, -181326.84, -178661.42, -187500.02, -187500.02, -187500.02, -187500.02, -187500.02, -142460.78, 0.000, 0.000, 0.000, 16:32:49.437, 1578580369437
205, -178943.92, -180577.77, -185020.72, -184879.28, -183241.56, -183066.75, -183548.81, -184926.39, 0.000, 0.000, 0.000, 16:32:49.437, 1578580369437
206, -181331.50, -178667.45, -187500.02, -187500.02, -187500.02, -187500.02, -187500.02, -142474.23, 0.000, 0.000, 0.000, 16:32:49.437, 1578580369437
207, -178953.72, -180591.56, -185026.22, -184884.89, -183264.67, -183085.84, -183575.19, -184933.72, -0.002, -0.016, 0.966, 16:32:49.437, 1578580369437
208, -181334.09, -178672.08, -187500.02, -187500.02, -187500.02, -187500.02, -187500.02, -142485.58, 0.000, 0.000, 0.000, 16:32:49.437, 1578580369437
209, -178959.53, -180604.56, -185029.34, -184887.91, -183285.61, -183102.59, -183600.22, -184938.23, 0.000, 0.000, 0.000, 16:32:49.906, 1578580369906
210, -181334.89, -178673.83, -187500.02, -187500.02, -187500.02, -187500.02, -187500.02, -142495.30, 0.000, 0.000, 0.000, 16:32:49.906, 1578580369906
211, -178967.80, -180617.80, -185032.67, -184891.30, -183309.31, -183122.38, -183628.11, -184942.80, 0.000, 0.000, 0.000, 16:32:49.906, 1578580369906
212, -181336.95, -178677.16, -187500.02, -187500.02, -187500.02, -187500.02, -187500.02, -142506.38, 0.000, 0.000, 0.000, 16:32:49.906, 1578580369906
213, -178979.05, -180633.47, -185037.25, -184895.84, -183334.48, -183144.63, -183656.95, -184948.66, 0.000, 0.000, 0.000, 16:32:49.906, 1578580369906
214, -181338.59, -178682.63, -187500.02, -187500.02, -187500.02, -187500.02, -187500.02, -142517.11, 0.000, 0.000, 0.000, 16:32:49.906, 1578580369906
215, -178988.50, -180647.02, -185039.53, -184898.19, -183356.83, -183164.56, -183683.70, -184951.94, 0.000, 0.000, 0.000, 16:32:49.906, 1578580369906
216, -181339.25, -178682.98, -187500.02, -187500.02, -187500.02, -187500.02, -187500.02, -142527.08, 0.000, 0.000, 0.000, 16:32:49.906, 1578580369906
217, -178995.41, -180659.38, -185044.20, -184902.77, -183378.88, -183182.52, -183709.45, -184957.27, 0.000, -0.012, 0.970, 16:32:49.906, 1578580369906
218, -181342.25, -178688.00, -187500.02, -187500.02, -187500.02, -187500.02, -187500.02, -142539.30, 0.000, 0.000, 0.000, 16:32:49.906, 1578580369906
219, -179003.88, -180673.44, -185048.00, -184906.75, -183402.98, -183202.52, -183736.97, -184961.73, 0.000, 0.000, 0.000, 16:32:49.906, 1578580369906
220, -181344.25, -178692.63, -187500.02, -187500.02, -187500.02, -187500.02, -187500.02, -142550.69, 0.000, 0.000, 0.000, 16:32:49.906, 1578580369906
221, -179015.09, -180688.88, -185052.19, -184910.80, -183428.44, -183224.63, -183766.16, -184966.61, 0.000, 0.000, 0.000, 16:32:49.907, 1578580369907
222, -181343.97, -178691.39, -187500.02, -187500.02, -187500.02, -187500.02, -187500.02, -142560.09, 0.000, 0.000, 0.000, 16:32:49.907, 1578580369907
223, -179024.64, -180702.45, -185052.44, -184911.03, -183452.72, -183245.25, -183792.84, -184967.55, 0.000, 0.000, 0.000, 16:32:49.907, 1578580369907
224, -181346.30, -178695.13, -187500.02, -187500.02, -187500.02, -187500.02, -187500.02, -142571.78, 0.000, 0.000, 0.000, 16:32:49.907, 1578580369907
225, -179030.50, -180714.61, -185057.28, -184915.89, -183473.27, -183263.00, -183817.23, -184972.81, 0.000, 0.000, 0.000, 16:32:49.907, 1578580369907
226, -181348.30, -178696.02, -187500.02, -187500.02, -187500.02, -187500.02, -187500.02, -142583.38, 0.000, 0.000, 0.000, 16:32:49.907, 1578580369907
227, -179039.03, -180728.42, -185060.80, -184919.47, -183496.80, -183283.20, -183844.86, -184976.92, 0.000, -0.014, 0.972, 16:32:49.907, 1578580369907
228, -181350.52, -178699.33, -187500.02, -187500.02, -187500.02, -187500.02, -187500.02, -142594.80, 0.000, 0.000, 0.000, 16:32:49.907, 1578580369907
229, -179049.41, -180744.69, -185063.63, -184922.25, -183522.19, -183305.78, -183874.83, -184980.28, 0.000, 0.000, 0.000, 16:32:49.907, 1578580369907
230, -181350.47, -178702.45, -187500.02, -187500.02, -187500.02, -187500.02, -187500.02, -142603.95, 0.000, 0.000, 0.000, 16:32:49.907, 1578580369907
231, -179058.64, -180757.81, -185066.58, -184925.20, -183545.25, -183325.92, -183902.48, -184983.64, 0.000, 0.000, 0.000, 16:32:49.907, 1578580369907
232, -181352.22, -178704.14, -187500.02, -187500.02, -187500.02, -187500.02, -187500.02, -142615.28, 0.000, 0.000, 0.000, 16:32:49.907, 1578580369907
233, -179064.52, -180769.66, -185069.84, -184928.52, -183567.06, -183343.98, -183926.63, -184987.36, 0.000, 0.000, 0.000, 16:32:49.907, 1578580369907
234, -181354.36, -178707.27, -187500.02, -187500.02, -187500.02, -187500.02, -187500.02, -142627.06, 0.000, 0.000, 0.000, 16:32:49.907, 1578580369907
235, -179073.09, -180783.27, -185075.03, -184933.64, -183590.56, -183363.16, -183954.41, -184992.91, 0.000, 0.000, 0.000, 16:32:49.907, 1578580369907
236, -181357.36, -178714.00, -187500.02, -187500.02, -187500.02, -187500.02, -187500.02, -142639.34, -0.002, -0.018, 0.970, 16:32:49.908, 1578580369908
237, -179084.72, -180798.78, -185080.17, -184938.89, -183615.31, -183385.69, -183983.66, -184998.34, 0.000, 0.000, 0.000, 16:32:49.908, 1578580369908
238, -181359.28, -178718.95, -187500.02, -187500.02, -187500.02, -187500.02, -187500.02, -142651.11, 0.000, 0.000, 0.000, 16:32:49.908, 1578580369908
239, -179093.03, -180812.08, -185083.44, -184942.03, -183638.80, -183406.94, -184009.75, -185001.88, 0.000, 0.000, 0.000, 16:32:49.910, 1578580369910
240, -181361.17, -178721.92, -187500.02, -187500.02, -187500.02, -187500.02, -187500.02, -142663.00, 0.000, 0.000, 0.000, 16:32:49.910, 1578580369910
241, -179100.20, -180824.69, -185088.94, -184947.53, -183660.48, -183425.25, -184034.72, -185007.69, 0.000, 0.000, 0.000, 16:32:49.910, 1578580369910
242, -181364.34, -178725.45, -187500.02, -187500.02, -187500.02, -187500.02, -187500.02, -142676.41, 0.000, 0.000, 0.000, 16:32:49.910, 1578580369910
243, -179109.42, -180838.13, -185091.48, -184950.20, -183684.23, -183445.39, -184062.61, -185010.45, 0.000, 0.000, 0.000, 16:32:49.911, 1578580369911
244, -181364.86, -178726.20, -187500.02, -187500.02, -187500.02, -187500.02, -187500.02, -142686.94, 0.000, 0.000, 0.000, 16:32:49.911, 1578580369911
245, -179119.44, -180852.30, -185094.72, -184953.45, -183709.73, -183467.50, -184092.47, -185014.08, 0.000, 0.000, 0.000, 16:32:49.911, 1578580369911
246, -181367.14, -178729.92, -187500.02, -187500.02, -187500.02, -187500.02, -187500.02, -142699.20, -0.002, -0.018, 0.972, 16:32:49.911, 1578580369911
247, -179127.55, -180866.23, -185098.45, -184957.13, -183733.52, -183487.55, -184119.88, -185018.09, 0.000, 0.000, 0.000, 16:32:49.911, 1578580369911
248, -181369.25, -178732.13, -187500.02, -187500.02, -187500.02, -187500.02, -187500.02, -142711.45, 0.000, 0.000, 0.000, 16:32:49.911, 1578580369911
249, -179133.94, -180878.30, -185102.70, -184961.33, -183754.13, -183505.47, -184144.84, -185022.50, 0.000, 0.000, 0.000, 16:32:49.911, 1578580369911
250, -181371.44, -178735.27, -187500.02, -187500.02, -187500.02, -187500.02, -187500.02, -142723.59, 0.000, 0.000, 0.000, 16:32:49.911, 1578580369911
251, -179142.94, -180892.55, -185107.86, -184966.61, -183778.36, -183524.53, -184171.70, -185027.94, 0.000, 0.000, 0.000, 16:32:49.911, 1578580369911
252, -181374.78, -178742.56, -187500.02, -187500.02, -187500.02, -187500.02, -187500.02, -142737.00, 0.000, 0.000, 0.000, 16:32:49.911, 1578580369911
253, -179154.28, -180908.17, -185111.31, -184970.02, -183804.25, -183547.59, -184200.39, -185031.69, 0.000, 0.000, 0.000, 16:32:49.911, 1578580369911
254, -181374.52, -178742.84, -187500.02, -187500.02, -187500.02, -187500.02, -187500.02, -142747.02, 0.000, 0.000, 0.000, 16:32:49.911, 1578580369911
255, -179163.52, -180922.39, -185112.89, -184971.61, -183828.73, -183567.63, -184228.92, -185033.55, 0.000, 0.000, 0.000, 16:32:49.911, 1578580369911
0, -181375.28, -178742.45, -187500.02, -187500.02, -187500.02, -187500.02, -187500.02, -142758.11, -0.002, -0.016, 0.972, 16:32:49.911, 1578580369911
1, -179169.91, -180934.69, -185115.73, -184974.47, -183850.72, -183585.91, -184255.33, -185036.63, 0.000, 0.000, 0.000, 16:32:49.911, 1578580369911
2, -181377.84, -178745.80, -187500.02, -187500.02, -187500.02, -187500.02, -187500.02, -142770.84, 0.000, 0.000, 0.000, 16:32:49.911, 1578580369911
3, -179179.48, -180948.11, -185120.11, -184978.84, -183874.66, -183606.34, -184281.61, -185041.14, 0.000, 0.000, 0.000, 16:32:49.911, 1578580369911
4, -181378.64, -178747.75, -187500.02, -187500.02, -187500.02, -187500.02, -187500.02, -142781.73, 0.000, 0.000, 0.000, 16:32:49.911, 1578580369911
5, -179191.02, -180963.30, -185122.80, -184981.48, -183900.77, -183628.47, -184310.27, -185044.09, 0.000, 0.000, 0.000, 16:32:49.911, 1578580369911
6, -181380.59, -178752.77, -187500.02, -187500.02, -187500.02, -187500.02, -187500.02, -142793.80, 0.000, 0.000, 0.000, 16:32:49.912, 1578580369912
7, -179200.33, -180977.27, -185127.22, -184985.94, -183925.30, -183649.34, -184336.84, -185048.66, 0.000, 0.000, 0.000, 16:32:49.912, 1578580369912
8, -181382.55, -178755.70, -187500.02, -187500.02, -187500.02, -187500.02, -187500.02, -142806.30, 0.000, 0.000, 0.000, 16:32:49.912, 1578580369912
9, -179206.17, -180989.78, -185130.78, -184989.47, -183946.94, -183667.81, -184361.20, -185052.36, 0.000, 0.000, 0.000, 16:32:49.912, 1578580369912
10, -181383.94, -178758.16, -187500.02, -187500.02, -187500.02, -187500.02, -187500.02, -142818.19, -0.002, -0.014, 0.980, 16:32:49.912, 1578580369912
11, -179215.78, -181003.70, -185133.56, -184992.38, -183971.69, -183688.66, -184387.58, -185055.47, 0.000, 0.000, 0.000, 16:32:49.912, 1578580369912
12, -181384.72, -178758.78, -187500.02, -187500.02, -187500.02, -187500.02, -187500.02, -142829.59, 0.000, 0.000, 0.000, 16:32:49.912, 1578580369912
13, -179226.70, -181018.50, -185135.92, -184994.81, -183997.23, -183710.30, -184416.95, -185058.13, 0.000, 0.000, 0.000, 16:32:49.912, 1578580369912
14, -181386.13, -178761.77, -187500.02, -187500.02, -187500.02, -187500.02, -187500.02, -142841.44, 0.000, 0.000, 0.000, 16:32:49.912, 1578580369912
15, -179235.30, -181031.67, -185139.34, -184998.13, -184020.36, -183731.89, -184442.30, -185061.63, 0.000, 0.000, 0.000, 16:32:49.912, 1578580369912
16, -181388.11, -178763.25, -187500.02, -187500.02, -187500.02, -187500.02, -187500.02, -142853.89, 0.000, 0.000, 0.000, 16:32:49.912, 1578580369912
17, -179242.16, -181044.03, -185143.81, -185002.50, -184041.80, -183751.45, -184466.30, -185066.20, 0.000, 0.000, 0.000, 16:32:49.912, 1578580369912
18, -181390.38, -178767.48, -187500.02, -187500.02, -187500.02, -187500.02, -187500.02, -142866.52, 0.000, 0.000, 0.000, 16:32:49.912, 1578580369912
19, -179251.63, -181057.75, -185147.19, -185005.92, -184065.33, -183771.52, -184492.23, -185069.91, 0.000, -0.016, 0.976, 16:32:49.912, 1578580369912
20, -181392.73, -178769.63, -187500.02, -187500.02, -187500.02, -187500.02, -187500.02, -142879.61, 0.000, 0.000, 0.000, 16:32:49.912, 1578580369912
21, -179262.50, -181073.39, -185152.02, -185010.72, -184090.41, -183794.31, -184520.81, -185074.72, 0.000, 0.000, 0.000, 16:32:49.912, 1578580369912
22, -181395.22, -178772.67, -187500.02, -187500.02, -187500.02, -187500.02, -187500.02, -142892.38, 0.000, 0.000, 0.000, 16:32:49.912, 1578580369912
23, -179270.47, -181086.97, -185155.70, -185014.30, -184114.08, -183814.34, -184547.16, -185078.50, 0.000, 0.000, 0.000, 16:32:49.912, 1578580369912
24, -181396.98, -178777.34, -187500.02, -187500.02, -187500.02, -187500.02, -187500.02, -142904.52, 0.000, 0.000, 0.000, 16:32:49.912, 1578580369912
25, -179277.75, -181099.61, -185158.31, -185017.05, -184135.81, -183832.41, -184571.38, -185081.42, 0.000, 0.000, 0.000, 16:32:49.912, 1578580369912
26, -181398.06, -178778.55, -187500.02, -187500.02, -187500.02, -187500.02, -187500.02, -142916.17, 0.000, 0.000, 0.000, 16:32:49.912, 1578580369912
27, -179287.14, -181113.47, -185162.89, -185021.61, -184159.09, -183853.34, -184597.44, -185086.14, 0.000, 0.000, 0.000, 16:32:49.912, 1578580369912
28, -181400.31, -178780.63, -187500.02, -187500.02, -187500.02, -187500.02, -187500.02, -142929.20, 0.000, 0.000, 0.000, 16:32:49.913, 1578580369913
29, -179297.50, -181128.36, -185165.27, -185023.94, -184185.05, -183876.48, -184625.16, -185088.64, -0.006, -0.020, 0.978, 16:32:49.913, 1578580369913
30, -181400.73, -178782.64, -187500.02, -187500.02, -187500.02, -187500.02, -187500.02, -142940.11, 0.000, 0.000, 0.000, 16:32:49.914, 1578580369914
31, -179306.72, -181142.89, -185168.50, -185027.17, -184208.81, -183896.67, -184650.33, -185092.02, 0.000, 0.000, 0.000, 16:32:49.914, 1578580369914
