%OpenBCI Raw EEG Data
%Number of channels = 8
%Sample Rate = 250.0 Hz
%First Column = SampleIndex
%Last Column = Timestamp 
%Other Columns = EEG data in microvolts followed by Accel Data (in G) interleaved with Aux Data
0, 0.00, 0.00, 0.00, 0.00, 0.00, 0.00, 0.00, 0.00, -0.012, -0.016, 0.980, 15:46:11.484, 1578577571484
1, -187500.02, -180123.31, -187500.02, -187500.02, -187500.02, -187500.02, -187500.02, -187500.02, 0.000, 0.000, 0.000, 15:46:11.985, 1578577571985
2, -187500.02, -180123.34, -187500.02, -187500.02, -187500.02, -187500.02, -187500.02, -187500.02, 0.000, 0.000, 0.000, 15:46:11.985, 1578577571985
3, -187500.02, -180123.69, -187500.02, -187500.02, -187500.02, -187500.02, -187500.02, -187500.02, 0.000, 0.000, 0.000, 15:46:11.985, 1578577571985
4, -187500.02, -180120.55, -187500.02, -187500.02, -187500.02, -187500.02, -187500.02, -187500.02, 0.000, 0.000, 0.000, 15:46:11.986, 1578577571986
5, -187500.02, -180117.89, -187500.02, -187500.02, -187500.02, -187500.02, -187500.02, -187500.02, 0.000, 0.000, 0.000, 15:46:11.986, 1578577571986
6, -187500.02, -180115.42, -187500.02, -187500.02, -187500.02, -187500.02, -187500.02, -187500.02, 0.000, 0.000, 0.000, 15:46:11.986, 1578577571986
7, -187500.02, -180115.31, -187500.02, -187500.02, -187500.02, -187500.02, -187500.02, -187500.02, -0.014, -0.016, 0.972, 15:46:11.986, 1578577571986
8, -187500.02, -180114.48, -187500.02, -187500.02, -187500.02, -187500.02, -187500.02, -187500.02, 0.000, 0.000, 0.000, 15:46:11.986, 1578577571986
9, -187500.02, -180110.11, -187500.02, -187500.02, -187500.02, -187500.02, -187500.02, -187500.02, 0.000, 0.000, 0.000, 15:46:11.986, 1578577571986
10, -187500.02, -180109.13, -187500.02, -187500.02, -187500.02, -187500.02, -187500.02, -187500.02, 0.000, 0.000, 0.000, 15:46:11.986, 1578577571986
11, -187500.02, -180108.77, -187500.02, -187500.02, -187500.02, -187500.02, -187500.02, -187500.02, 0.000, 0.000, 0.000, 15:46:11.986, 1578577571986
12, -187500.02, -180108.20, -187500.02, -187500.02, -187500.02, -187500.02, -187500.02, -187500.02, 0.000, 0.000, 0.000, 15:46:11.986, 1578577571986
13, -187500.02, -180107.20, -187500.02, -187500.02, -187500.02, -187500.02, -187500.02, -187500.02, 0.000, 0.000, 0.000, 15:46:11.987, 1578577571987
14, -187500.02, -180104.19, -187500.02, -187500.02, -187500.02, -187500.02, -187500.02, -187500.02, 0.000, 0.000, 0.000, 15:46:11.987, 1578577571987
15, -187500.02, -180102.69, -187500.02, -187500.02, -187500.02, -187500.02, -187500.02, -187500.02, 0.000, 0.000, 0.000, 15:46:11.987, 1578577571987
16, -187500.02, -180099.88, -187500.02, -187500.02, -187500.02, -187500.02, -187500.02, -187500.02, 0.000, 0.000, 0.000, 15:46:11.987, 1578577571987
17, -187500.02, -180101.28, -187500.02, -187500.02, -187500.02, -187500.02, -187500.02, -187500.02, -0.018, -0.014, 0.970, 15:46:11.987, 1578577571987
18, -187500.02, -180100.50, -187500.02, -187500.02, -187500.02, -187500.02, -187500.02, -187500.02, 0.000, 0.000, 0.000, 15:46:11.987, 1578577571987
19, -187500.02, -180099.00, -187500.02, -187500.02, -187500.02, -187500.02, -187500.02, -187500.02, 0.000, 0.000, 0.000, 15:46:11.987, 1578577571987
20, -187500.02, -180097.16, -187500.02, -187500.02, -187500.02, -187500.02, -187500.02, -187500.02, 0.000, 0.000, 0.000, 15:46:11.988, 1578577571988
21, -187500.02, -180092.61, -187500.02, -187500.02, -187500.02, -187500.02, -187500.02, -187500.02, 0.000, 0.000, 0.000, 15:46:11.988, 1578577571988
22, -187500.02, -180091.84, -187500.02, -187500.02, -187500.02, -187500.02, -187500.02, -187500.02, 0.000, 0.000, 0.000, 15:46:11.988, 1578577571988
23, -187500.02, -180089.27, -187500.02, -187500.02, -187500.02, -187500.02, -187500.02, -187500.02, 0.000, 0.000, 0.000, 15:46:11.988, 1578577571988
24, -187500.02, -180086.92, -187500.02, -187500.02, -187500.02, -187500.02, -187500.02, -187500.02, 0.000, 0.000, 0.000, 15:46:11.988, 1578577571988
25, -187500.02, -180086.13, -187500.02, -187500.02, -187500.02, -187500.02, -187500.02, -187500.02, 0.000, 0.000, 0.000, 15:46:11.989, 1578577571989
26, -187500.02, -180084.59, -187500.02, -187500.02, -187500.02, -187500.02, -187500.02, -187500.02, 0.000, 0.000, 0.000, 15:46:11.989, 1578577571989
27, -187500.02, -180084.41, -187500.02, -187500.02, -187500.02, -187500.02, -187500.02, -187500.02, -0.016, -0.014, 0.976, 15:46:11.989, 1578577571989
28, -187500.02, -180082.36, -187500.02, -187500.02, -187500.02, -187500.02, -187500.02, -187500.02, 0.000, 0.000, 0.000, 15:46:11.989, 1578577571989
29, -187500.02, -180080.05, -187500.02, -187500.02, -187500.02, -187500.02, -187500.02, -187500.02, 0.000, 0.000, 0.000, 15:46:11.990, 1578577571990
30, -187500.02, -180076.42, -187500.02, -187500.02, -187500.02, -187500.02, -187500.02, -187500.02, 0.000, 0.000, 0.000, 15:46:11.990, 1578577571990
31, -187500.02, -180076.98, -187500.02, -187500.02, -187500.02, -187500.02, -187500.02, -187500.02, 0.000, 0.000, 0.000, 15:46:11.991, 1578577571991
32, -187500.02, -180073.50, -187500.02, -187500.02, -187500.02, -187500.02, -187500.02, -187500.02, 0.000, 0.000, 0.000, 15:46:11.991, 1578577571991
33, -187500.02, -180071.45, -187500.02, -187500.02, -187500.02, -187500.02, -187500.02, -187500.02, 0.000, 0.000, 0.000, 15:46:11.992, 1578577571992
34, -187500.02, -180073.66, -187500.02, -187500.02, -187500.02, -187500.02, -187500.02, -187500.02, 0.000, 0.000, 0.000, 15:46:11.992, 1578577571992
35, -187500.02, -180070.19, -187500.02, -187500.02, -187500.02, -187500.02, -187500.02, -187500.02, 0.000, 0.000, 0.000, 15:46:11.992, 1578577571992
36, -187500.02, -180066.03, -187500.02, -187500.02, -187500.02, -187500.02, -187500.02, -187500.02, 0.000, 0.000, 0.000, 15:46:11.992, 1578577571992
37, -187500.02, -180064.13, -187500.02, -187500.02, -187500.02, -187500.02, -187500.02, -187500.02, -0.022, -0.016, 0.974, 15:46:11.992, 1578577571992
38, -187500.02, -180063.20, -187500.02, -187500.02, -187500.02, -187500.02, -187500.02, -187500.02, 0.000, 0.000, 0.000, 15:46:11.993, 1578577571993
39, -187500.02, -180059.64, -187500.02, -187500.02, -187500.02, -187500.02, -187500.02, -187500.02, 0.000, 0.000, 0.000, 15:46:11.993, 1578577571993
40, -187500.02, -180059.64, -187500.02, -187500.02, -187500.02, -187500.02, -187500.02, -187500.02, 0.000, 0.000, 0.000, 15:46:11.993, 1578577571993
41, -187500.02, -180057.91, -187500.02, -187500.02, -187500.02, -187500.02, -187500.02, -187500.02, 0.000, 0.000, 0.000, 15:46:11.993, 1578577571993
42, -187500.02, -180053.59, -187500.02, -187500.02, -187500.02, -187500.02, -187500.02, -187500.02, 0.000, 0.000, 0.000, 15:46:11.994, 1578577571994
43, -187500.02, -180051.05, -187500.02, -187500.02, -187500.02, -187500.02, -187500.02, -187500.02, 0.000, 0.000, 0.000, 15:46:11.994, 1578577571994
44, -187500.02, -180048.03, -187500.02, -187500.02, -187500.02, -187500.02, -187500.02, -187500.02, 0.000, 0.000, 0.000, 15:46:11.994, 1578577571994
45, -187500.02, -180048.19, -187500.02, -187500.02, -187500.02, -187500.02, -187500.02, -187500.02, 0.000, 0.000, 0.000, 15:46:11.994, 1578577571994
46, -187500.02, -180047.78, -187500.02, -187500.02, -187500.02, -187500.02, -187500.02, -187500.02, -0.018, -0.014, 0.974, 15:46:11.994, 1578577571994
47, -187500.02, -180046.06, -187500.02, -187500.02, -187500.02, -187500.02, -187500.02, -187500.02, 0.000, 0.000, 0.000, 15:46:11.994, 1578577571994
48, -187500.02, -180045.27, -187500.02, -187500.02, -187500.02, -187500.02, -187500.02, -187500.02, 0.000, 0.000, 0.000, 15:46:11.995, 1578577571995
49, -187500.02, -180044.33, -187500.02, -187500.02, -187500.02, -187500.02, -187500.02, -187500.02, 0.000, 0.000, 0.000, 15:46:11.995, 1578577571995
50, -187500.02, -180038.64, -187500.02, -187500.02, -187500.02, -187500.02, -187500.02, -187500.02, 0.000, 0.000, 0.000, 15:46:11.995, 1578577571995
51, -187500.02, -180039.41, -187500.02, -187500.02, -187500.02, -187500.02, -187500.02, -187500.02, 0.000, 0.000, 0.000, 15:46:11.995, 1578577571995
52, -187500.02, -180042.14, -187500.02, -187500.02, -187500.02, -187500.02, -187500.02, -187500.02, 0.000, 0.000, 0.000, 15:46:11.995, 1578577571995
53, -187500.02, -180039.77, -187500.02, -187500.02, -187500.02, -187500.02, -187500.02, -187500.02, 0.000, 0.000, 0.000, 15:46:11.996, 1578577571996
54, -187500.02, -180035.14, -187500.02, -187500.02, -187500.02, -187500.02, -187500.02, -187500.02, 0.000, 0.000, 0.000, 15:46:11.996, 1578577571996
55, -187500.02, -180031.66, -187500.02, -187500.02, -187500.02, -187500.02, -187500.02, -187500.02, 0.000, 0.000, 0.000, 15:46:11.996, 1578577571996
56, -187500.02, -180029.17, -187500.02, -187500.02, -187500.02, -187500.02, -187500.02, -187500.02, -0.018, -0.014, 0.976, 15:46:11.996, 1578577571996
57, -187500.02, -180028.47, -187500.02, -187500.02, -187500.02, -187500.02, -187500.02, -187500.02, 0.000, 0.000, 0.000, 15:46:11.996, 1578577571996
58, -187500.02, -180027.52, -187500.02, -187500.02, -187500.02, -187500.02, -187500.02, -187500.02, 0.000, 0.000, 0.000, 15:46:11.996, 1578577571996
59, -187500.02, -180025.13, -187500.02, -187500.02, -187500.02, -187500.02, -187500.02, -187500.02, 0.000, 0.000, 0.000, 15:46:11.997, 1578577571997
60, -187500.02, -180021.55, -187500.02, -187500.02, -187500.02, -187500.02, -187500.02, -187500.02, 0.000, 0.000, 0.000, 15:46:11.997, 1578577571997
61, -187500.02, -180019.14, -187500.02, -187500.02, -187500.02, -187500.02, -187500.02, -187500.02, 0.000, 0.000, 0.000, 15:46:11.997, 1578577571997
62, -187500.02, -180017.64, -187500.02, -187500.02, -187500.02, -187500.02, -187500.02, -187500.02, 0.000, 0.000, 0.000, 15:46:11.997, 1578577571997
63, -187500.02, -180014.55, -187500.02, -187500.02, -187500.02, -187500.02, -187500.02, -187500.02, 0.000, 0.000, 0.000, 15:46:11.997, 1578577571997
64, -187500.02, -180013.50, -187500.02, -187500.02, -187500.02, -187500.02, -187500.02, -187500.02, 0.000, 0.000, 0.000, 15:46:11.998, 1578577571998
65, -187500.02, -180011.67, -187500.02, -187500.02, -187500.02, -187500.02, -187500.02, -187500.02, 0.000, 0.000, 0.000, 15:46:11.998, 1578577571998
66, -187500.02, -180010.34, -187500.02, -187500.02, -187500.02, -187500.02, -187500.02, -187500.02, -0.016, -0.016, 0.978, 15:46:11.998, 1578577571998
67, -187500.02, -180006.66, -187500.02, -187500.02, -187500.02, -187500.02, -187500.02, -187500.02, 0.000, 0.000, 0.000, 15:46:11.998, 1578577571998
68, -187500.02, -180007.17, -187500.02, -187500.02, -187500.02, -187500.02, -187500.02, -187500.02, 0.000, 0.000, 0.000, 15:46:11.998, 1578577571998
69, -187500.02, -180007.08, -187500.02, -187500.02, -187500.02, -187500.02, -187500.02, -187500.02, 0.000, 0.000, 0.000, 15:46:11.999, 1578577571999
70, -187500.02, -180004.83, -187500.02, -187500.02, -187500.02, -187500.02, -187500.02, -187500.02, 0.000, 0.000, 0.000, 15:46:11.999, 1578577571999
71, -187500.02, -180001.77, -187500.02, -187500.02, -187500.02, -187500.02, -187500.02, -187500.02, 0.000, 0.000, 0.000, 15:46:11.999, 1578577571999
72, -187500.02, -179998.80, -187500.02, -187500.02, -187500.02, -187500.02, -187500.02, -187500.02, 0.000, 0.000, 0.000, 15:46:11.999, 1578577571999
73, -187500.02, -179998.45, -187500.02, -187500.02, -187500.02, -187500.02, -187500.02, -187500.02, 0.000, 0.000, 0.000, 15:46:11.999, 1578577571999
74, -187500.02, -179995.38, -187500.02, -187500.02, -187500.02, -187500.02, -187500.02, -187500.02, 0.000, 0.000, 0.000, 15:46:12.000, 1578577572000
75, -187500.02, -179989.63, -187500.02, -187500.02, -187500.02, -187500.02, -187500.02, -187500.02, 0.000, 0.000, 0.000, 15:46:12.000, 1578577572000
76, -187500.02, -179987.17, -187500.02, -187500.02, -187500.02, -187500.02, -187500.02, -187500.02, -0.018, -0.018, 0.980, 15:46:12.000, 1578577572000
77, -187500.02, -179982.52, -187500.02, -187500.02, -187500.02, -187500.02, -187500.02, -187500.02, 0.000, 0.000, 0.000, 15:46:12.000, 1578577572000
78, -187500.02, -179978.41, -187500.02, -187500.02, -187500.02, -187500.02, -187500.02, -187500.02, 0.000, 0.000, 0.000, 15:46:12.000, 1578577572000
79, -187500.02, -179978.13, -187500.02, -187500.02, -187500.02, -187500.02, -187500.02, -187500.02, 0.000, 0.000, 0.000, 15:46:12.008, 1578577572008
80, -187500.02, -179973.06, -187500.02, -187500.02, -187500.02, -187500.02, -187500.02, -187500.02, 0.000, 0.000, 0.000, 15:46:12.009, 1578577572009
81, -187500.02, -179967.64, -187500.02, -187500.02, -187500.02, -187500.02, -187500.02, -187500.02, 0.000, 0.000, 0.000, 15:46:12.009, 1578577572009
82, -187500.02, -179967.23, -187500.02, -187500.02, -187500.02, -187500.02, -187500.02, -187500.02, 0.000, 0.000, 0.000, 15:46:12.009, 1578577572009
83, -187500.02, -179964.08, -187500.02, -187500.02, -187500.02, -187500.02, -187500.02, -187500.02, 0.000, 0.000, 0.000, 15:46:12.010, 1578577572010
84, -187500.02, -179961.13, -187500.02, -187500.02, -187500.02, -187500.02, -187500.02, -187500.02, 0.000, 0.000, 0.000, 15:46:12.010, 1578577572010
85, -187500.02, -179958.31, -187500.02, -187500.02, -187500.02, -187500.02, -187500.02, -187500.02, 0.000, 0.000, 0.000, 15:46:12.010, 1578577572010
86, -187500.02, -179959.03, -187500.02, -187500.02, -187500.02, -187500.02, -187500.02, -187500.02, -0.016, -0.014, 0.974, 15:46:12.010, 1578577572010
87, -187500.02, -179960.02, -187500.02, -187500.02, -187500.02, -187500.02, -187500.02, -187500.02, 0.000, 0.000, 0.000, 15:46:12.010, 1578577572010
88, -187500.02, -179958.20, -187500.02, -187500.02, -187500.02, -187500.02, -187500.02, -187500.02, 0.000, 0.000, 0.000, 15:46:12.011, 1578577572011
89, -187500.02, -179955.88, -187500.02, -187500.02, -187500.02, -187500.02, -187500.02, -187500.02, 0.000, 0.000, 0.000, 15:46:12.011, 1578577572011
90, -187500.02, -179952.59, -187500.02, -187500.02, -187500.02, -187500.02, -187500.02, -187500.02, 0.000, 0.000, 0.000, 15:46:12.011, 1578577572011
91, -187500.02, -179950.11, -187500.02, -187500.02, -187500.02, -187500.02, -187500.02, -187500.02, 0.000, 0.000, 0.000, 15:46:12.011, 1578577572011
92, -187500.02, -179948.77, -187500.02, -187500.02, -187500.02, -187500.02, -187500.02, -187500.02, 0.000, 0.000, 0.000, 15:46:12.011, 1578577572011
93, -187500.02, -179946.53, -187500.02, -187500.02, -187500.02, -187500.02, -187500.02, -187500.02, 0.000, 0.000, 0.000, 15:46:12.012, 1578577572012
94, -187500.02, -179944.39, -187500.02, -187500.02, -187500.02, -187500.02, -187500.02, -187500.02, 0.000, 0.000, 0.000, 15:46:12.012, 1578577572012
95, -187500.02, -179942.95, -187500.02, -187500.02, -187500.02, -187500.02, -187500.02, -187500.02, -0.020, -0.012, 0.974, 15:46:12.012, 1578577572012
96, -187500.02, -179943.41, -187500.02, -187500.02, -187500.02, -187500.02, -187500.02, -187500.02, 0.000, 0.000, 0.000, 15:46:12.012, 1578577572012
97, -187500.02, -179941.34, -187500.02, -187500.02, -187500.02, -187500.02, -187500.02, -187500.02, 0.000, 0.000, 0.000, 15:46:12.012, 1578577572012
98, -187500.02, -179937.59, -187500.02, -187500.02, -187500.02, -187500.02, -187500.02, -187500.02, 0.000, 0.000, 0.000, 15:46:12.012, 1578577572012
99, -187500.02, -179935.66, -187500.02, -187500.02, -187500.02, -187500.02, -187500.02, -187500.02, 0.000, 0.000, 0.000, 15:46:12.012, 1578577572012
100, -187500.02, -179935.83, -187500.02, -187500.02, -187500.02, -187500.02, -187500.02, -187500.02, 0.000, 0.000, 0.000, 15:46:12.013, 1578577572013
101, -187500.02, -179934.17, -187500.02, -187500.02, -187500.02, -187500.02, -187500.02, -187500.02, 0.000, 0.000, 0.000, 15:46:12.013, 1578577572013
102, -187500.02, -179932.50, -187500.02, -187500.02, -187500.02, -187500.02, -187500.02, -187500.02, 0.000, 0.000, 0.000, 15:46:12.013, 1578577572013
103, -187500.02, -179930.78, -187500.02, -187500.02, -187500.02, -187500.02, -187500.02, -187500.02, 0.000, 0.000, 0.000, 15:46:12.013, 1578577572013
104, -187500.02, -179930.52, -187500.02, -187500.02, -187500.02, -187500.02, -187500.02, -187500.02, 0.000, 0.000, 0.000, 15:46:12.013, 1578577572013
105, -187500.02, -179928.50, -187500.02, -187500.02, -187500.02, -187500.02, -187500.02, -187500.02, -0.016, -0.018, 0.974, 15:46:12.013, 1578577572013
106, -187500.02, -179927.27, -187500.02, -187500.02, -187500.02, -187500.02, -187500.02, -187500.02, 0.000, 0.000, 0.000, 15:46:12.014, 1578577572014
107, -187500.02, -179925.77, -187500.02, -187500.02, -187500.02, -187500.02, -187500.02, -187500.02, 0.000, 0.000, 0.000, 15:46:12.014, 1578577572014
108, -187500.02, -179923.69, -187500.02, -187500.02, -187500.02, -187500.02, -187500.02, -187500.02, 0.000, 0.000, 0.000, 15:46:12.014, 1578577572014
109, -187500.02, -179921.59, -187500.02, -187500.02, -187500.02, -187500.02, -187500.02, -187500.02, 0.000, 0.000, 0.000, 15:46:12.014, 1578577572014
110, -187500.02, -179918.75, -187500.02, -187500.02, -187500.02, -187500.02, -187500.02, -187500.02, 0.000, 0.000, 0.000, 15:46:12.014, 1578577572014
111, -187500.02, -179916.83, -187500.02, -187500.02, -187500.02, -187500.02, -187500.02, -187500.02, 0.000, 0.000, 0.000, 15:46:12.014, 1578577572014
112, -187500.02, -179915.56, -187500.02, -187500.02, -187500.02, -187500.02, -187500.02, -187500.02, 0.000, 0.000, 0.000, 15:46:12.015, 1578577572015
113, -187500.02, -179913.47, -187500.02, -187500.02, -187500.02, -187500.02, -187500.02, -187500.02, 0.000, 0.000, 0.000, 15:46:12.015, 1578577572015
114, -187500.02, -179909.91, -187500.02, -187500.02, -187500.02, -187500.02, -187500.02, -187500.02, 0.000, 0.000, 0.000, 15:46:12.015, 1578577572015
115, -187500.02, -179905.31, -187500.02, -187500.02, -187500.02, -187500.02, -187500.02, -187500.02, -0.020, -0.016, 0.974, 15:46:12.015, 1578577572015
116, -187500.02, -179904.58, -187500.02, -187500.02, -187500.02, -187500.02, -187500.02, -187500.02, 0.000, 0.000, 0.000, 15:46:12.015, 1578577572015
117, -187500.02, -179902.05, -187500.02, -187500.02, -187500.02, -187500.02, -187500.02, -187500.02, 0.000, 0.000, 0.000, 15:46:12.015, 1578577572015
118, -187500.02, -179899.00, -187500.02, -187500.02, -187500.02, -187500.02, -187500.02, -187500.02, 0.000, 0.000, 0.000, 15:46:12.015, 1578577572015
119, -187500.02, -179897.34, -187500.02, -187500.02, -187500.02, -187500.02, -187500.02, -187500.02, 0.000, 0.000, 0.000, 15:46:12.016, 1578577572016
120, -187500.02, -179895.78, -187500.02, -187500.02, -187500.02, -187500.02, -187500.02, -187500.02, 0.000, 0.000, 0.000, 15:46:12.016, 1578577572016
121, -187500.02, -179894.33, -187500.02, -187500.02, -187500.02, -187500.02, -187500.02, -187500.02, 0.000, 0.000, 0.000, 15:46:12.016, 1578577572016
122, -187500.02, -179891.08, -187500.02, -187500.02, -187500.02, -187500.02, -187500.02, -187500.02, 0.000, 0.000, 0.000, 15:46:12.474, 1578577572474
123, -187500.02, -179891.38, -187500.02, -187500.02, -187500.02, -187500.02, -187500.02, -187500.02, 0.000, 0.000, 0.000, 15:46:12.475, 1578577572475
124, -187500.02, -179889.09, -187500.02, -187500.02, -187500.02, -187500.02, -187500.02, -187500.02, 0.000, 0.000, 0.000, 15:46:12.476, 1578577572476
125, -187500.02, -179886.63, -187500.02, -187500.02, -187500.02, -187500.02, -187500.02, -187500.02, -0.024, -0.016, 0.978, 15:46:12.476, 1578577572476
126, -187500.02, -179885.52, -187500.02, -187500.02, -187500.02, -187500.02, -187500.02, -187500.02, 0.000, 0.000, 0.000, 15:46:12.476, 1578577572476
127, -187500.02, -179881.92, -187500.02, -187500.02, -187500.02, -187500.02, -187500.02, -187500.02, 0.000, 0.000, 0.000, 15:46:12.477, 1578577572477
128, -187500.02, -179878.81, -187500.02, -187500.02, -187500.02, -187500.02, -187500.02, -187500.02, 0.000, 0.000, 0.000, 15:46:12.477, 1578577572477
129, -187500.02, -179878.20, -187500.02, -187500.02, -187500.02, -187500.02, -187500.02, -187500.02, 0.000, 0.000, 0.000, 15:46:12.477, 1578577572477
130, -187500.02, -179877.02, -187500.02, -187500.02, -187500.02, -187500.02, -187500.02, -187500.02, 0.000, 0.000, 0.000, 15:46:12.477, 1578577572477
131, -187500.02, -179873.67, -187500.02, -187500.02, -187500.02, -187500.02, -187500.02, -187500.02, 0.000, 0.000, 0.000, 15:46:12.477, 1578577572477
132, -187500.02, -179875.08, -187500.02, -187500.02, -187500.02, -187500.02, -187500.02, -187500.02, 0.000, 0.000, 0.000, 15:46:12.477, 1578577572477
133, -187500.02, -179876.89, -187500.02, -187500.02, -187500.02, -187500.02, -187500.02, -187500.02, 0.000, 0.000, 0.000, 15:46:12.478, 1578577572478
134, -187500.02, -179871.56, -187500.02, -187500.02, -187500.02, -187500.02, -187500.02, -187500.02, -0.020, -0.018, 0.980, 15:46:12.478, 1578577572478
135, -187500.02, -179867.08, -187500.02, -187500.02, -187500.02, -187500.02, -187500.02, -187500.02, 0.000, 0.000, 0.000, 15:46:12.478, 1578577572478
136, -187500.02, -179865.69, -187500.02, -187500.02, -187500.02, -187500.02, -187500.02, -187500.02, 0.000, 0.000, 0.000, 15:46:12.478, 1578577572478
137, -187500.02, -179865.28, -187500.02, -187500.02, -187500.02, -187500.02, -187500.02, -187500.02, 0.000, 0.000, 0.000, 15:46:12.478, 1578577572478
138, -187500.02, -179865.31, -187500.02, -187500.02, -187500.02, -187500.02, -187500.02, -187500.02, 0.000, 0.000, 0.000, 15:46:12.478, 1578577572478
139, -187500.02, -179864.30, -187500.02, -187500.02, -187500.02, -187500.02, -187500.02, -187500.02, 0.000, 0.000, 0.000, 15:46:12.479, 1578577572479
140, -187500.02, -179863.52, -187500.02, -187500.02, -187500.02, -187500.02, -187500.02, -187500.02, 0.000, 0.000, 0.000, 15:46:12.479, 1578577572479
141, -187500.02, -179861.59, -187500.02, -187500.02, -187500.02, -187500.02, -187500.02, -187500.02, 0.000, 0.000, 0.000, 15:46:12.479, 1578577572479
142, -187500.02, -179859.94, -187500.02, -187500.02, -187500.02, -187500.02, -187500.02, -187500.02, 0.000, 0.000, 0.000, 15:46:12.479, 1578577572479
143, -187500.02, -179856.77, -187500.02, -187500.02, -187500.02, -187500.02, -187500.02, -187500.02, 0.000, 0.000, 0.000, 15:46:12.479, 1578577572479
144, -187500.02, -179855.41, -187500.02, -187500.02, -187500.02, -187500.02, -187500.02, -187500.02, -0.020, -0.014, 0.982, 15:46:12.479, 1578577572479
145, -187500.02, -179854.92, -187500.02, -187500.02, -187500.02, -187500.02, -187500.02, -187500.02, 0.000, 0.000, 0.000, 15:46:12.480, 1578577572480
146, -187500.02, -179852.91, -187500.02, -187500.02, -187500.02, -187500.02, -187500.02, -187500.02, 0.000, 0.000, 0.000, 15:46:12.480, 1578577572480
147, -187500.02, -179847.92, -187500.02, -187500.02, -187500.02, -187500.02, -187500.02, -187500.02, 0.000, 0.000, 0.000, 15:46:12.480, 1578577572480
148, -187500.02, -179846.28, -187500.02, -187500.02, -187500.02, -187500.02, -187500.02, -187500.02, 0.000, 0.000, 0.000, 15:46:12.480, 1578577572480
149, -187500.02, -179845.45, -187500.02, -187500.02, -187500.02, -187500.02, -187500.02, -187500.02, 0.000, 0.000, 0.000, 15:46:12.481, 1578577572481
150, -187500.02, -179841.22, -187500.02, -187500.02, -187500.02, -187500.02, -187500.02, -187500.02, 0.000, 0.000, 0.000, 15:46:12.481, 1578577572481
151, -187500.02, -179840.39, -187500.02, -187500.02, -187500.02, -187500.02, -187500.02, -187500.02, 0.000, 0.000, 0.000, 15:46:12.481, 1578577572481
152, -187500.02, -179839.05, -187500.02, -187500.02, -187500.02, -187500.02, -187500.02, -187500.02, 0.000, 0.000, 0.000, 15:46:12.481, 1578577572481
153, -187500.02, -179838.11, -187500.02, -187500.02, -187500.02, -187500.02, -187500.02, -187500.02, 0.000, 0.000, 0.000, 15:46:12.481, 1578577572481
154, -187500.02, -179836.78, -187500.02, -187500.02, -187500.02, -187500.02, -187500.02, -187500.02, -0.020, -0.018, 0.984, 15:46:12.482, 1578577572482
155, -187500.02, -179834.73, -187500.02, -187500.02, -187500.02, -187500.02, -187500.02, -187500.02, 0.000, 0.000, 0.000, 15:46:12.482, 1578577572482
156, -187500.02, -179832.27, -187500.02, -187500.02, -187500.02, -187500.02, -187500.02, -187500.02, 0.000, 0.000, 0.000, 15:46:12.482, 1578577572482
157, -187500.02, -179830.23, -187500.02, -187500.02, -187500.02, -187500.02, -187500.02, -187500.02, 0.000, 0.000, 0.000, 15:46:12.482, 1578577572482
158, -187500.02, -179831.05, -187500.02, -187500.02, -187500.02, -187500.02, -187500.02, -187500.02, 0.000, 0.000, 0.000, 15:46:12.482, 1578577572482
159, -187500.02, -179830.23, -187500.02, -187500.02, -187500.02, -187500.02, -187500.02, -187500.02, 0.000, 0.000, 0.000, 15:46:12.482, 1578577572482
160, -187500.02, -179825.91, -187500.02, -187500.02, -187500.02, -187500.02, -187500.02, -187500.02, 0.000, 0.000, 0.000, 15:46:12.483, 1578577572483
161, -187500.02, -179823.36, -187500.02, -187500.02, -187500.02, -187500.02, -187500.02, -187500.02, 0.000, 0.000, 0.000, 15:46:12.483, 1578577572483
162, -187500.02, -179821.14, -187500.02, -187500.02, -187500.02, -187500.02, -187500.02, -187500.02, 0.000, 0.000, 0.000, 15:46:12.483, 1578577572483
163, -187500.02, -179820.94, -187500.02, -187500.02, -187500.02, -187500.02, -187500.02, -187500.02, 0.000, 0.000, 0.000, 15:46:12.483, 1578577572483
164, -187500.02, -179819.94, -187500.02, -187500.02, -187500.02, -187500.02, -187500.02, -187500.02, -0.026, -0.018, 0.978, 15:46:12.484, 1578577572484
165, -187500.02, -179816.81, -187500.02, -187500.02, -187500.02, -187500.02, -187500.02, -187500.02, 0.000, 0.000, 0.000, 15:46:12.484, 1578577572484
166, -187500.02, -179815.00, -187500.02, -187500.02, -187500.02, -187500.02, -187500.02, -187500.02, 0.000, 0.000, 0.000, 15:46:12.484, 1578577572484
167, -187500.02, -179813.50, -187500.02, -187500.02, -187500.02, -187500.02, -187500.02, -187500.02, 0.000, 0.000, 0.000, 15:46:12.484, 1578577572484
168, -187500.02, -179812.20, -187500.02, -187500.02, -187500.02, -187500.02, -187500.02, -187500.02, 0.000, 0.000, 0.000, 15:46:12.484, 1578577572484
169, -187500.02, -179812.11, -187500.02, -187500.02, -187500.02, -187500.02, -187500.02, -187500.02, 0.000, 0.000, 0.000, 15:46:12.484, 1578577572484
170, -187500.02, -179809.34, -187500.02, -187500.02, -187500.02, -187500.02, -187500.02, -187500.02, 0.000, 0.000, 0.000, 15:46:12.485, 1578577572485
171, -187500.02, -179806.45, -187500.02, -187500.02, -187500.02, -187500.02, -187500.02, -187500.02, 0.000, 0.000, 0.000, 15:46:12.485, 1578577572485
172, -187500.02, -179805.73, -187500.02, -187500.02, -187500.02, -187500.02, -187500.02, -187500.02, 0.000, 0.000, 0.000, 15:46:12.485, 1578577572485
173, -187500.02, -179804.44, -187500.02, -187500.02, -187500.02, -187500.02, -187500.02, -187500.02, -0.020, -0.016, 0.980, 15:46:12.485, 1578577572485
174, -187500.02, -179801.25, -187500.02, -187500.02, -187500.02, -187500.02, -187500.02, -187500.02, 0.000, 0.000, 0.000, 15:46:12.485, 1578577572485
175, -187500.02, -179801.16, -187500.02, -187500.02, -187500.02, -187500.02, -187500.02, -187500.02, 0.000, 0.000, 0.000, 15:46:12.485, 1578577572485
176, -187500.02, -179798.91, -187500.02, -187500.02, -187500.02, -187500.02, -187500.02, -187500.02, 0.000, 0.000, 0.000, 15:46:12.485, 1578577572485
177, -187500.02, -179796.63, -187500.02, -187500.02, -187500.02, -187500.02, -187500.02, -187500.02, 0.000, 0.000, 0.000, 15:46:12.486, 1578577572486
178, -187500.02, -179794.91, -187500.02, -187500.02, -187500.02, -187500.02, -187500.02, -187500.02, 0.000, 0.000, 0.000, 15:46:12.486, 1578577572486
179, -187500.02, -179791.59, -187500.02, -187500.02, -187500.02, -187500.02, -187500.02, -187500.02, 0.000, 0.000, 0.000, 15:46:12.486, 1578577572486
180, -187500.02, -179788.95, -187500.02, -187500.02, -187500.02, -187500.02, -187500.02, -187500.02, 0.000, 0.000, 0.000, 15:46:12.486, 1578577572486
181, -187500.02, -179788.44, -187500.02, -187500.02, -187500.02, -187500.02, -187500.02, -187500.02, 0.000, 0.000, 0.000, 15:46:12.486, 1578577572486
182, -187500.02, -179789.02, -187500.02, -187500.02, -187500.02, -187500.02, -187500.02, -187500.02, 0.000, 0.000, 0.000, 15:46:12.487, 1578577572487
183, -187500.02, -179787.17, -187500.02, -187500.02, -187500.02, -187500.02, -187500.02, -187500.02, -0.020, -0.014, 0.976, 15:46:12.487, 1578577572487
184, -187500.02, -179784.70, -187500.02, -187500.02, -187500.02, -187500.02, -187500.02, -187500.02, 0.000, 0.000, 0.000, 15:46:12.487, 1578577572487
185, -187500.02, -179784.23, -187500.02, -187500.02, -187500.02, -187500.02, -187500.02, -187500.02, 0.000, 0.000, 0.000, 15:46:12.487, 1578577572487
186, -187500.02, -179785.72, -187500.02, -187500.02, -187500.02, -187500.02, -187500.02, -187500.02, 0.000, 0.000, 0.000, 15:46:12.490, 1578577572490
187, -187500.02, -179783.50, -187500.02, -187500.02, -187500.02, -187500.02, -187500.02, -187500.02, 0.000, 0.000, 0.000, 15:46:12.491, 1578577572491
188, -187500.02, -179780.53, -187500.02, -187500.02, -187500.02, -187500.02, -187500.02, -187500.02, 0.000, 0.000, 0.000, 15:46:12.491, 1578577572491
189, -187500.02, -179779.70, -187500.02, -187500.02, -187500.02, -187500.02, -187500.02, -187500.02, 0.000, 0.000, 0.000, 15:46:12.491, 1578577572491
190, -187500.02, -179777.33, -187500.02, -187500.02, -187500.02, -187500.02, -187500.02, -187500.02, 0.000, 0.000, 0.000, 15:46:12.493, 1578577572493
191, -187500.02, -179773.13, -187500.02, -187500.02, -187500.02, -187500.02, -187500.02, -187500.02, 0.000, 0.000, 0.000, 15:46:12.494, 1578577572494
192, -187500.02, -179772.59, -187500.02, -187500.02, -187500.02, -187500.02, -187500.02, -187500.02, 0.000, 0.000, 0.000, 15:46:12.494, 1578577572494
193, -187500.02, -179770.09, -187500.02, -187500.02, -187500.02, -187500.02, -187500.02, -187500.02, -0.018, -0.016, 0.976, 15:46:12.496, 1578577572496
194, -187500.02, -179769.75, -187500.02, -187500.02, -187500.02, -187500.02, -187500.02, -187500.02, 0.000, 0.000, 0.000, 15:46:12.497, 1578577572497
195, -187500.02, -179765.83, -187500.02, -187500.02, -187500.02, -187500.02, -187500.02, -187500.02, 0.000, 0.000, 0.000, 15:46:12.498, 1578577572498
196, -187500.02, -179764.41, -187500.02, -187500.02, -187500.02, -187500.02, -187500.02, -187500.02, 0.000, 0.000, 0.000, 15:46:12.499, 1578577572499
197, -187500.02, -179761.19, -187500.02, -187500.02, -187500.02, -187500.02, -187500.02, -187500.02, 0.000, 0.000, 0.000, 15:46:12.500, 1578577572500
198, -187500.02, -179760.77, -187500.02, -187500.02, -187500.02, -187500.02, -187500.02, -187500.02, 0.000, 0.000, 0.000, 15:46:12.500, 1578577572500
199, -187500.02, -179758.41, -187500.02, -187500.02, -187500.02, -187500.02, -187500.02, -187500.02, 0.000, 0.000, 0.000, 15:46:12.500, 1578577572500
200, -187500.02, -179754.83, -187500.02, -187500.02, -187500.02, -187500.02, -187500.02, -187500.02, 0.000, 0.000, 0.000, 15:46:12.501, 1578577572501
201, -187500.02, -179754.22, -187500.02, -187500.02, -187500.02, -187500.02, -187500.02, -187500.02, 0.000, 0.000, 0.000, 15:46:12.501, 1578577572501
202, -187500.02, -179751.41, -187500.02, -187500.02, -187500.02, -187500.02, -187500.02, -187500.02, 0.000, 0.000, 0.000, 15:46:12.501, 1578577572501
203, -187500.02, -179749.30, -187500.02, -187500.02, -187500.02, -187500.02, -187500.02, -187500.02, -0.018, -0.014, 0.972, 15:46:12.501, 1578577572501
204, -187500.02, -179748.56, -187500.02, -187500.02, -187500.02, -187500.02, -187500.02, -187500.02, 0.000, 0.000, 0.000, 15:46:12.502, 1578577572502
205, -187500.02, -179747.78, -187500.02, -187500.02, -187500.02, -187500.02, -187500.02, -187500.02, 0.000, 0.000, 0.000, 15:46:12.502, 1578577572502
206, -187500.02, -179747.41, -187500.02, -187500.02, -187500.02, -187500.02, -187500.02, -187500.02, 0.000, 0.000, 0.000, 15:46:12.502, 1578577572502
207, -187500.02, -179745.89, -187500.02, -187500.02, -187500.02, -187500.02, -187500.02, -187500.02, 0.000, 0.000, 0.000, 15:46:12.502, 1578577572502
208, -187500.02, -179742.22, -187500.02, -187500.02, -187500.02, -187500.02, -187500.02, -187500.02, 0.000, 0.000, 0.000, 15:46:12.503, 1578577572503
209, -187500.02, -179740.30, -187500.02, -187500.02, -187500.02, -187500.02, -187500.02, -187500.02, 0.000, 0.000, 0.000, 15:46:12.503, 1578577572503
210, -187500.02, -179738.70, -187500.02, -187500.02, -187500.02, -187500.02, -187500.02, -187500.02, 0.000, 0.000, 0.000, 15:46:12.503, 1578577572503
211, -187500.02, -179736.72, -187500.02, -187500.02, -187500.02, -187500.02, -187500.02, -187500.02, 0.000, 0.000, 0.000, 15:46:12.503, 1578577572503
212, -187500.02, -179733.44, -187500.02, -187500.02, -187500.02, -187500.02, -187500.02, -187500.02, -0.020, -0.010, 0.968, 15:46:12.504, 1578577572504
213, -187500.02, -179728.84, -187500.02, -187500.02, -187500.02, -187500.02, -187500.02, -187500.02, 0.000, 0.000, 0.000, 15:46:12.504, 1578577572504
214, -187500.02, -179723.16, -187500.02, -187500.02, -187500.02, -187500.02, -187500.02, -187500.02, 0.000, 0.000, 0.000, 15:46:12.504, 1578577572504
215, -187500.02, -179722.91, -187500.02, -187500.02, -187500.02, -187500.02, -187500.02, -187500.02, 0.000, 0.000, 0.000, 15:46:12.504, 1578577572504
216, -187500.02, -179725.09, -187500.02, -187500.02, -187500.02, -187500.02, -187500.02, -187500.02, 0.000, 0.000, 0.000, 15:46:12.504, 1578577572504
217, -187500.02, -179723.53, -187500.02, -187500.02, -187500.02, -187500.02, -187500.02, -187500.02, 0.000, 0.000, 0.000, 15:46:12.505, 1578577572505
218, -187500.02, -179722.48, -187500.02, -187500.02, -187500.02, -187500.02, -187500.02, -187500.02, 0.000, 0.000, 0.000, 15:46:12.505, 1578577572505
219, -187500.02, -179719.06, -187500.02, -187500.02, -187500.02, -187500.02, -187500.02, -187500.02, 0.000, 0.000, 0.000, 15:46:12.505, 1578577572505
220, -187500.02, -179716.00, -187500.02, -187500.02, -187500.02, -187500.02, -187500.02, -187500.02, 0.000, 0.000, 0.000, 15:46:12.506, 1578577572506
221, -187500.02, -179711.50, -187500.02, -187500.02, -187500.02, -187500.02, -187500.02, -187500.02, 0.000, 0.000, 0.000, 15:46:12.506, 1578577572506
222, -187500.02, -179711.22, -187500.02, -187500.02, -187500.02, -187500.02, -187500.02, -187500.02, -0.020, -0.012, 0.970, 15:46:12.506, 1578577572506
223, -187500.02, -179712.28, -187500.02, -187500.02, -187500.02, -187500.02, -187500.02, -187500.02, 0.000, 0.000, 0.000, 15:46:12.506, 1578577572506
224, -187500.02, -179712.73, -187500.02, -187500.02, -187500.02, -187500.02, -187500.02, -187500.02, 0.000, 0.000, 0.000, 15:46:12.506, 1578577572506
225, -187500.02, -179713.67, -187500.02, -187500.02, -187500.02, -187500.02, -187500.02, -187500.02, 0.000, 0.000, 0.000, 15:46:12.507, 1578577572507
226, -187500.02, -179710.83, -187500.02, -187500.02, -187500.02, -187500.02, -187500.02, -187500.02, 0.000, 0.000, 0.000, 15:46:12.507, 1578577572507
227, -187500.02, -179708.16, -187500.02, -187500.02, -187500.02, -187500.02, -187500.02, -187500.02, 0.000, 0.000, 0.000, 15:46:12.507, 1578577572507
228, -187500.02, -179707.73, -187500.02, -187500.02, -187500.02, -187500.02, -187500.02, -187500.02, 0.000, 0.000, 0.000, 15:46:12.507, 1578577572507
229, -187500.02, -179707.73, -187500.02, -187500.02, -187500.02, -187500.02, -187500.02, -187500.02, 0.000, 0.000, 0.000, 15:46:12.508, 1578577572508
230, -187500.02, -179704.52, -187500.02, -187500.02, -187500.02, -187500.02, -187500.02, -187500.02, 0.000, 0.000, 0.000, 15:46:12.508, 1578577572508
231, -187500.02, -179703.22, -187500.02, -187500.02, -187500.02, -187500.02, -187500.02, -187500.02, 0.000, 0.000, 0.000, 15:46:12.508, 1578577572508
232, -187500.02, -179703.64, -187500.02, -187500.02, -187500.02, -187500.02, -187500.02, -187500.02, -0.018, -0.012, 0.972, 15:46:12.509, 1578577572509
233, -187500.02, -179702.66, -187500.02, -187500.02, -187500.02, -187500.02, -187500.02, -187500.02, 0.000, 0.000, 0.000, 15:46:12.509, 1578577572509
234, -187500.02, -179697.92, -187500.02, -187500.02, -187500.02, -187500.02, -187500.02, -187500.02, 0.000, 0.000, 0.000, 15:46:12.510, 1578577572510
235, -187500.02, -179693.64, -187500.02, -187500.02, -187500.02, -187500.02, -187500.02, -187500.02, 0.000, 0.000, 0.000, 15:46:12.510, 1578577572510
236, -187500.02, -179692.86, -187500.02, -187500.02, -187500.02, -187500.02, -187500.02, -187500.02, 0.000, 0.000, 0.000, 15:46:12.510, 1578577572510
237, -187500.02, -179692.97, -187500.02, -187500.02, -187500.02, -187500.02, -187500.02, -187500.02, 0.000, 0.000, 0.000, 15:46:12.510, 1578577572510
238, -187500.02, -179690.16, -187500.02, -187500.02, -187500.02, -187500.02, -187500.02, -187500.02, 0.000, 0.000, 0.000, 15:46:12.510, 1578577572510
239, -187500.02, -179687.48, -187500.02, -187500.02, -187500.02, -187500.02, -187500.02, -187500.02, 0.000, 0.000, 0.000, 15:46:12.510, 1578577572510
240, -187500.02, -179685.98, -187500.02, -187500.02, -187500.02, -187500.02, -187500.02, -187500.02, 0.000, 0.000, 0.000, 15:46:12.511, 1578577572511
241, -187500.02, -179684.91, -187500.02, -187500.02, -187500.02, -187500.02, -187500.02, -187500.02, 0.000, 0.000, 0.000, 15:46:12.511, 1578577572511
242, -187500.02, -179681.80, -187500.02, -187500.02, -187500.02, -187500.02, -187500.02, -187500.02, -0.020, -0.012, 0.976, 15:46:12.928, 1578577572928
243, -187500.02, -179678.72, -187500.02, -187500.02, -187500.02, -187500.02, -187500.02, -187500.02, 0.000, 0.000, 0.000, 15:46:12.928, 1578577572928
244, -187500.02, -179679.97, -187500.02, -187500.02, -187500.02, -187500.02, -187500.02, -187500.02, 0.000, 0.000, 0.000, 15:46:12.928, 1578577572928
245, -187500.02, -179678.16, -187500.02, -187500.02, -187500.02, -187500.02, -187500.02, -187500.02, 0.000, 0.000, 0.000, 15:46:12.928, 1578577572928
246, -187500.02, -179671.19, -187500.02, -187500.02, -187500.02, -187500.02, -187500.02, -187500.02, 0.000, 0.000, 0.000, 15:46:12.928, 1578577572928
247, -187500.02, -179668.92, -187500.02, -187500.02, -187500.02, -187500.02, -187500.02, -187500.02, 0.000, 0.000, 0.000, 15:46:12.928, 1578577572928
248, -187500.02, -179666.98, -187500.02, -187500.02, -187500.02, -187500.02, -187500.02, -187500.02, 0.000, 0.000, 0.000, 15:46:12.933, 1578577572933
249, -187500.02, -179666.02, -187500.02, -187500.02, -187500.02, -187500.02, -187500.02, -187500.02, 0.000, 0.000, 0.000, 15:46:12.933, 1578577572933
250, -187500.02, -179664.44, -187500.02, -187500.02, -187500.02, -187500.02, -187500.02, -187500.02, 0.000, 0.000, 0.000, 15:46:12.933, 1578577572933
251, -187500.02, -179665.06, -187500.02, -187500.02, -187500.02, -187500.02, -187500.02, -187500.02, 0.000, 0.000, 0.000, 15:46:12.934, 1578577572934
252, -187500.02, -179664.56, -187500.02, -187500.02, -187500.02, -187500.02, -187500.02, -187500.02, -0.022, -0.012, 0.978, 15:46:12.934, 1578577572934
253, -187500.02, -179662.78, -187500.02, -187500.02, -187500.02, -187500.02, -187500.02, -187500.02, 0.000, 0.000, 0.000, 15:46:12.934, 1578577572934
254, -187500.02, -179659.27, -187500.02, -187500.02, -187500.02, -187500.02, -187500.02, -187500.02, 0.000, 0.000, 0.000, 15:46:12.934, 1578577572934
255, -187500.02, -179653.19, -187500.02, -187500.02, -187500.02, -187500.02, -187500.02, -187500.02, 0.000, 0.000, 0.000, 15:46:12.934, 1578577572934
0, -187500.02, -179651.98, -187500.02, -187500.02, -187500.02, -187500.02, -187500.02, -187500.02, 0.000, 0.000, 0.000, 15:46:12.935, 1578577572935
1, -187500.02, -179650.75, -187500.02, -187500.02, -187500.02, -187500.02, -187500.02, -187500.02, 0.000, 0.000, 0.000, 15:46:12.935, 1578577572935
2, -187500.02, -179649.80, -187500.02, -187500.02, -187500.02, -187500.02, -187500.02, -187500.02, 0.000, 0.000, 0.000, 15:46:12.935, 1578577572935
3, -187500.02, -179646.42, -187500.02, -187500.02, -187500.02, -187500.02, -187500.02, -187500.02, 0.000, 0.000, 0.000, 15:46:12.936, 1578577572936
4, -187500.02, -179644.08, -187500.02, -187500.02, -187500.02, -187500.02, -187500.02, -187500.02, 0.000, 0.000, 0.000, 15:46:12.936, 1578577572936
5, -187500.02, -179641.02, -187500.02, -187500.02, -187500.02, -187500.02, -187500.02, -187500.02, -0.022, -0.012, 0.978, 15:46:12.936, 1578577572936
6, -187500.02, -179639.84, -187500.02, -187500.02, -187500.02, -187500.02, -187500.02, -187500.02, 0.000, 0.000, 0.000, 15:46:12.936, 1578577572936
7, -187500.02, -179639.98, -187500.02, -187500.02, -187500.02, -187500.02, -187500.02, -187500.02, 0.000, 0.000, 0.000, 15:46:12.936, 1578577572936
8, -187500.02, -179637.92, -187500.02, -187500.02, -187500.02, -187500.02, -187500.02, -187500.02, 0.000, 0.000, 0.000, 15:46:12.936, 1578577572936
9, -187500.02, -179636.63, -187500.02, -187500.02, -187500.02, -187500.02, -187500.02, -187500.02, 0.000, 0.000, 0.000, 15:46:12.937, 1578577572937
10, -187500.02, -179637.86, -187500.02, -187500.02, -187500.02, -187500.02, -187500.02, -187500.02, 0.000, 0.000, 0.000, 15:46:12.937, 1578577572937
11, -187500.02, -179637.44, -187500.02, -187500.02, -187500.02, -187500.02, -187500.02, -187500.02, 0.000, 0.000, 0.000, 15:46:12.937, 1578577572937
12, -187500.02, -179635.28, -187500.02, -187500.02, -187500.02, -187500.02, -187500.02, -187500.02, 0.000, 0.000, 0.000, 15:46:12.937, 1578577572937
13, -187500.02, -179631.33, -187500.02, -187500.02, -187500.02, -187500.02, -187500.02, -187500.02, 0.000, 0.000, 0.000, 15:46:12.937, 1578577572937
14, -187500.02, -179629.36, -187500.02, -187500.02, -187500.02, -187500.02, -187500.02, -187500.02, 0.000, 0.000, 0.000, 15:46:12.940, 1578577572940
15, -187500.02, -179630.95, -187500.02, -187500.02, -187500.02, -187500.02, -187500.02, -187500.02, -0.022, -0.010, 0.978, 15:46:12.941, 1578577572941
16, -187500.02, -179629.08, -187500.02, -187500.02, -187500.02, -187500.02, -187500.02, -187500.02, 0.000, 0.000, 0.000, 15:46:12.942, 1578577572942
17, -187500.02, -179626.80, -187500.02, -187500.02, -187500.02, -187500.02, -187500.02, -187500.02, 0.000, 0.000, 0.000, 15:46:12.943, 1578577572943
18, -187500.02, -179624.00, -187500.02, -187500.02, -187500.02, -187500.02, -187500.02, -187500.02, 0.000, 0.000, 0.000, 15:46:12.944, 1578577572944
19, -187500.02, -179622.05, -187500.02, -187500.02, -187500.02, -187500.02, -187500.02, -187500.02, 0.000, 0.000, 0.000, 15:46:12.944, 1578577572944
20, -187500.02, -179621.81, -187500.02, -187500.02, -187500.02, -187500.02, -187500.02, -187500.02, 0.000, 0.000, 0.000, 15:46:12.944, 1578577572944
21, -187500.02, -179618.03, -187500.02, -187500.02, -187500.02, -187500.02, -187500.02, -187500.02, 0.000, 0.000, 0.000, 15:46:12.944, 1578577572944
22, -187500.02, -179615.13, -187500.02, -187500.02, -187500.02, -187500.02, -187500.02, -187500.02, 0.000, 0.000, 0.000, 15:46:12.945, 1578577572945
23, -187500.02, -179613.56, -187500.02, -187500.02, -187500.02, -187500.02, -187500.02, -187500.02, 0.000, 0.000, 0.000, 15:46:12.945, 1578577572945
24, -187500.02, -179612.52, -187500.02, -187500.02, -187500.02, -187500.02, -187500.02, -187500.02, 0.000, 0.000, 0.000, 15:46:12.945, 1578577572945
25, -187500.02, -179611.44, -187500.02, -187500.02, -187500.02, -187500.02, -187500.02, -187500.02, -0.020, -0.006, 0.978, 15:46:12.945, 1578577572945
26, -187500.02, -179608.89, -187500.02, -187500.02, -187500.02, -187500.02, -187500.02, -187500.02, 0.000, 0.000, 0.000, 15:46:12.945, 1578577572945
27, -187500.02, -179607.70, -187500.02, -187500.02, -187500.02, -187500.02, -187500.02, -187500.02, 0.000, 0.000, 0.000, 15:46:12.946, 1578577572946
28, -187500.02, -179605.88, -187500.02, -187500.02, -187500.02, -187500.02, -187500.02, -187500.02, 0.000, 0.000, 0.000, 15:46:12.946, 1578577572946
29, -187500.02, -179604.19, -187500.02, -187500.02, -187500.02, -187500.02, -187500.02, -187500.02, 0.000, 0.000, 0.000, 15:46:12.946, 1578577572946
30, -187500.02, -179602.08, -187500.02, -187500.02, -187500.02, -187500.02, -187500.02, -187500.02, 0.000, 0.000, 0.000, 15:46:12.946, 1578577572946
31, -187500.02, -179598.73, -187500.02, -187500.02, -187500.02, -187500.02, -187500.02, -187500.02, 0.000, 0.000, 0.000, 15:46:12.946, 1578577572946
32, -187500.02, -179597.53, -187500.02, -187500.02, -187500.02, -187500.02, -187500.02, -187500.02, 0.000, 0.000, 0.000, 15:46:12.946, 1578577572946
33, -187500.02, -179595.67, -187500.02, -187500.02, -187500.02, -187500.02, -187500.02, -187500.02, 0.000, 0.000, 0.000, 15:46:12.947, 1578577572947
34, -187500.02, -179594.00, -187500.02, -187500.02, -187500.02, -187500.02, -187500.02, -187500.02, 0.000, 0.000, 0.000, 15:46:12.947, 1578577572947
35, -187500.02, -179593.22, -187500.02, -187500.02, -187500.02, -187500.02, -187500.02, -187500.02, -0.020, -0.008, 0.976, 15:46:12.947, 1578577572947
36, -187500.02, -179592.27, -187500.02, -187500.02, -187500.02, -187500.02, -187500.02, -187500.02, 0.000, 0.000, 0.000, 15:46:12.947, 1578577572947
37, -187500.02, -179591.61, -187500.02, -187500.02, -187500.02, -187500.02, -187500.02, -187500.02, 0.000, 0.000, 0.000, 15:46:12.947, 1578577572947
38, -187500.02, -179589.75, -187500.02, -187500.02, -187500.02, -187500.02, -187500.02, -187500.02, 0.000, 0.000, 0.000, 15:46:12.947, 1578577572947
39, -187500.02, -179587.09, -187500.02, -187500.02, -187500.02, -187500.02, -187500.02, -187500.02, 0.000, 0.000, 0.000, 15:46:12.948, 1578577572948
40, -187500.02, -179582.89, -187500.02, -187500.02, -187500.02, -187500.02, -187500.02, -187500.02, 0.000, 0.000, 0.000, 15:46:12.948, 1578577572948
41, -187500.02, -179580.66, -187500.02, -187500.02, -187500.02, -187500.02, -187500.02, -187500.02, 0.000, 0.000, 0.000, 15:46:12.948, 1578577572948
42, -187500.02, -179581.44, -187500.02, -187500.02, -187500.02, -187500.02, -187500.02, -187500.02, 0.000, 0.000, 0.000, 15:46:12.948, 1578577572948
43, -187500.02, -179580.38, -187500.02, -187500.02, -187500.02, -187500.02, -187500.02, -187500.02, 0.000, 0.000, 0.000, 15:46:12.948, 1578577572948
44, -187500.02, -179578.31, -187500.02, -187500.02, -187500.02, -187500.02, -187500.02, -187500.02, -0.024, -0.010, 0.976, 15:46:12.948, 1578577572948
45, -187500.02, -179577.70, -187500.02, -187500.02, -187500.02, -187500.02, -187500.02, -187500.02, 0.000, 0.000, 0.000, 15:46:12.948, 1578577572948
46, -187500.02, -179575.19, -187500.02, -187500.02, -187500.02, -187500.02, -187500.02, -187500.02, 0.000, 0.000, 0.000, 15:46:12.949, 1578577572949
47, -187500.02, -179574.63, -187500.02, -187500.02, -187500.02, -187500.02, -187500.02, -187500.02, 0.000, 0.000, 0.000, 15:46:12.949, 1578577572949
48, -187500.02, -179573.27, -187500.02, -187500.02, -187500.02, -187500.02, -187500.02, -187500.02, 0.000, 0.000, 0.000, 15:46:12.949, 1578577572949
49, -187500.02, -179571.83, -187500.02, -187500.02, -187500.02, -187500.02, -187500.02, -187500.02, 0.000, 0.000, 0.000, 15:46:12.949, 1578577572949
50, -187500.02, -179569.89, -187500.02, -187500.02, -187500.02, -187500.02, -187500.02, -187500.02, 0.000, 0.000, 0.000, 15:46:12.949, 1578577572949
51, -187500.02, -179567.81, -187500.02, -187500.02, -187500.02, -187500.02, -187500.02, -187500.02, 0.000, 0.000, 0.000, 15:46:12.949, 1578577572949
52, -187500.02, -179563.06, -187500.02, -187500.02, -187500.02, -187500.02, -187500.02, -187500.02, 0.000, 0.000, 0.000, 15:46:12.950, 1578577572950
53, -187500.02, -179558.47, -187500.02, -187500.02, -187500.02, -187500.02, -187500.02, -187500.02, 0.000, 0.000, 0.000, 15:46:12.950, 1578577572950
54, -187500.02, -179557.61, -187500.02, -187500.02, -187500.02, -187500.02, -187500.02, -187500.02, -0.022, -0.012, 0.976, 15:46:12.950, 1578577572950
55, -187500.02, -179556.03, -187500.02, -187500.02, -187500.02, -187500.02, -187500.02, -187500.02, 0.000, 0.000, 0.000, 15:46:12.950, 1578577572950
56, -187500.02, -179555.78, -187500.02, -187500.02, -187500.02, -187500.02, -187500.02, -187500.02, 0.000, 0.000, 0.000, 15:46:12.951, 1578577572951
57, -187500.02, -179554.73, -187500.02, -187500.02, -187500.02, -187500.02, -187500.02, -187500.02, 0.000, 0.000, 0.000, 15:46:12.951, 1578577572951
58, -187500.02, -179551.47, -187500.02, -187500.02, -187500.02, -187500.02, -187500.02, -187500.02, 0.000, 0.000, 0.000, 15:46:12.951, 1578577572951
59, -187500.02, -179550.16, -187500.02, -187500.02, -187500.02, -187500.02, -187500.02, -187500.02, 0.000, 0.000, 0.000, 15:46:12.951, 1578577572951
60, -187500.02, -179549.80, -187500.02, -187500.02, -187500.02, -187500.02, -187500.02, -187500.02, 0.000, 0.000, 0.000, 15:46:12.951, 1578577572951
61, -187500.02, -179546.81, -187500.02, -187500.02, -187500.02, -187500.02, -187500.02, -187500.02, 0.000, 0.000, 0.000, 15:46:12.952, 1578577572952
62, -187500.02, -179544.22, -187500.02, -187500.02, -187500.02, -187500.02, -187500.02, -187500.02, 0.000, 0.000, 0.000, 15:46:12.952, 1578577572952
63, -187500.02, -179542.75, -187500.02, -187500.02, -187500.02, -187500.02, -187500.02, -187500.02, 0.000, 0.000, 0.000, 15:46:12.952, 1578577572952
64, -187500.02, -179542.75, -187500.02, -187500.02, -187500.02, -187500.02, -187500.02, -187500.02, -0.014, -0.014, 0.980, 15:46:12.952, 1578577572952
65, -187500.02, -179541.44, -187500.02, -187500.02, -187500.02, -187500.02, -187500.02, -187500.02, 0.000, 0.000, 0.000, 15:46:12.952, 1578577572952
66, -187500.02, -179540.98, -187500.02, -187500.02, -187500.02, -187500.02, -187500.02, -187500.02, 0.000, 0.000, 0.000, 15:46:12.953, 1578577572953
67, -187500.02, -179540.92, -187500.02, -187500.02, -187500.02, -187500.02, -187500.02, -187500.02, 0.000, 0.000, 0.000, 15:46:12.953, 1578577572953
68, -187500.02, -179540.73, -187500.02, -187500.02, -187500.02, -187500.02, -187500.02, -187500.02, 0.000, 0.000, 0.000, 15:46:12.953, 1578577572953
69, -187500.02, -179537.94, -187500.02, -187500.02, -187500.02, -187500.02, -187500.02, -187500.02, 0.000, 0.000, 0.000, 15:46:12.953, 1578577572953
70, -187500.02, -179535.63, -187500.02, -187500.02, -187500.02, -187500.02, -187500.02, -187500.02, 0.000, 0.000, 0.000, 15:46:12.953, 1578577572953
71, -187500.02, -179533.98, -187500.02, -187500.02, -187500.02, -187500.02, -187500.02, -187500.02, 0.000, 0.000, 0.000, 15:46:12.954, 1578577572954
72, -187500.02, -179531.98, -187500.02, -187500.02, -187500.02, -187500.02, -187500.02, -187500.02, 0.000, 0.000, 0.000, 15:46:12.954, 1578577572954
73, -187500.02, -179531.38, -187500.02, -187500.02, -187500.02, -187500.02, -187500.02, -187500.02, 0.000, 0.000, 0.000, 15:46:12.954, 1578577572954
74, -187500.02, -179528.95, -187500.02, -187500.02, -187500.02, -187500.02, -187500.02, -187500.02, -0.018, -0.016, 0.978, 15:46:12.954, 1578577572954
75, -187500.02, -179525.16, -187500.02, -187500.02, -187500.02, -187500.02, -187500.02, -187500.02, 0.000, 0.000, 0.000, 15:46:12.954, 1578577572954
76, -187500.02, -179521.84, -187500.02, -187500.02, -187500.02, -187500.02, -187500.02, -187500.02, 0.000, 0.000, 0.000, 15:46:12.954, 1578577572954
77, -187500.02, -179520.52, -187500.02, -187500.02, -187500.02, -187500.02, -187500.02, -187500.02, 0.000, 0.000, 0.000, 15:46:12.954, 1578577572954
78, -187500.02, -179519.97, -187500.02, -187500.02, -187500.02, -187500.02, -187500.02, -187500.02, 0.000, 0.000, 0.000, 15:46:12.955, 1578577572955
79, -187500.02, -179520.28, -187500.02, -187500.02, -187500.02, -187500.02, -187500.02, -187500.02, 0.000, 0.000, 0.000, 15:46:12.955, 1578577572955
80, -187500.02, -179519.28, -187500.02, -187500.02, -187500.02, -187500.02, -187500.02, -187500.02, 0.000, 0.000, 0.000, 15:46:12.955, 1578577572955
81, -187500.02, -179515.48, -187500.02, -187500.02, -187500.02, -187500.02, -187500.02, -187500.02, 0.000, 0.000, 0.000, 15:46:12.955, 1578577572955
82, -187500.02, -179511.80, -187500.02, -187500.02, -187500.02, -187500.02, -187500.02, -187500.02, 0.000, 0.000, 0.000, 15:46:12.955, 1578577572955
83, -187500.02, -179506.77, -187500.02, -187500.02, -187500.02, -187500.02, -187500.02, -187500.02, -0.018, -0.024, 0.976, 15:46:12.956, 1578577572956
84, -187500.02, -179508.98, -187500.02, -187500.02, -187500.02, -187500.02, -187500.02, -187500.02, 0.000, 0.000, 0.000, 15:46:12.956, 1578577572956
85, -187500.02, -179510.50, -187500.02, -187500.02, -187500.02, -187500.02, -187500.02, -187500.02, 0.000, 0.000, 0.000, 15:46:12.956, 1578577572956
86, -187500.02, -179509.69, -187500.02, -187500.02, -187500.02, -187500.02, -187500.02, -187500.02, 0.000, 0.000, 0.000, 15:46:12.956, 1578577572956
87, -187500.02, -179508.80, -187500.02, -187500.02, -187500.02, -187500.02, -187500.02, -187500.02, 0.000, 0.000, 0.000, 15:46:12.957, 1578577572957
88, -187500.02, -179507.84, -187500.02, -187500.02, -187500.02, -187500.02, -187500.02, -187500.02, 0.000, 0.000, 0.000, 15:46:12.957, 1578577572957
89, -187500.02, -179504.23, -187500.02, -187500.02, -187500.02, -187500.02, -187500.02, -187500.02, 0.000, 0.000, 0.000, 15:46:12.957, 1578577572957
90, -187500.02, -179499.50, -187500.02, -187500.02, -187500.02, -187500.02, -187500.02, -187500.02, 0.000, 0.000, 0.000, 15:46:12.957, 1578577572957
91, -187500.02, -179498.66, -187500.02, -187500.02, -187500.02, -187500.02, -187500.02, -187500.02, 0.000, 0.000, 0.000, 15:46:12.957, 1578577572957
92, -187500.02, -179499.95, -187500.02, -187500.02, -187500.02, -187500.02, -187500.02, -187500.02, 0.000, 0.000, 0.000, 15:46:12.957, 1578577572957
93, -187500.02, -179498.56, -187500.02, -187500.02, -187500.02, -187500.02, -187500.02, -187500.02, -0.022, -0.024, 0.972, 15:46:12.986, 1578577572986
94, -187500.02, -179496.44, -187500.02, -187500.02, -187500.02, -187500.02, -187500.02, -187500.02, 0.000, 0.000, 0.000, 15:46:12.987, 1578577572987
95, -187500.02, -179494.20, -187500.02, -187500.02, -187500.02, -187500.02, -187500.02, -187500.02, 0.000, 0.000, 0.000, 15:46:12.987, 1578577572987
96, -187500.02, -179491.91, -187500.02, -187500.02, -187500.02, -187500.02, -187500.02, -187500.02, 0.000, 0.000, 0.000, 15:46:12.987, 1578577572987
97, -187500.02, -179488.59, -187500.02, -187500.02, -187500.02, -187500.02, -187500.02, -187500.02, 0.000, 0.000, 0.000, 15:46:12.987, 1578577572987
98, -187500.02, -179486.83, -187500.02, -187500.02, -187500.02, -187500.02, -187500.02, -187500.02, 0.000, 0.000, 0.000, 15:46:12.987, 1578577572987
99, -187500.02, -179485.13, -187500.02, -187500.02, -187500.02, -187500.02, -187500.02, -187500.02, 0.000, 0.000, 0.000, 15:46:12.987, 1578577572987
100, -187500.02, -179484.03, -187500.02, -187500.02, -187500.02, -187500.02, -187500.02, -187500.02, 0.000, 0.000, 0.000, 15:46:12.988, 1578577572988
101, -187500.02, -179480.72, -187500.02, -187500.02, -187500.02, -187500.02, -187500.02, -187500.02, 0.000, 0.000, 0.000, 15:46:12.988, 1578577572988
102, -187500.02, -179477.80, -187500.02, -187500.02, -187500.02, -187500.02, -187500.02, -187500.02, 0.000, 0.000, 0.000, 15:46:12.988, 1578577572988
103, -187500.02, -179477.22, -187500.02, -187500.02, -187500.02, -187500.02, -187500.02, -187500.02, -0.018, -0.022, 0.978, 15:46:12.988, 1578577572988
104, -187500.02, -179476.44, -187500.02, -187500.02, -187500.02, -187500.02, -187500.02, -187500.02, 0.000, 0.000, 0.000, 15:46:12.988, 1578577572988
105, -187500.02, -179474.58, -187500.02, -187500.02, -187500.02, -187500.02, -187500.02, -187500.02, 0.000, 0.000, 0.000, 15:46:12.988, 1578577572988
106, -187500.02, -179473.11, -187500.02, -187500.02, -187500.02, -187500.02, -187500.02, -187500.02, 0.000, 0.000, 0.000, 15:46:13.405, 1578577573405
107, -187500.02, -179471.78, -187500.02, -187500.02, -187500.02, -187500.02, -187500.02, -187500.02, 0.000, 0.000, 0.000, 15:46:13.406, 1578577573406
108, -187500.02, -179470.17, -187500.02, -187500.02, -187500.02, -187500.02, -187500.02, -187500.02, 0.000, 0.000, 0.000, 15:46:13.406, 1578577573406
109, -187500.02, -179465.45, -187500.02, -187500.02, -187500.02, -187500.02, -187500.02, -187500.02, 0.000, 0.000, 0.000, 15:46:13.406, 1578577573406
110, -187500.02, -179464.25, -187500.02, -187500.02, -187500.02, -187500.02, -187500.02, -187500.02, 0.000, 0.000, 0.000, 15:46:13.408, 1578577573408
111, -187500.02, -179468.08, -187500.02, -187500.02, -187500.02, -187500.02, -187500.02, -187500.02, 0.000, 0.000, 0.000, 15:46:13.409, 1578577573409
112, -187500.02, -179467.20, -187500.02, -187500.02, -187500.02, -187500.02, -187500.02, -187500.02, 0.000, 0.000, 0.000, 15:46:13.410, 1578577573410
113, -187500.02, -179465.41, -187500.02, -187500.02, -187500.02, -187500.02, -187500.02, -187500.02, -0.016, -0.016, 0.976, 15:46:13.410, 1578577573410
114, -187500.02, -179460.73, -187500.02, -187500.02, -187500.02, -187500.02, -187500.02, -187500.02, 0.000, 0.000, 0.000, 15:46:13.410, 1578577573410
115, -187500.02, -179455.69, -187500.02, -187500.02, -187500.02, -187500.02, -187500.02, -187500.02, 0.000, 0.000, 0.000, 15:46:13.410, 1578577573410
116, -187500.02, -179453.44, -187500.02, -187500.02, -187500.02, -187500.02, -187500.02, -187500.02, 0.000, 0.000, 0.000, 15:46:13.410, 1578577573410
117, -187500.02, -179455.25, -187500.02, -187500.02, -187500.02, -187500.02, -187500.02, -187500.02, 0.000, 0.000, 0.000, 15:46:13.410, 1578577573410
118, -187500.02, -179454.69, -187500.02, -187500.02, -187500.02, -187500.02, -187500.02, -187500.02, 0.000, 0.000, 0.000, 15:46:13.410, 1578577573410
119, -187500.02, -179452.11, -187500.02, -187500.02, -187500.02, -187500.02, -187500.02, -187500.02, 0.000, 0.000, 0.000, 15:46:13.410, 1578577573410
120, -187500.02, -179448.78, -187500.02, -187500.02, -187500.02, -187500.02, -187500.02, -187500.02, 0.000, 0.000, 0.000, 15:46:13.411, 1578577573411
121, -187500.02, -179447.78, -187500.02, -187500.02, -187500.02, -187500.02, -187500.02, -187500.02, 0.000, 0.000, 0.000, 15:46:13.411, 1578577573411
122, -187500.02, -179445.59, -187500.02, -187500.02, -187500.02, -187500.02, -187500.02, -187500.02, -0.018, -0.012, 0.976, 15:46:13.411, 1578577573411
123, -187500.02, -179444.53, -187500.02, -187500.02, -187500.02, -187500.02, -187500.02, -187500.02, 0.000, 0.000, 0.000, 15:46:13.411, 1578577573411
124, -187500.02, -179442.61, -187500.02, -187500.02, -187500.02, -187500.02, -187500.02, -187500.02, 0.000, 0.000, 0.000, 15:46:13.411, 1578577573411
125, -187500.02, -179441.50, -187500.02, -187500.02, -187500.02, -187500.02, -187500.02, -187500.02, 0.000, 0.000, 0.000, 15:46:13.412, 1578577573412
126, -187500.02, -179439.78, -187500.02, -187500.02, -187500.02, -187500.02, -187500.02, -187500.02, 0.000, 0.000, 0.000, 15:46:13.412, 1578577573412
127, -187500.02, -179436.52, -187500.02, -187500.02, -187500.02, -187500.02, -187500.02, -187500.02, 0.000, 0.000, 0.000, 15:46:13.412, 1578577573412
128, -187500.02, -179433.86, -187500.02, -187500.02, -187500.02, -187500.02, -187500.02, -187500.02, 0.000, 0.000, 0.000, 15:46:13.412, 1578577573412
129, -187500.02, -179431.81, -187500.02, -187500.02, -187500.02, -187500.02, -187500.02, -187500.02, 0.000, 0.000, 0.000, 15:46:13.413, 1578577573413
130, -187500.02, -179430.13, -187500.02, -187500.02, -187500.02, -187500.02, -187500.02, -187500.02, 0.000, 0.000, 0.000, 15:46:13.413, 1578577573413
131, -187500.02, -179427.02, -187500.02, -187500.02, -187500.02, -187500.02, -187500.02, -187500.02, 0.000, 0.000, 0.000, 15:46:13.413, 1578577573413
132, -187500.02, -179423.70, -187500.02, -187500.02, -187500.02, -187500.02, -187500.02, -187500.02, -0.018, -0.014, 0.982, 15:46:13.413, 1578577573413
133, -187500.02, -179421.27, -187500.02, -187500.02, -187500.02, -187500.02, -187500.02, -187500.02, 0.000, 0.000, 0.000, 15:46:13.414, 1578577573414
134, -187500.02, -179419.88, -187500.02, -187500.02, -187500.02, -187500.02, -187500.02, -187500.02, 0.000, 0.000, 0.000, 15:46:13.414, 1578577573414
135, -187500.02, -179418.27, -187500.02, -187500.02, -187500.02, -187500.02, -187500.02, -187500.02, 0.000, 0.000, 0.000, 15:46:13.414, 1578577573414
136, -187500.02, -179416.78, -187500.02, -187500.02, -187500.02, -187500.02, -187500.02, -187500.02, 0.000, 0.000, 0.000, 15:46:13.414, 1578577573414
137, -187500.02, -179415.70, -187500.02, -187500.02, -187500.02, -187500.02, -187500.02, -187500.02, 0.000, 0.000, 0.000, 15:46:13.415, 1578577573415
138, -187500.02, -179412.69, -187500.02, -187500.02, -187500.02, -187500.02, -187500.02, -187500.02, 0.000, 0.000, 0.000, 15:46:13.415, 1578577573415
139, -187500.02, -179414.30, -187500.02, -187500.02, -187500.02, -187500.02, -187500.02, -187500.02, 0.000, 0.000, 0.000, 15:46:13.415, 1578577573415
140, -187500.02, -179412.69, -187500.02, -187500.02, -187500.02, -187500.02, -187500.02, -187500.02, 0.000, 0.000, 0.000, 15:46:13.415, 1578577573415
141, -187500.02, -179408.59, -187500.02, -187500.02, -187500.02, -187500.02, -187500.02, -187500.02, 0.000, 0.000, 0.000, 15:46:13.415, 1578577573415
142, -187500.02, -179405.52, -187500.02, -187500.02, -187500.02, -187500.02, -187500.02, -187500.02, -0.016, -0.018, 0.978, 15:46:13.416, 1578577573416
143, -187500.02, -179404.33, -187500.02, -187500.02, -187500.02, -187500.02, -187500.02, -187500.02, 0.000, 0.000, 0.000, 15:46:13.416, 1578577573416
144, -187500.02, -179403.50, -187500.02, -187500.02, -187500.02, -187500.02, -187500.02, -187500.02, 0.000, 0.000, 0.000, 15:46:13.416, 1578577573416
145, -187500.02, -179400.84, -187500.02, -187500.02, -187500.02, -187500.02, -187500.02, -187500.02, 0.000, 0.000, 0.000, 15:46:13.417, 1578577573417
146, -187500.02, -179400.38, -187500.02, -187500.02, -187500.02, -187500.02, -187500.02, -187500.02, 0.000, 0.000, 0.000, 15:46:13.417, 1578577573417
147, -187500.02, -179399.81, -187500.02, -187500.02, -187500.02, -187500.02, -187500.02, -187500.02, 0.000, 0.000, 0.000, 15:46:13.426, 1578577573426
148, -187500.02, -179399.61, -187500.02, -187500.02, -187500.02, -187500.02, -187500.02, -187500.02, 0.000, 0.000, 0.000, 15:46:13.427, 1578577573427
149, -187500.02, -179395.23, -187500.02, -187500.02, -187500.02, -187500.02, -187500.02, -187500.02, 0.000, 0.000, 0.000, 15:46:13.427, 1578577573427
150, -187500.02, -179394.73, -187500.02, -187500.02, -187500.02, -187500.02, -187500.02, -187500.02, 0.000, 0.000, 0.000, 15:46:13.427, 1578577573427
151, -187500.02, -179393.73, -187500.02, -187500.02, -187500.02, -187500.02, -187500.02, -187500.02, 0.000, 0.000, 0.000, 15:46:13.427, 1578577573427
152, -187500.02, -179390.16, -187500.02, -187500.02, -187500.02, -187500.02, -187500.02, -187500.02, -0.022, -0.014, 0.976, 15:46:13.427, 1578577573427
153, -187500.02, -179390.78, -187500.02, -187500.02, -187500.02, -187500.02, -187500.02, -187500.02, 0.000, 0.000, 0.000, 15:46:13.427, 1578577573427
154, -187500.02, -179389.94, -187500.02, -187500.02, -187500.02, -187500.02, -187500.02, -187500.02, 0.000, 0.000, 0.000, 15:46:13.427, 1578577573427
155, -187500.02, -179386.20, -187500.02, -187500.02, -187500.02, -187500.02, -187500.02, -187500.02, 0.000, 0.000, 0.000, 15:46:13.427, 1578577573427
156, -187500.02, -179384.50, -187500.02, -187500.02, -187500.02, -187500.02, -187500.02, -187500.02, 0.000, 0.000, 0.000, 15:46:13.427, 1578577573427
157, -187500.02, -179382.95, -187500.02, -187500.02, -187500.02, -187500.02, -187500.02, -187500.02, 0.000, 0.000, 0.000, 15:46:13.427, 1578577573427
158, -187500.02, -179381.19, -187500.02, -187500.02, -187500.02, -187500.02, -187500.02, -187500.02, 0.000, 0.000, 0.000, 15:46:13.428, 1578577573428
159, -187500.02, -179381.39, -187500.02, -187500.02, -187500.02, -187500.02, -187500.02, -187500.02, 0.000, 0.000, 0.000, 15:46:13.428, 1578577573428
160, -187500.02, -179380.50, -187500.02, -187500.02, -187500.02, -187500.02, -187500.02, -187500.02, 0.000, 0.000, 0.000, 15:46:13.428, 1578577573428
161, -187500.02, -179377.91, -187500.02, -187500.02, -187500.02, -187500.02, -187500.02, -187500.02, -0.018, -0.016, 0.976, 15:46:13.428, 1578577573428
162, -187500.02, -179373.61, -187500.02, -187500.02, -187500.02, -187500.02, -187500.02, -187500.02, 0.000, 0.000, 0.000, 15:46:13.428, 1578577573428
163, -187500.02, -179372.81, -187500.02, -187500.02, -187500.02, -187500.02, -187500.02, -187500.02, 0.000, 0.000, 0.000, 15:46:13.428, 1578577573428
164, -187500.02, -179371.84, -187500.02, -187500.02, -187500.02, -187500.02, -187500.02, -187500.02, 0.000, 0.000, 0.000, 15:46:13.429, 1578577573429
165, -187500.02, -179369.06, -187500.02, -187500.02, -187500.02, -187500.02, -187500.02, -187500.02, 0.000, 0.000, 0.000, 15:46:13.431, 1578577573431
166, -187500.02, -179368.78, -187500.02, -187500.02, -187500.02, -187500.02, -187500.02, -187500.02, 0.000, 0.000, 0.000, 15:46:13.431, 1578577573431
167, -187500.02, -179368.31, -187500.02, -187500.02, -187500.02, -187500.02, -187500.02, -187500.02, 0.000, 0.000, 0.000, 15:46:13.431, 1578577573431
168, -187500.02, -179366.17, -187500.02, -187500.02, -187500.02, -187500.02, -187500.02, -187500.02, 0.000, 0.000, 0.000, 15:46:13.431, 1578577573431
169, -187500.02, -179366.48, -187500.02, -187500.02, -187500.02, -187500.02, -187500.02, -187500.02, 0.000, 0.000, 0.000, 15:46:13.431, 1578577573431
170, -187500.02, -179365.41, -187500.02, -187500.02, -187500.02, -187500.02, -187500.02, -187500.02, 0.000, 0.000, 0.000, 15:46:13.432, 1578577573432
171, -187500.02, -179362.22, -187500.02, -187500.02, -187500.02, -187500.02, -187500.02, -187500.02, -0.016, -0.012, 0.976, 15:46:13.432, 1578577573432
172, -187500.02, -179363.52, -187500.02, -187500.02, -187500.02, -187500.02, -187500.02, -187500.02, 0.000, 0.000, 0.000, 15:46:13.432, 1578577573432
173, -187500.02, -179362.17, -187500.02, -187500.02, -187500.02, -187500.02, -187500.02, -187500.02, 0.000, 0.000, 0.000, 15:46:13.432, 1578577573432
174, -187500.02, -179361.34, -187500.02, -187500.02, -187500.02, -187500.02, -187500.02, -187500.02, 0.000, 0.000, 0.000, 15:46:13.432, 1578577573432
175, -187500.02, -179359.80, -187500.02, -187500.02, -187500.02, -187500.02, -187500.02, -187500.02, 0.000, 0.000, 0.000, 15:46:13.433, 1578577573433
176, -187500.02, -179357.83, -187500.02, -187500.02, -187500.02, -187500.02, -187500.02, -187500.02, 0.000, 0.000, 0.000, 15:46:13.433, 1578577573433
177, -187500.02, -179351.36, -187500.02, -187500.02, -187500.02, -187500.02, -187500.02, -187500.02, 0.000, 0.000, 0.000, 15:46:13.433, 1578577573433
178, -187500.02, -179347.98, -187500.02, -187500.02, -187500.02, -187500.02, -187500.02, -187500.02, 0.000, 0.000, 0.000, 15:46:13.433, 1578577573433
179, -187500.02, -179345.61, -187500.02, -187500.02, -187500.02, -187500.02, -187500.02, -187500.02, 0.000, 0.000, 0.000, 15:46:13.433, 1578577573433
180, -187500.02, -179344.00, -187500.02, -187500.02, -187500.02, -187500.02, -187500.02, -187500.02, 0.000, 0.000, 0.000, 15:46:13.433, 1578577573433
181, -187500.02, -179341.81, -187500.02, -187500.02, -187500.02, -187500.02, -187500.02, -187500.02, -0.022, -0.014, 0.978, 15:46:13.433, 1578577573433
182, -187500.02, -179338.45, -187500.02, -187500.02, -187500.02, -187500.02, -187500.02, -187500.02, 0.000, 0.000, 0.000, 15:46:13.434, 1578577573434
183, -187500.02, -179337.92, -187500.02, -187500.02, -187500.02, -187500.02, -187500.02, -187500.02, 0.000, 0.000, 0.000, 15:46:13.434, 1578577573434
184, -187500.02, -179336.58, -187500.02, -187500.02, -187500.02, -187500.02, -187500.02, -187500.02, 0.000, 0.000, 0.000, 15:46:13.434, 1578577573434
185, -187500.02, -179337.56, -187500.02, -187500.02, -187500.02, -187500.02, -187500.02, -187500.02, 0.000, 0.000, 0.000, 15:46:13.434, 1578577573434
186, -187500.02, -179335.64, -187500.02, -187500.02, -187500.02, -187500.02, -187500.02, -187500.02, 0.000, 0.000, 0.000, 15:46:13.434, 1578577573434
187, -187500.02, -179333.83, -187500.02, -187500.02, -187500.02, -187500.02, -187500.02, -187500.02, 0.000, 0.000, 0.000, 15:46:13.434, 1578577573434
188, -187500.02, -179331.81, -187500.02, -187500.02, -187500.02, -187500.02, -187500.02, -187500.02, 0.000, 0.000, 0.000, 15:46:13.434, 1578577573434
189, -187500.02, -179328.95, -187500.02, -187500.02, -187500.02, -187500.02, -187500.02, -187500.02, 0.000, 0.000, 0.000, 15:46:13.435, 1578577573435
190, -187500.02, -179326.41, -187500.02, -187500.02, -187500.02, -187500.02, -187500.02, -187500.02, 0.000, 0.000, 0.000, 15:46:13.435, 1578577573435
191, -187500.02, -179324.98, -187500.02, -187500.02, -187500.02, -187500.02, -187500.02, -187500.02, -0.022, -0.016, 0.980, 15:46:13.435, 1578577573435
192, -187500.02, -179325.84, -187500.02, -187500.02, -187500.02, -187500.02, -187500.02, -187500.02, 0.000, 0.000, 0.000, 15:46:13.435, 1578577573435
193, -187500.02, -179325.73, -187500.02, -187500.02, -187500.02, -187500.02, -187500.02, -187500.02, 0.000, 0.000, 0.000, 15:46:13.435, 1578577573435
194, -187500.02, -179320.69, -187500.02, -187500.02, -187500.02, -187500.02, -187500.02, -187500.02, 0.000, 0.000, 0.000, 15:46:13.435, 1578577573435
195, -187500.02, -179316.17, -187500.02, -187500.02, -187500.02, -187500.02, -187500.02, -187500.02, 0.000, 0.000, 0.000, 15:46:13.435, 1578577573435
196, -187500.02, -179315.09, -187500.02, -187500.02, -187500.02, -187500.02, -187500.02, -187500.02, 0.000, 0.000, 0.000, 15:46:13.435, 1578577573435
197, -187500.02, -179312.39, -187500.02, -187500.02, -187500.02, -187500.02, -187500.02, -187500.02, 0.000, 0.000, 0.000, 15:46:13.436, 1578577573436
198, -187500.02, -179308.03, -187500.02, -187500.02, -187500.02, -187500.02, -187500.02, -187500.02, 0.000, 0.000, 0.000, 15:46:13.436, 1578577573436
199, -187500.02, -179306.11, -187500.02, -187500.02, -187500.02, -187500.02, -187500.02, -187500.02, 0.000, 0.000, 0.000, 15:46:13.437, 1578577573437
200, -187500.02, -179307.14, -187500.02, -187500.02, -187500.02, -187500.02, -187500.02, -187500.02, 0.000, 0.000, 0.000, 15:46:13.437, 1578577573437
201, -187500.02, -179308.95, -187500.02, -187500.02, -187500.02, -187500.02, -187500.02, -187500.02, -0.016, -0.016, 0.976, 15:46:13.438, 1578577573438
202, -187500.02, -179307.19, -187500.02, -187500.02, -187500.02, -187500.02, -187500.02, -187500.02, 0.000, 0.000, 0.000, 15:46:13.438, 1578577573438
203, -187500.02, -179308.13, -187500.02, -187500.02, -187500.02, -187500.02, -187500.02, -187500.02, 0.000, 0.000, 0.000, 15:46:13.438, 1578577573438
204, -187500.02, -179305.91, -187500.02, -187500.02, -187500.02, -187500.02, -187500.02, -187500.02, 0.000, 0.000, 0.000, 15:46:13.438, 1578577573438
205, -187500.02, -179304.39, -187500.02, -187500.02, -187500.02, -187500.02, -187500.02, -187500.02, 0.000, 0.000, 0.000, 15:46:13.438, 1578577573438
206, -187500.02, -179302.56, -187500.02, -187500.02, -187500.02, -187500.02, -187500.02, -187500.02, 0.000, 0.000, 0.000, 15:46:13.439, 1578577573439
207, -187500.02, -179300.44, -187500.02, -187500.02, -187500.02, -187500.02, -187500.02, -187500.02, 0.000, 0.000, 0.000, 15:46:13.439, 1578577573439
208, -187500.02, -179296.80, -187500.02, -187500.02, -187500.02, -187500.02, -187500.02, -187500.02, 0.000, 0.000, 0.000, 15:46:13.441, 1578577573441
209, -187500.02, -179294.67, -187500.02, -187500.02, -187500.02, -187500.02, -187500.02, -187500.02, 0.000, 0.000, 0.000, 15:46:13.441, 1578577573441
210, -187500.02, -179291.58, -187500.02, -187500.02, -187500.02, -187500.02, -187500.02, -187500.02, -0.020, -0.014, 0.972, 15:46:13.442, 1578577573442
211, -187500.02, -179289.77, -187500.02, -187500.02, -187500.02, -187500.02, -187500.02, -187500.02, 0.000, 0.000, 0.000, 15:46:13.442, 1578577573442
212, -187500.02, -179287.16, -187500.02, -187500.02, -187500.02, -187500.02, -187500.02, -187500.02, 0.000, 0.000, 0.000, 15:46:13.442, 1578577573442
213, -187500.02, -179285.42, -187500.02, -187500.02, -187500.02, -187500.02, -187500.02, -187500.02, 0.000, 0.000, 0.000, 15:46:13.442, 1578577573442
214, -187500.02, -179285.45, -187500.02, -187500.02, -187500.02, -187500.02, -187500.02, -187500.02, 0.000, 0.000, 0.000, 15:46:13.443, 1578577573443
215, -187500.02, -179282.08, -187500.02, -187500.02, -187500.02, -187500.02, -187500.02, -187500.02, 0.000, 0.000, 0.000, 15:46:13.443, 1578577573443
216, -187500.02, -179280.91, -187500.02, -187500.02, -187500.02, -187500.02, -187500.02, -187500.02, 0.000, 0.000, 0.000, 15:46:13.443, 1578577573443
217, -187500.02, -179280.41, -187500.02, -187500.02, -187500.02, -187500.02, -187500.02, -187500.02, 0.000, 0.000, 0.000, 15:46:13.443, 1578577573443
218, -187500.02, -179279.53, -187500.02, -187500.02, -187500.02, -187500.02, -187500.02, -187500.02, 0.000, 0.000, 0.000, 15:46:13.443, 1578577573443
219, -187500.02, -179278.86, -187500.02, -187500.02, -187500.02, -187500.02, -187500.02, -187500.02, 0.000, 0.000, 0.000, 15:46:13.443, 1578577573443
220, -187500.02, -179277.33, -187500.02, -187500.02, -187500.02, -187500.02, -187500.02, -187500.02, -0.016, -0.014, 0.974, 15:46:13.444, 1578577573444
221, -187500.02, -179273.84, -187500.02, -187500.02, -187500.02, -187500.02, -187500.02, -187500.02, 0.000, 0.000, 0.000, 15:46:13.444, 1578577573444
222, -187500.02, -179269.95, -187500.02, -187500.02, -187500.02, -187500.02, -187500.02, -187500.02, 0.000, 0.000, 0.000, 15:46:13.444, 1578577573444
223, -187500.02, -179270.19, -187500.02, -187500.02, -187500.02, -187500.02, -187500.02, -187500.02, 0.000, 0.000, 0.000, 15:46:13.444, 1578577573444
224, -187500.02, -179268.83, -187500.02, -187500.02, -187500.02, -187500.02, -187500.02, -187500.02, 0.000, 0.000, 0.000, 15:46:13.444, 1578577573444
225, -187500.02, -179267.36, -187500.02, -187500.02, -187500.02, -187500.02, -187500.02, -187500.02, 0.000, 0.000, 0.000, 15:46:13.444, 1578577573444
226, -187500.02, -179263.83, -187500.02, -187500.02, -187500.02, -187500.02, -187500.02, -187500.02, 0.000, 0.000, 0.000, 15:46:13.890, 1578577573890
227, -187500.02, -179258.50, -187500.02, -187500.02, -187500.02, -187500.02, -187500.02, -187500.02, 0.000, 0.000, 0.000, 15:46:13.891, 1578577573891
228, -187500.02, -179256.88, -187500.02, -187500.02, -187500.02, -187500.02, -187500.02, -187500.02, 0.000, 0.000, 0.000, 15:46:13.892, 1578577573892
229, -187500.02, -179252.89, -187500.02, -187500.02, -187500.02, -187500.02, -187500.02, -187500.02, 0.000, 0.000, 0.000, 15:46:13.892, 1578577573892
230, -187500.02, -179251.75, -187500.02, -187500.02, -187500.02, -187500.02, -187500.02, -187500.02, -0.020, -0.014, 0.978, 15:46:13.892, 1578577573892
231, -187500.02, -179252.42, -187500.02, -187500.02, -187500.02, -187500.02, -187500.02, -187500.02, 0.000, 0.000, 0.000, 15:46:13.892, 1578577573892
232, -187500.02, -179252.94, -187500.02, -187500.02, -187500.02, -187500.02, -187500.02, -187500.02, 0.000, 0.000, 0.000, 15:46:13.892, 1578577573892
233, -187500.02, -179253.14, -187500.02, -187500.02, -187500.02, -187500.02, -187500.02, -187500.02, 0.000, 0.000, 0.000, 15:46:13.893, 1578577573893
234, -187500.02, -179250.80, -187500.02, -187500.02, -187500.02, -187500.02, -187500.02, -187500.02, 0.000, 0.000, 0.000, 15:46:13.893, 1578577573893
235, -187500.02, -179249.83, -187500.02, -187500.02, -187500.02, -187500.02, -187500.02, -187500.02, 0.000, 0.000, 0.000, 15:46:13.893, 1578577573893
236, -187500.02, -179245.89, -187500.02, -187500.02, -187500.02, -187500.02, -187500.02, -187500.02, 0.000, 0.000, 0.000, 15:46:13.893, 1578577573893
237, -187500.02, -179242.36, -187500.02, -187500.02, -187500.02, -187500.02, -187500.02, -187500.02, 0.000, 0.000, 0.000, 15:46:13.894, 1578577573894
238, -187500.02, -179238.50, -187500.02, -187500.02, -187500.02, -187500.02, -187500.02, -187500.02, 0.000, 0.000, 0.000, 15:46:13.894, 1578577573894
239, -187500.02, -179235.41, -187500.02, -187500.02, -187500.02, -187500.02, -187500.02, -187500.02, 0.000, 0.000, 0.000, 15:46:13.894, 1578577573894
240, -187500.02, -179232.83, -187500.02, -187500.02, -187500.02, -187500.02, -187500.02, -187500.02, -0.024, -0.010, 0.976, 15:46:13.894, 1578577573894
241, -187500.02, -179231.34, -187500.02, -187500.02, -187500.02, -187500.02, -187500.02, -187500.02, 0.000, 0.000, 0.000, 15:46:13.894, 1578577573894
242, -187500.02, -179232.53, -187500.02, -187500.02, -187500.02, -187500.02, -187500.02, -187500.02, 0.000, 0.000, 0.000, 15:46:13.895, 1578577573895
243, -187500.02, -179232.94, -187500.02, -187500.02, -187500.02, -187500.02, -187500.02, -187500.02, 0.000, 0.000, 0.000, 15:46:13.895, 1578577573895
244, -187500.02, -179228.64, -187500.02, -187500.02, -187500.02, -187500.02, -187500.02, -187500.02, 0.000, 0.000, 0.000, 15:46:13.895, 1578577573895
245, -187500.02, -179226.89, -187500.02, -187500.02, -187500.02, -187500.02, -187500.02, -187500.02, 0.000, 0.000, 0.000, 15:46:13.895, 1578577573895
246, -187500.02, -179225.83, -187500.02, -187500.02, -187500.02, -187500.02, -187500.02, -187500.02, 0.000, 0.000, 0.000, 15:46:13.895, 1578577573895
247, -187500.02, -179224.55, -187500.02, -187500.02, -187500.02, -187500.02, -187500.02, -187500.02, 0.000, 0.000, 0.000, 15:46:13.895, 1578577573895
248, -187500.02, -179223.41, -187500.02, -187500.02, -187500.02, -187500.02, -187500.02, -187500.02, 0.000, 0.000, 0.000, 15:46:13.895, 1578577573895
249, -187500.02, -179220.70, -187500.02, -187500.02, -187500.02, -187500.02, -187500.02, -187500.02, -0.022, -0.014, 0.974, 15:46:13.895, 1578577573895
250, -187500.02, -179219.56, -187500.02, -187500.02, -187500.02, -187500.02, -187500.02, -187500.02, 0.000, 0.000, 0.000, 15:46:13.896, 1578577573896
251, -187500.02, -179217.94, -187500.02, -187500.02, -187500.02, -187500.02, -187500.02, -187500.02, 0.000, 0.000, 0.000, 15:46:13.896, 1578577573896
252, -187500.02, -179215.03, -187500.02, -187500.02, -187500.02, -187500.02, -187500.02, -187500.02, 0.000, 0.000, 0.000, 15:46:13.896, 1578577573896
253, -187500.02, -179212.34, -187500.02, -187500.02, -187500.02, -187500.02, -187500.02, -187500.02, 0.000, 0.000, 0.000, 15:46:13.896, 1578577573896
254, -187500.02, -179211.63, -187500.02, -187500.02, -187500.02, -187500.02, -187500.02, -187500.02, 0.000, 0.000, 0.000, 15:46:13.896, 1578577573896
255, -187500.02, -179211.41, -187500.02, -187500.02, -187500.02, -187500.02, -187500.02, -187500.02, 0.000, 0.000, 0.000, 15:46:13.896, 1578577573896
0, -187500.02, -179211.44, -187500.02, -187500.02, -187500.02, -187500.02, -187500.02, -187500.02, 0.000, 0.000, 0.000, 15:46:13.896, 1578577573896
1, -187500.02, -179208.53, -187500.02, -187500.02, -187500.02, -187500.02, -187500.02, -187500.02, 0.000, 0.000, 0.000, 15:46:13.897, 1578577573897
2, -187500.02, -179206.69, -187500.02, -187500.02, -187500.02, -187500.02, -187500.02, -187500.02, 0.000, 0.000, 0.000, 15:46:13.897, 1578577573897
3, -187500.02, -179203.61, -187500.02, -187500.02, -187500.02, -187500.02, -187500.02, -187500.02, -0.020, -0.012, 0.972, 15:46:13.897, 1578577573897
4, -187500.02, -179201.55, -187500.02, -187500.02, -187500.02, -187500.02, -187500.02, -187500.02, 0.000, 0.000, 0.000, 15:46:13.897, 1578577573897
5, -187500.02, -179200.14, -187500.02, -187500.02, -187500.02, -187500.02, -187500.02, -187500.02, 0.000, 0.000, 0.000, 15:46:13.897, 1578577573897
6, -187500.02, -179200.09, -187500.02, -187500.02, -187500.02, -187500.02, -187500.02, -187500.02, 0.000, 0.000, 0.000, 15:46:13.898, 1578577573898
7, -187500.02, -179200.77, -187500.02, -187500.02, -187500.02, -187500.02, -187500.02, -187500.02, 0.000, 0.000, 0.000, 15:46:13.898, 1578577573898
8, -187500.02, -179199.94, -187500.02, -187500.02, -187500.02, -187500.02, -187500.02, -187500.02, 0.000, 0.000, 0.000, 15:46:13.898, 1578577573898
9, -187500.02, -179198.94, -187500.02, -187500.02, -187500.02, -187500.02, -187500.02, -187500.02, 0.000, 0.000, 0.000, 15:46:13.898, 1578577573898
10, -187500.02, -179195.03, -187500.02, -187500.02, -187500.02, -187500.02, -187500.02, -187500.02, 0.000, 0.000, 0.000, 15:46:13.899, 1578577573899
11, -187500.02, -179192.83, -187500.02, -187500.02, -187500.02, -187500.02, -187500.02, -187500.02, 0.000, 0.000, 0.000, 15:46:13.899, 1578577573899
12, -187500.02, -179190.89, -187500.02, -187500.02, -187500.02, -187500.02, -187500.02, -187500.02, 0.000, 0.000, 0.000, 15:46:13.899, 1578577573899
13, -187500.02, -179187.45, -187500.02, -187500.02, -187500.02, -187500.02, -187500.02, -187500.02, -0.016, -0.012, 0.974, 15:46:13.899, 1578577573899
14, -187500.02, -179187.36, -187500.02, -187500.02, -187500.02, -187500.02, -187500.02, -187500.02, 0.000, 0.000, 0.000, 15:46:13.899, 1578577573899
15, -187500.02, -179185.91, -187500.02, -187500.02, -187500.02, -187500.02, -187500.02, -187500.02, 0.000, 0.000, 0.000, 15:46:13.899, 1578577573899
16, -187500.02, -179183.17, -187500.02, -187500.02, -187500.02, -187500.02, -187500.02, -187500.02, 0.000, 0.000, 0.000, 15:46:13.900, 1578577573900
17, -187500.02, -179181.14, -187500.02, -187500.02, -187500.02, -187500.02, -187500.02, -187500.02, 0.000, 0.000, 0.000, 15:46:13.901, 1578577573901
18, -187500.02, -179177.36, -187500.02, -187500.02, -187500.02, -187500.02, -187500.02, -187500.02, 0.000, 0.000, 0.000, 15:46:13.901, 1578577573901
19, -187500.02, -179175.41, -187500.02, -187500.02, -187500.02, -187500.02, -187500.02, -187500.02, 0.000, 0.000, 0.000, 15:46:13.901, 1578577573901
20, -187500.02, -179176.34, -187500.02, -187500.02, -187500.02, -187500.02, -187500.02, -187500.02, 0.000, 0.000, 0.000, 15:46:13.902, 1578577573902
21, -187500.02, -179174.55, -187500.02, -187500.02, -187500.02, -187500.02, -187500.02, -187500.02, 0.000, 0.000, 0.000, 15:46:13.902, 1578577573902
22, -187500.02, -179171.02, -187500.02, -187500.02, -187500.02, -187500.02, -187500.02, -187500.02, 0.000, 0.000, 0.000, 15:46:13.903, 1578577573903
23, -187500.02, -179169.70, -187500.02, -187500.02, -187500.02, -187500.02, -187500.02, -187500.02, -0.020, -0.012, 0.976, 15:46:13.903, 1578577573903
24, -187500.02, -179169.67, -187500.02, -187500.02, -187500.02, -187500.02, -187500.02, -187500.02, 0.000, 0.000, 0.000, 15:46:13.904, 1578577573904
25, -187500.02, -179169.20, -187500.02, -187500.02, -187500.02, -187500.02, -187500.02, -187500.02, 0.000, 0.000, 0.000, 15:46:13.904, 1578577573904
26, -187500.02, -179168.27, -187500.02, -187500.02, -187500.02, -187500.02, -187500.02, -187500.02, 0.000, 0.000, 0.000, 15:46:13.904, 1578577573904
27, -187500.02, -179165.14, -187500.02, -187500.02, -187500.02, -187500.02, -187500.02, -187500.02, 0.000, 0.000, 0.000, 15:46:13.905, 1578577573905
28, -187500.02, -179163.59, -187500.02, -187500.02, -187500.02, -187500.02, -187500.02, -187500.02, 0.000, 0.000, 0.000, 15:46:13.905, 1578577573905
29, -187500.02, -179162.23, -187500.02, -187500.02, -187500.02, -187500.02, -187500.02, -187500.02, 0.000, 0.000, 0.000, 15:46:13.905, 1578577573905
30, -187500.02, -179161.94, -187500.02, -187500.02, -187500.02, -187500.02, -187500.02, -187500.02, 0.000, 0.000, 0.000, 15:46:13.906, 1578577573906
31, -187500.02, -179159.66, -187500.02, -187500.02, -187500.02, -187500.02, -187500.02, -187500.02, 0.000, 0.000, 0.000, 15:46:13.906, 1578577573906
32, -187500.02, -179155.42, -187500.02, -187500.02, -187500.02, -187500.02, -187500.02, -187500.02, -0.024, -0.012, 0.974, 15:46:13.906, 1578577573906
33, -187500.02, -179153.19, -187500.02, -187500.02, -187500.02, -187500.02, -187500.02, -187500.02, 0.000, 0.000, 0.000, 15:46:13.907, 1578577573907
34, -187500.02, -179149.72, -187500.02, -187500.02, -187500.02, -187500.02, -187500.02, -187500.02, 0.000, 0.000, 0.000, 15:46:13.908, 1578577573908
35, -187500.02, -179147.08, -187500.02, -187500.02, -187500.02, -187500.02, -187500.02, -187500.02, 0.000, 0.000, 0.000, 15:46:13.908, 1578577573908
36, -187500.02, -179144.13, -187500.02, -187500.02, -187500.02, -187500.02, -187500.02, -187500.02, 0.000, 0.000, 0.000, 15:46:13.908, 1578577573908
37, -187500.02, -179144.39, -187500.02, -187500.02, -187500.02, -187500.02, -187500.02, -187500.02, 0.000, 0.000, 0.000, 15:46:13.909, 1578577573909
38, -187500.02, -179141.22, -187500.02, -187500.02, -187500.02, -187500.02, -187500.02, -187500.02, 0.000, 0.000, 0.000, 15:46:13.909, 1578577573909
39, -187500.02, -179137.56, -187500.02, -187500.02, -187500.02, -187500.02, -187500.02, -187500.02, 0.000, 0.000, 0.000, 15:46:13.909, 1578577573909
40, -187500.02, -179135.08, -187500.02, -187500.02, -187500.02, -187500.02, -187500.02, -187500.02, 0.000, 0.000, 0.000, 15:46:13.909, 1578577573909
41, -187500.02, -179134.83, -187500.02, -187500.02, -187500.02, -187500.02, -187500.02, -187500.02, 0.000, 0.000, 0.000, 15:46:13.909, 1578577573909
42, -187500.02, -179134.31, -187500.02, -187500.02, -187500.02, -187500.02, -187500.02, -187500.02, -0.022, -0.012, 0.970, 15:46:13.909, 1578577573909
43, -187500.02, -179133.28, -187500.02, -187500.02, -187500.02, -187500.02, -187500.02, -187500.02, 0.000, 0.000, 0.000, 15:46:13.909, 1578577573909
44, -187500.02, -179132.89, -187500.02, -187500.02, -187500.02, -187500.02, -187500.02, -187500.02, 0.000, 0.000, 0.000, 15:46:13.909, 1578577573909
45, -187500.02, -179132.97, -187500.02, -187500.02, -187500.02, -187500.02, -187500.02, -187500.02, 0.000, 0.000, 0.000, 15:46:13.910, 1578577573910
46, -187500.02, -179129.98, -187500.02, -187500.02, -187500.02, -187500.02, -187500.02, -187500.02, 0.000, 0.000, 0.000, 15:46:13.910, 1578577573910
47, -187500.02, -179126.34, -187500.02, -187500.02, -187500.02, -187500.02, -187500.02, -187500.02, 0.000, 0.000, 0.000, 15:46:13.910, 1578577573910
48, -187500.02, -179123.88, -187500.02, -187500.02, -187500.02, -187500.02, -187500.02, -187500.02, 0.000, 0.000, 0.000, 15:46:13.910, 1578577573910
49, -187500.02, -179123.31, -187500.02, -187500.02, -187500.02, -187500.02, -187500.02, -187500.02, 0.000, 0.000, 0.000, 15:46:13.910, 1578577573910
50, -187500.02, -179120.53, -187500.02, -187500.02, -187500.02, -187500.02, -187500.02, -187500.02, 0.000, 0.000, 0.000, 15:46:13.910, 1578577573910
51, -187500.02, -179118.56, -187500.02, -187500.02, -187500.02, -187500.02, -187500.02, -187500.02, 0.000, 0.000, 0.000, 15:46:13.910, 1578577573910
52, -187500.02, -179118.22, -187500.02, -187500.02, -187500.02, -187500.02, -187500.02, -187500.02, -0.022, -0.012, 0.976, 15:46:13.911, 1578577573911
53, -187500.02, -179117.38, -187500.02, -187500.02, -187500.02, -187500.02, -187500.02, -187500.02, 0.000, 0.000, 0.000, 15:46:13.911, 1578577573911
54, -187500.02, -179117.23, -187500.02, -187500.02, -187500.02, -187500.02, -187500.02, -187500.02, 0.000, 0.000, 0.000, 15:46:13.911, 1578577573911
55, -187500.02, -179114.67, -187500.02, -187500.02, -187500.02, -187500.02, -187500.02, -187500.02, 0.000, 0.000, 0.000, 15:46:13.911, 1578577573911
56, -187500.02, -179113.94, -187500.02, -187500.02, -187500.02, -187500.02, -187500.02, -187500.02, 0.000, 0.000, 0.000, 15:46:13.911, 1578577573911
57, -187500.02, -179112.33, -187500.02, -187500.02, -187500.02, -187500.02, -187500.02, -187500.02, 0.000, 0.000, 0.000, 15:46:13.911, 1578577573911
58, -187500.02, -179111.09, -187500.02, -187500.02, -187500.02, -187500.02, -187500.02, -187500.02, 0.000, 0.000, 0.000, 15:46:13.911, 1578577573911
59, -187500.02, -179111.55, -187500.02, -187500.02, -187500.02, -187500.02, -187500.02, -187500.02, 0.000, 0.000, 0.000, 15:46:13.912, 1578577573912
60, -187500.02, -179109.70, -187500.02, -187500.02, -187500.02, -187500.02, -187500.02, -187500.02, 0.000, 0.000, 0.000, 15:46:13.912, 1578577573912
61, -187500.02, -179108.70, -187500.02, -187500.02, -187500.02, -187500.02, -187500.02, -187500.02, 0.000, 0.000, 0.000, 15:46:13.912, 1578577573912
62, -187500.02, -179108.70, -187500.02, -187500.02, -187500.02, -187500.02, -187500.02, -187500.02, -0.018, -0.012, 0.986, 15:46:13.912, 1578577573912
63, -187500.02, -179104.81, -187500.02, -187500.02, -187500.02, -187500.02, -187500.02, -187500.02, 0.000, 0.000, 0.000, 15:46:13.912, 1578577573912
64, -187500.02, -179103.72, -187500.02, -187500.02, -187500.02, -187500.02, -187500.02, -187500.02, 0.000, 0.000, 0.000, 15:46:13.912, 1578577573912
65, -187500.02, -179099.22, -187500.02, -187500.02, -187500.02, -187500.02, -187500.02, -187500.02, 0.000, 0.000, 0.000, 15:46:13.913, 1578577573913
66, -187500.02, -179095.42, -187500.02, -187500.02, -187500.02, -187500.02, -187500.02, -187500.02, 0.000, 0.000, 0.000, 15:46:13.913, 1578577573913
67, -187500.02, -179093.41, -187500.02, -187500.02, -187500.02, -187500.02, -187500.02, -187500.02, 0.000, 0.000, 0.000, 15:46:13.913, 1578577573913
68, -187500.02, -179091.25, -187500.02, -187500.02, -187500.02, -187500.02, -187500.02, -187500.02, 0.000, 0.000, 0.000, 15:46:13.913, 1578577573913
69, -187500.02, -179088.92, -187500.02, -187500.02, -187500.02, -187500.02, -187500.02, -187500.02, 0.000, 0.000, 0.000, 15:46:13.913, 1578577573913
70, -187500.02, -179087.47, -187500.02, -187500.02, -187500.02, -187500.02, -187500.02, -187500.02, 0.000, 0.000, 0.000, 15:46:13.913, 1578577573913
71, -187500.02, -179089.19, -187500.02, -187500.02, -187500.02, -187500.02, -187500.02, -187500.02, -0.022, -0.018, 0.974, 15:46:13.913, 1578577573913
72, -187500.02, -179087.41, -187500.02, -187500.02, -187500.02, -187500.02, -187500.02, -187500.02, 0.000, 0.000, 0.000, 15:46:13.914, 1578577573914
73, -187500.02, -179085.64, -187500.02, -187500.02, -187500.02, -187500.02, -187500.02, -187500.02, 0.000, 0.000, 0.000, 15:46:13.914, 1578577573914
74, -187500.02, -179083.53, -187500.02, -187500.02, -187500.02, -187500.02, -187500.02, -187500.02, 0.000, 0.000, 0.000, 15:46:13.914, 1578577573914
75, -187500.02, -179081.03, -187500.02, -187500.02, -187500.02, -187500.02, -187500.02, -187500.02, 0.000, 0.000, 0.000, 15:46:13.914, 1578577573914
76, -187500.02, -179079.23, -187500.02, -187500.02, -187500.02, -187500.02, -187500.02, -187500.02, 0.000, 0.000, 0.000, 15:46:13.914, 1578577573914
77, -187500.02, -179079.67, -187500.02, -187500.02, -187500.02, -187500.02, -187500.02, -187500.02, 0.000, 0.000, 0.000, 15:46:13.914, 1578577573914
78, -187500.02, -179077.63, -187500.02, -187500.02, -187500.02, -187500.02, -187500.02, -187500.02, 0.000, 0.000, 0.000, 15:46:13.914, 1578577573914
79, -187500.02, -179075.55, -187500.02, -187500.02, -187500.02, -187500.02, -187500.02, -187500.02, 0.000, 0.000, 0.000, 15:46:13.915, 1578577573915
80, -187500.02, -179073.52, -187500.02, -187500.02, -187500.02, -187500.02, -187500.02, -187500.02, 0.000, 0.000, 0.000, 15:46:13.915, 1578577573915
81, -187500.02, -179071.59, -187500.02, -187500.02, -187500.02, -187500.02, -187500.02, -187500.02, -0.018, -0.014, 0.972, 15:46:13.915, 1578577573915
82, -187500.02, -179069.55, -187500.02, -187500.02, -187500.02, -187500.02, -187500.02, -187500.02, 0.000, 0.000, 0.000, 15:46:13.915, 1578577573915
83, -187500.02, -179066.28, -187500.02, -187500.02, -187500.02, -187500.02, -187500.02, -187500.02, 0.000, 0.000, 0.000, 15:46:13.915, 1578577573915
84, -187500.02, -179064.02, -187500.02, -187500.02, -187500.02, -187500.02, -187500.02, -187500.02, 0.000, 0.000, 0.000, 15:46:13.915, 1578577573915
85, -187500.02, -179061.88, -187500.02, -187500.02, -187500.02, -187500.02, -187500.02, -187500.02, 0.000, 0.000, 0.000, 15:46:13.915, 1578577573915
86, -187500.02, -179058.81, -187500.02, -187500.02, -187500.02, -187500.02, -187500.02, -187500.02, 0.000, 0.000, 0.000, 15:46:13.916, 1578577573916
87, -187500.02, -179055.48, -187500.02, -187500.02, -187500.02, -187500.02, -187500.02, -187500.02, 0.000, 0.000, 0.000, 15:46:13.916, 1578577573916
88, -187500.02, -179055.55, -187500.02, -187500.02, -187500.02, -187500.02, -187500.02, -187500.02, 0.000, 0.000, 0.000, 15:46:13.916, 1578577573916
89, -187500.02, -179052.98, -187500.02, -187500.02, -187500.02, -187500.02, -187500.02, -187500.02, 0.000, 0.000, 0.000, 15:46:13.916, 1578577573916
90, -187500.02, -179050.23, -187500.02, -187500.02, -187500.02, -187500.02, -187500.02, -187500.02, 0.000, 0.000, 0.000, 15:46:13.916, 1578577573916
91, -187500.02, -179048.44, -187500.02, -187500.02, -187500.02, -187500.02, -187500.02, -187500.02, -0.024, -0.014, 0.968, 15:46:14.373, 1578577574373
92, -187500.02, -179046.05, -187500.02, -187500.02, -187500.02, -187500.02, -187500.02, -187500.02, 0.000, 0.000, 0.000, 15:46:14.374, 1578577574374
93, -187500.02, -179044.64, -187500.02, -187500.02, -187500.02, -187500.02, -187500.02, -187500.02, 0.000, 0.000, 0.000, 15:46:14.375, 1578577574375
94, -187500.02, -179044.17, -187500.02, -187500.02, -187500.02, -187500.02, -187500.02, -187500.02, 0.000, 0.000, 0.000, 15:46:14.375, 1578577574375
95, -187500.02, -179042.47, -187500.02, -187500.02, -187500.02, -187500.02, -187500.02, -187500.02, 0.000, 0.000, 0.000, 15:46:14.375, 1578577574375
96, -187500.02, -179040.66, -187500.02, -187500.02, -187500.02, -187500.02, -187500.02, -187500.02, 0.000, 0.000, 0.000, 15:46:14.375, 1578577574375
97, -187500.02, -179040.27, -187500.02, -187500.02, -187500.02, -187500.02, -187500.02, -187500.02, 0.000, 0.000, 0.000, 15:46:14.376, 1578577574376
98, -187500.02, -179038.36, -187500.02, -187500.02, -187500.02, -187500.02, -187500.02, -187500.02, 0.000, 0.000, 0.000, 15:46:14.376, 1578577574376
99, -187500.02, -179036.50, -187500.02, -187500.02, -187500.02, -187500.02, -187500.02, -187500.02, 0.000, 0.000, 0.000, 15:46:14.376, 1578577574376
100, -187500.02, -179034.94, -187500.02, -187500.02, -187500.02, -187500.02, -187500.02, -187500.02, 0.000, 0.000, 0.000, 15:46:14.376, 1578577574376
101, -187500.02, -179033.91, -187500.02, -187500.02, -187500.02, -187500.02, -187500.02, -187500.02, -0.020, -0.008, 0.968, 15:46:14.377, 1578577574377
102, -187500.02, -179033.48, -187500.02, -187500.02, -187500.02, -187500.02, -187500.02, -187500.02, 0.000, 0.000, 0.000, 15:46:14.377, 1578577574377
103, -187500.02, -179030.88, -187500.02, -187500.02, -187500.02, -187500.02, -187500.02, -187500.02, 0.000, 0.000, 0.000, 15:46:14.377, 1578577574377
104, -187500.02, -179030.14, -187500.02, -187500.02, -187500.02, -187500.02, -187500.02, -187500.02, 0.000, 0.000, 0.000, 15:46:14.377, 1578577574377
105, -187500.02, -179028.23, -187500.02, -187500.02, -187500.02, -187500.02, -187500.02, -187500.02, 0.000, 0.000, 0.000, 15:46:14.377, 1578577574377
106, -187500.02, -179025.28, -187500.02, -187500.02, -187500.02, -187500.02, -187500.02, -187500.02, 0.000, 0.000, 0.000, 15:46:14.377, 1578577574377
107, -187500.02, -179022.64, -187500.02, -187500.02, -187500.02, -187500.02, -187500.02, -187500.02, 0.000, 0.000, 0.000, 15:46:14.378, 1578577574378
108, -187500.02, -179021.59, -187500.02, -187500.02, -187500.02, -187500.02, -187500.02, -187500.02, 0.000, 0.000, 0.000, 15:46:14.378, 1578577574378
109, -187500.02, -179019.98, -187500.02, -187500.02, -187500.02, -187500.02, -187500.02, -187500.02, 0.000, 0.000, 0.000, 15:46:14.378, 1578577574378
110, -187500.02, -179017.28, -187500.02, -187500.02, -187500.02, -187500.02, -187500.02, -187500.02, 0.000, 0.000, 0.000, 15:46:14.378, 1578577574378
111, -187500.02, -179015.14, -187500.02, -187500.02, -187500.02, -187500.02, -187500.02, -187500.02, -0.018, -0.010, 0.976, 15:46:14.378, 1578577574378
112, -187500.02, -179012.41, -187500.02, -187500.02, -187500.02, -187500.02, -187500.02, -187500.02, 0.000, 0.000, 0.000, 15:46:14.378, 1578577574378
113, -187500.02, -179009.66, -187500.02, -187500.02, -187500.02, -187500.02, -187500.02, -187500.02, 0.000, 0.000, 0.000, 15:46:14.378, 1578577574378
114, -187500.02, -179009.39, -187500.02, -187500.02, -187500.02, -187500.02, -187500.02, -187500.02, 0.000, 0.000, 0.000, 15:46:14.379, 1578577574379
115, -187500.02, -179010.00, -187500.02, -187500.02, -187500.02, -187500.02, -187500.02, -187500.02, 0.000, 0.000, 0.000, 15:46:14.379, 1578577574379
116, -187500.02, -179008.83, -187500.02, -187500.02, -187500.02, -187500.02, -187500.02, -187500.02, 0.000, 0.000, 0.000, 15:46:14.379, 1578577574379
117, -187500.02, -179008.59, -187500.02, -187500.02, -187500.02, -187500.02, -187500.02, -187500.02, 0.000, 0.000, 0.000, 15:46:14.379, 1578577574379
118, -187500.02, -179011.11, -187500.02, -187500.02, -187500.02, -187500.02, -187500.02, -187500.02, 0.000, 0.000, 0.000, 15:46:14.379, 1578577574379
119, -187500.02, -179008.34, -187500.02, -187500.02, -187500.02, -187500.02, -187500.02, -187500.02, 0.000, 0.000, 0.000, 15:46:14.381, 1578577574381
120, -187500.02, -179005.17, -187500.02, -187500.02, -187500.02, -187500.02, -187500.02, -187500.02, -0.016, -0.014, 0.974, 15:46:14.382, 1578577574382
121, -187500.02, -179002.98, -187500.02, -187500.02, -187500.02, -187500.02, -187500.02, -187500.02, 0.000, 0.000, 0.000, 15:46:14.382, 1578577574382
122, -187500.02, -179000.05, -187500.02, -187500.02, -187500.02, -187500.02, -187500.02, -187500.02, 0.000, 0.000, 0.000, 15:46:14.383, 1578577574383
123, -187500.02, -178997.39, -187500.02, -187500.02, -187500.02, -187500.02, -187500.02, -187500.02, 0.000, 0.000, 0.000, 15:46:14.384, 1578577574384
124, -187500.02, -178993.19, -187500.02, -187500.02, -187500.02, -187500.02, -187500.02, -187500.02, 0.000, 0.000, 0.000, 15:46:14.384, 1578577574384
125, -187500.02, -178989.14, -187500.02, -187500.02, -187500.02, -187500.02, -187500.02, -187500.02, 0.000, 0.000, 0.000, 15:46:14.385, 1578577574385
126, -187500.02, -178990.66, -187500.02, -187500.02, -187500.02, -187500.02, -187500.02, -187500.02, 0.000, 0.000, 0.000, 15:46:14.385, 1578577574385
127, -187500.02, -178992.56, -187500.02, -187500.02, -187500.02, -187500.02, -187500.02, -187500.02, 0.000, 0.000, 0.000, 15:46:14.385, 1578577574385
128, -187500.02, -178990.02, -187500.02, -187500.02, -187500.02, -187500.02, -187500.02, -187500.02, 0.000, 0.000, 0.000, 15:46:14.386, 1578577574386
129, -187500.02, -178987.13, -187500.02, -187500.02, -187500.02, -187500.02, -187500.02, -187500.02, 0.000, 0.000, 0.000, 15:46:14.386, 1578577574386
130, -187500.02, -178985.47, -187500.02, -187500.02, -187500.02, -187500.02, -187500.02, -187500.02, -0.016, -0.018, 0.976, 15:46:14.386, 1578577574386
131, -187500.02, -178982.42, -187500.02, -187500.02, -187500.02, -187500.02, -187500.02, -187500.02, 0.000, 0.000, 0.000, 15:46:14.386, 1578577574386
132, -187500.02, -178980.94, -187500.02, -187500.02, -187500.02, -187500.02, -187500.02, -187500.02, 0.000, 0.000, 0.000, 15:46:14.386, 1578577574386
133, -187500.02, -178979.86, -187500.02, -187500.02, -187500.02, -187500.02, -187500.02, -187500.02, 0.000, 0.000, 0.000, 15:46:14.386, 1578577574386
134, -187500.02, -178978.22, -187500.02, -187500.02, -187500.02, -187500.02, -187500.02, -187500.02, 0.000, 0.000, 0.000, 15:46:14.387, 1578577574387
135, -187500.02, -178976.11, -187500.02, -187500.02, -187500.02, -187500.02, -187500.02, -187500.02, 0.000, 0.000, 0.000, 15:46:14.387, 1578577574387
136, -187500.02, -178972.45, -187500.02, -187500.02, -187500.02, -187500.02, -187500.02, -187500.02, 0.000, 0.000, 0.000, 15:46:14.387, 1578577574387
137, -187500.02, -178974.91, -187500.02, -187500.02, -187500.02, -187500.02, -187500.02, -187500.02, 0.000, 0.000, 0.000, 15:46:14.387, 1578577574387
138, -187500.02, -178973.70, -187500.02, -187500.02, -187500.02, -187500.02, -187500.02, -187500.02, 0.000, 0.000, 0.000, 15:46:14.387, 1578577574387
139, -187500.02, -178969.72, -187500.02, -187500.02, -187500.02, -187500.02, -187500.02, -187500.02, 0.000, 0.000, 0.000, 15:46:14.387, 1578577574387
140, -187500.02, -178970.19, -187500.02, -187500.02, -187500.02, -187500.02, -187500.02, -187500.02, -0.020, -0.012, 0.976, 15:46:14.388, 1578577574388
141, -187500.02, -178968.75, -187500.02, -187500.02, -187500.02, -187500.02, -187500.02, -187500.02, 0.000, 0.000, 0.000, 15:46:14.388, 1578577574388
142, -187500.02, -178967.94, -187500.02, -187500.02, -187500.02, -187500.02, -187500.02, -187500.02, 0.000, 0.000, 0.000, 15:46:14.388, 1578577574388
143, -187500.02, -178966.28, -187500.02, -187500.02, -187500.02, -187500.02, -187500.02, -187500.02, 0.000, 0.000, 0.000, 15:46:14.388, 1578577574388
144, -187500.02, -178964.53, -187500.02, -187500.02, -187500.02, -187500.02, -187500.02, -187500.02, 0.000, 0.000, 0.000, 15:46:14.389, 1578577574389
145, -187500.02, -178965.61, -187500.02, -187500.02, -187500.02, -187500.02, -187500.02, -187500.02, 0.000, 0.000, 0.000, 15:46:14.389, 1578577574389
146, -187500.02, -178962.91, -187500.02, -187500.02, -187500.02, -187500.02, -187500.02, -187500.02, 0.000, 0.000, 0.000, 15:46:14.389, 1578577574389
147, -187500.02, -178960.16, -187500.02, -187500.02, -187500.02, -187500.02, -187500.02, -187500.02, 0.000, 0.000, 0.000, 15:46:14.389, 1578577574389
148, -187500.02, -178958.05, -187500.02, -187500.02, -187500.02, -187500.02, -187500.02, -187500.02, 0.000, 0.000, 0.000, 15:46:14.389, 1578577574389
149, -187500.02, -178957.98, -187500.02, -187500.02, -187500.02, -187500.02, -187500.02, -187500.02, 0.000, 0.000, 0.000, 15:46:14.389, 1578577574389
150, -187500.02, -178955.56, -187500.02, -187500.02, -187500.02, -187500.02, -187500.02, -187500.02, -0.020, -0.016, 0.974, 15:46:14.389, 1578577574389
151, -187500.02, -178951.77, -187500.02, -187500.02, -187500.02, -187500.02, -187500.02, -187500.02, 0.000, 0.000, 0.000, 15:46:14.390, 1578577574390
152, -187500.02, -178952.84, -187500.02, -187500.02, -187500.02, -187500.02, -187500.02, -187500.02, 0.000, 0.000, 0.000, 15:46:14.390, 1578577574390
153, -187500.02, -178953.22, -187500.02, -187500.02, -187500.02, -187500.02, -187500.02, -187500.02, 0.000, 0.000, 0.000, 15:46:14.390, 1578577574390
154, -187500.02, -178950.88, -187500.02, -187500.02, -187500.02, -187500.02, -187500.02, -187500.02, 0.000, 0.000, 0.000, 15:46:14.390, 1578577574390
155, -187500.02, -178949.78, -187500.02, -187500.02, -187500.02, -187500.02, -187500.02, -187500.02, 0.000, 0.000, 0.000, 15:46:14.390, 1578577574390
156, -187500.02, -178949.20, -187500.02, -187500.02, -187500.02, -187500.02, -187500.02, -187500.02, 0.000, 0.000, 0.000, 15:46:14.390, 1578577574390
157, -187500.02, -178947.97, -187500.02, -187500.02, -187500.02, -187500.02, -187500.02, -187500.02, 0.000, 0.000, 0.000, 15:46:14.390, 1578577574390
158, -187500.02, -178943.55, -187500.02, -187500.02, -187500.02, -187500.02, -187500.02, -187500.02, 0.000, 0.000, 0.000, 15:46:14.390, 1578577574390
159, -187500.02, -178938.73, -187500.02, -187500.02, -187500.02, -187500.02, -187500.02, -187500.02, -0.018, -0.016, 0.976, 15:46:14.391, 1578577574391
160, -187500.02, -178936.89, -187500.02, -187500.02, -187500.02, -187500.02, -187500.02, -187500.02, 0.000, 0.000, 0.000, 15:46:14.391, 1578577574391
161, -187500.02, -178939.39, -187500.02, -187500.02, -187500.02, -187500.02, -187500.02, -187500.02, 0.000, 0.000, 0.000, 15:46:14.391, 1578577574391
162, -187500.02, -178936.70, -187500.02, -187500.02, -187500.02, -187500.02, -187500.02, -187500.02, 0.000, 0.000, 0.000, 15:46:14.391, 1578577574391
163, -187500.02, -178933.23, -187500.02, -187500.02, -187500.02, -187500.02, -187500.02, -187500.02, 0.000, 0.000, 0.000, 15:46:14.391, 1578577574391
164, -187500.02, -178931.83, -187500.02, -187500.02, -187500.02, -187500.02, -187500.02, -187500.02, 0.000, 0.000, 0.000, 15:46:14.391, 1578577574391
165, -187500.02, -178931.34, -187500.02, -187500.02, -187500.02, -187500.02, -187500.02, -187500.02, 0.000, 0.000, 0.000, 15:46:14.391, 1578577574391
166, -187500.02, -178929.73, -187500.02, -187500.02, -187500.02, -187500.02, -187500.02, -187500.02, 0.000, 0.000, 0.000, 15:46:14.391, 1578577574391
167, -187500.02, -178928.02, -187500.02, -187500.02, -187500.02, -187500.02, -187500.02, -187500.02, 0.000, 0.000, 0.000, 15:46:14.392, 1578577574392
168, -187500.02, -178926.17, -187500.02, -187500.02, -187500.02, -187500.02, -187500.02, -187500.02, 0.000, 0.000, 0.000, 15:46:14.392, 1578577574392
169, -187500.02, -178922.44, -187500.02, -187500.02, -187500.02, -187500.02, -187500.02, -187500.02, -0.024, -0.014, 0.974, 15:46:14.392, 1578577574392
170, -187500.02, -178924.34, -187500.02, -187500.02, -187500.02, -187500.02, -187500.02, -187500.02, 0.000, 0.000, 0.000, 15:46:14.392, 1578577574392
171, -187500.02, -178924.13, -187500.02, -187500.02, -187500.02, -187500.02, -187500.02, -187500.02, 0.000, 0.000, 0.000, 15:46:14.392, 1578577574392
172, -187500.02, -178920.88, -187500.02, -187500.02, -187500.02, -187500.02, -187500.02, -187500.02, 0.000, 0.000, 0.000, 15:46:14.392, 1578577574392
173, -187500.02, -178918.63, -187500.02, -187500.02, -187500.02, -187500.02, -187500.02, -187500.02, 0.000, 0.000, 0.000, 15:46:14.392, 1578577574392
174, -187500.02, -178915.19, -187500.02, -187500.02, -187500.02, -187500.02, -187500.02, -187500.02, 0.000, 0.000, 0.000, 15:46:14.392, 1578577574392
175, -187500.02, -178914.48, -187500.02, -187500.02, -187500.02, -187500.02, -187500.02, -187500.02, 0.000, 0.000, 0.000, 15:46:14.392, 1578577574392
176, -187500.02, -178914.64, -187500.02, -187500.02, -187500.02, -187500.02, -187500.02, -187500.02, 0.000, 0.000, 0.000, 15:46:14.393, 1578577574393
177, -187500.02, -178912.59, -187500.02, -187500.02, -187500.02, -187500.02, -187500.02, -187500.02, 0.000, 0.000, 0.000, 15:46:14.393, 1578577574393
178, -187500.02, -178911.63, -187500.02, -187500.02, -187500.02, -187500.02, -187500.02, -187500.02, 0.000, 0.000, 0.000, 15:46:14.393, 1578577574393
179, -187500.02, -178909.45, -187500.02, -187500.02, -187500.02, -187500.02, -187500.02, -187500.02, -0.018, -0.008, 0.936, 15:46:14.393, 1578577574393
180, -187500.02, -178908.25, -187500.02, -187500.02, -187500.02, -187500.02, -187500.02, -187500.02, 0.000, 0.000, 0.000, 15:46:14.393, 1578577574393
181, -187500.02, -178906.47, -187500.02, -187500.02, -187500.02, -187500.02, -187500.02, -187500.02, 0.000, 0.000, 0.000, 15:46:14.393, 1578577574393
182, -187500.02, -178905.13, -187500.02, -187500.02, -187500.02, -187500.02, -187500.02, -187500.02, 0.000, 0.000, 0.000, 15:46:14.393, 1578577574393
183, -187500.02, -178901.86, -187500.02, -187500.02, -187500.02, -187500.02, -187500.02, -187500.02, 0.000, 0.000, 0.000, 15:46:14.393, 1578577574393
184, -187500.02, -178899.02, -187500.02, -187500.02, -187500.02, -187500.02, -187500.02, -187500.02, 0.000, 0.000, 0.000, 15:46:14.393, 1578577574393
185, -187500.02, -178900.23, -187500.02, -187500.02, -187500.02, -187500.02, -187500.02, -187500.02, 0.000, 0.000, 0.000, 15:46:14.393, 1578577574393
186, -187500.02, -178899.67, -187500.02, -187500.02, -187500.02, -187500.02, -187500.02, -187500.02, 0.000, 0.000, 0.000, 15:46:14.393, 1578577574393
187, -187500.02, -178897.41, -187500.02, -187500.02, -187500.02, -187500.02, -187500.02, -187500.02, 0.000, 0.000, 0.000, 15:46:14.394, 1578577574394
188, -187500.02, -178895.95, -187500.02, -187500.02, -187500.02, -187500.02, -187500.02, -187500.02, 0.000, 0.000, 0.000, 15:46:14.394, 1578577574394
189, -187500.02, -178894.22, -187500.02, -187500.02, -187500.02, -187500.02, -187500.02, -187500.02, -0.018, -0.012, 0.922, 15:46:14.394, 1578577574394
190, -187500.02, -178890.42, -187500.02, -187500.02, -187500.02, -187500.02, -187500.02, -187500.02, 0.000, 0.000, 0.000, 15:46:14.394, 1578577574394
191, -187500.02, -178887.58, -187500.02, -187500.02, -187500.02, -187500.02, -187500.02, -187500.02, 0.000, 0.000, 0.000, 15:46:14.394, 1578577574394
192, -187500.02, -178884.36, -187500.02, -187500.02, -187500.02, -187500.02, -187500.02, -187500.02, 0.000, 0.000, 0.000, 15:46:14.394, 1578577574394
193, -187500.02, -178881.77, -187500.02, -187500.02, -187500.02, -187500.02, -187500.02, -187500.02, 0.000, 0.000, 0.000, 15:46:14.394, 1578577574394
194, -187500.02, -178881.14, -187500.02, -187500.02, -187500.02, -187500.02, -187500.02, -187500.02, 0.000, 0.000, 0.000, 15:46:14.394, 1578577574394
195, -187500.02, -178881.34, -187500.02, -187500.02, -187500.02, -187500.02, -187500.02, -187500.02, 0.000, 0.000, 0.000, 15:46:14.394, 1578577574394
196, -187500.02, -178880.11, -187500.02, -187500.02, -187500.02, -187500.02, -187500.02, -187500.02, 0.000, 0.000, 0.000, 15:46:14.394, 1578577574394
197, -187500.02, -178878.81, -187500.02, -187500.02, -187500.02, -187500.02, -187500.02, -187500.02, 0.000, 0.000, 0.000, 15:46:14.394, 1578577574394
198, -187500.02, -178879.69, -187500.02, -187500.02, -187500.02, -187500.02, -187500.02, -187500.02, -0.008, -0.016, 0.946, 15:46:14.395, 1578577574395
199, -187500.02, -178876.58, -187500.02, -187500.02, -187500.02, -187500.02, -187500.02, -187500.02, 0.000, 0.000, 0.000, 15:46:14.395, 1578577574395
200, -187500.02, -178875.47, -187500.02, -187500.02, -187500.02, -187500.02, -187500.02, -187500.02, 0.000, 0.000, 0.000, 15:46:14.395, 1578577574395
201, -187500.02, -178873.88, -187500.02, -187500.02, -187500.02, -187500.02, -187500.02, -187500.02, 0.000, 0.000, 0.000, 15:46:14.395, 1578577574395
202, -187500.02, -178871.28, -187500.02, -187500.02, -187500.02, -187500.02, -187500.02, -187500.02, 0.000, 0.000, 0.000, 15:46:14.395, 1578577574395
203, -187500.02, -178869.20, -187500.02, -187500.02, -187500.02, -187500.02, -187500.02, -187500.02, 0.000, 0.000, 0.000, 15:46:14.395, 1578577574395
204, -187500.02, -178868.06, -187500.02, -187500.02, -187500.02, -187500.02, -187500.02, -187500.02, 0.000, 0.000, 0.000, 15:46:14.395, 1578577574395
205, -187500.02, -178866.13, -187500.02, -187500.02, -187500.02, -187500.02, -187500.02, -187500.02, 0.000, 0.000, 0.000, 15:46:14.395, 1578577574395
206, -187500.02, -178866.61, -187500.02, -187500.02, -187500.02, -187500.02, -187500.02, -187500.02, 0.000, 0.000, 0.000, 15:46:14.395, 1578577574395
207, -187500.02, -178864.20, -187500.02, -187500.02, -187500.02, -187500.02, -187500.02, -187500.02, 0.000, 0.000, 0.000, 15:46:14.395, 1578577574395
208, -187500.02, -178862.14, -187500.02, -187500.02, -187500.02, -187500.02, -187500.02, -187500.02, -0.020, -0.012, 0.964, 15:46:14.395, 1578577574395
209, -187500.02, -178860.38, -187500.02, -187500.02, -187500.02, -187500.02, -187500.02, -187500.02, 0.000, 0.000, 0.000, 15:46:14.396, 1578577574396
210, -187500.02, -178855.05, -187500.02, -187500.02, -187500.02, -187500.02, -187500.02, -187500.02, 0.000, 0.000, 0.000, 15:46:14.396, 1578577574396
211, -187500.02, -178855.09, -187500.02, -187500.02, -187500.02, -187500.02, -187500.02, -187500.02, 0.000, 0.000, 0.000, 15:46:14.845, 1578577574845
212, -187500.02, -178854.89, -187500.02, -187500.02, -187500.02, -187500.02, -187500.02, -187500.02, 0.000, 0.000, 0.000, 15:46:14.846, 1578577574846
213, -187500.02, -178854.86, -187500.02, -187500.02, -187500.02, -187500.02, -187500.02, -187500.02, 0.000, 0.000, 0.000, 15:46:14.846, 1578577574846
214, -187500.02, -178852.70, -187500.02, -187500.02, -187500.02, -187500.02, -187500.02, -187500.02, 0.000, 0.000, 0.000, 15:46:14.846, 1578577574846
215, -187500.02, -178851.52, -187500.02, -187500.02, -187500.02, -187500.02, -187500.02, -187500.02, 0.000, 0.000, 0.000, 15:46:14.846, 1578577574846
216, -187500.02, -178850.06, -187500.02, -187500.02, -187500.02, -187500.02, -187500.02, -187500.02, 0.000, 0.000, 0.000, 15:46:14.846, 1578577574846
217, -187500.02, -178849.41, -187500.02, -187500.02, -187500.02, -187500.02, -187500.02, -187500.02, 0.000, 0.000, 0.000, 15:46:14.846, 1578577574846
218, -187500.02, -178847.19, -187500.02, -187500.02, -187500.02, -187500.02, -187500.02, -187500.02, -0.026, -0.010, 0.968, 15:46:14.846, 1578577574846
219, -187500.02, -178843.63, -187500.02, -187500.02, -187500.02, -187500.02, -187500.02, -187500.02, 0.000, 0.000, 0.000, 15:46:14.846, 1578577574846
220, -187500.02, -178841.02, -187500.02, -187500.02, -187500.02, -187500.02, -187500.02, -187500.02, 0.000, 0.000, 0.000, 15:46:14.846, 1578577574846
221, -187500.02, -178838.92, -187500.02, -187500.02, -187500.02, -187500.02, -187500.02, -187500.02, 0.000, 0.000, 0.000, 15:46:14.846, 1578577574846
222, -187500.02, -178838.45, -187500.02, -187500.02, -187500.02, -187500.02, -187500.02, -187500.02, 0.000, 0.000, 0.000, 15:46:14.847, 1578577574847
223, -187500.02, -178838.06, -187500.02, -187500.02, -187500.02, -187500.02, -187500.02, -187500.02, 0.000, 0.000, 0.000, 15:46:14.847, 1578577574847
224, -187500.02, -178831.05, -187500.02, -187500.02, -187500.02, -187500.02, -187500.02, -187500.02, 0.000, 0.000, 0.000, 15:46:14.847, 1578577574847
225, -187500.02, -178828.34, -187500.02, -187500.02, -187500.02, -187500.02, -187500.02, -187500.02, 0.000, 0.000, 0.000, 15:46:14.847, 1578577574847
226, -187500.02, -178828.34, -187500.02, -187500.02, -187500.02, -187500.02, -187500.02, -187500.02, 0.000, 0.000, 0.000, 15:46:14.847, 1578577574847
227, -187500.02, -178824.70, -187500.02, -187500.02, -187500.02, -187500.02, -187500.02, -187500.02, 0.000, 0.000, 0.000, 15:46:14.847, 1578577574847
228, -187500.02, -178824.97, -187500.02, -187500.02, -187500.02, -187500.02, -187500.02, -187500.02, -0.014, -0.016, 0.974, 15:46:14.847, 1578577574847
229, -187500.02, -178823.53, -187500.02, -187500.02, -187500.02, -187500.02, -187500.02, -187500.02, 0.000, 0.000, 0.000, 15:46:14.847, 1578577574847
230, -187500.02, -178823.98, -187500.02, -187500.02, -187500.02, -187500.02, -187500.02, -187500.02, 0.000, 0.000, 0.000, 15:46:14.847, 1578577574847
231, -187500.02, -178824.44, -187500.02, -187500.02, -187500.02, -187500.02, -187500.02, -187500.02, 0.000, 0.000, 0.000, 15:46:14.847, 1578577574847
232, -187500.02, -178820.23, -187500.02, -187500.02, -187500.02, -187500.02, -187500.02, -187500.02, 0.000, 0.000, 0.000, 15:46:14.848, 1578577574848
233, -187500.02, -178818.52, -187500.02, -187500.02, -187500.02, -187500.02, -187500.02, -187500.02, 0.000, 0.000, 0.000, 15:46:14.848, 1578577574848
234, -187500.02, -178819.22, -187500.02, -187500.02, -187500.02, -187500.02, -187500.02, -187500.02, 0.000, 0.000, 0.000, 15:46:14.848, 1578577574848
235, -187500.02, -178818.89, -187500.02, -187500.02, -187500.02, -187500.02, -187500.02, -187500.02, 0.000, 0.000, 0.000, 15:46:14.848, 1578577574848
236, -187500.02, -178818.58, -187500.02, -187500.02, -187500.02, -187500.02, -187500.02, -187500.02, 0.000, 0.000, 0.000, 15:46:14.848, 1578577574848
237, -187500.02, -178817.80, -187500.02, -187500.02, -187500.02, -187500.02, -187500.02, -187500.02, -0.018, -0.010, 0.974, 15:46:14.848, 1578577574848
238, -187500.02, -178811.83, -187500.02, -187500.02, -187500.02, -187500.02, -187500.02, -187500.02, 0.000, 0.000, 0.000, 15:46:14.848, 1578577574848
239, -187500.02, -178807.44, -187500.02, -187500.02, -187500.02, -187500.02, -187500.02, -187500.02, 0.000, 0.000, 0.000, 15:46:14.848, 1578577574848
240, -187500.02, -178807.78, -187500.02, -187500.02, -187500.02, -187500.02, -187500.02, -187500.02, 0.000, 0.000, 0.000, 15:46:14.848, 1578577574848
241, -187500.02, -178807.56, -187500.02, -187500.02, -187500.02, -187500.02, -187500.02, -187500.02, 0.000, 0.000, 0.000, 15:46:14.848, 1578577574848
242, -187500.02, -178806.63, -187500.02, -187500.02, -187500.02, -187500.02, -187500.02, -187500.02, 0.000, 0.000, 0.000, 15:46:14.848, 1578577574848
243, -187500.02, -178804.81, -187500.02, -187500.02, -187500.02, -187500.02, -187500.02, -187500.02, 0.000, 0.000, 0.000, 15:46:14.849, 1578577574849
244, -187500.02, -178802.06, -187500.02, -187500.02, -187500.02, -187500.02, -187500.02, -187500.02, 0.000, 0.000, 0.000, 15:46:14.849, 1578577574849
245, -187500.02, -178801.30, -187500.02, -187500.02, -187500.02, -187500.02, -187500.02, -187500.02, 0.000, 0.000, 0.000, 15:46:14.849, 1578577574849
246, -187500.02, -178798.06, -187500.02, -187500.02, -187500.02, -187500.02, -187500.02, -187500.02, 0.000, 0.000, 0.000, 15:46:14.849, 1578577574849
247, -187500.02, -178796.31, -187500.02, -187500.02, -187500.02, -187500.02, -187500.02, -187500.02, -0.016, -0.004, 0.966, 15:46:14.849, 1578577574849
248, -187500.02, -178797.19, -187500.02, -187500.02, -187500.02, -187500.02, -187500.02, -187500.02, 0.000, 0.000, 0.000, 15:46:14.849, 1578577574849
249, -187500.02, -178797.78, -187500.02, -187500.02, -187500.02, -187500.02, -187500.02, -187500.02, 0.000, 0.000, 0.000, 15:46:14.849, 1578577574849
250, -187500.02, -178796.98, -187500.02, -187500.02, -187500.02, -187500.02, -187500.02, -187500.02, 0.000, 0.000, 0.000, 15:46:14.849, 1578577574849
251, -187500.02, -178795.42, -187500.02, -187500.02, -187500.02, -187500.02, -187500.02, -187500.02, 0.000, 0.000, 0.000, 15:46:14.849, 1578577574849
252, -187500.02, -178794.25, -187500.02, -187500.02, -187500.02, -187500.02, -187500.02, -187500.02, 0.000, 0.000, 0.000, 15:46:14.849, 1578577574849
253, -187500.02, -178788.89, -187500.02, -187500.02, -187500.02, -187500.02, -187500.02, -187500.02, 0.000, 0.000, 0.000, 15:46:14.850, 1578577574850
254, -187500.02, -178784.11, -187500.02, -187500.02, -187500.02, -187500.02, -187500.02, -187500.02, 0.000, 0.000, 0.000, 15:46:14.850, 1578577574850
255, -187500.02, -178782.36, -187500.02, -187500.02, -187500.02, -187500.02, -187500.02, -187500.02, 0.000, 0.000, 0.000, 15:46:14.850, 1578577574850
0, -187500.02, -178783.06, -187500.02, -187500.02, -187500.02, -187500.02, -187500.02, -187500.02, 0.000, 0.000, 0.000, 15:46:14.850, 1578577574850
1, -187500.02, -178781.67, -187500.02, -187500.02, -187500.02, -187500.02, -187500.02, -187500.02, -0.010, -0.010, 0.972, 15:46:14.850, 1578577574850
2, -187500.02, -178777.98, -187500.02, -187500.02, -187500.02, -187500.02, -187500.02, -187500.02, 0.000, 0.000, 0.000, 15:46:14.850, 1578577574850
3, -187500.02, -178776.69, -187500.02, -187500.02, -187500.02, -187500.02, -187500.02, -187500.02, 0.000, 0.000, 0.000, 15:46:14.851, 1578577574851
4, -187500.02, -178775.70, -187500.02, -187500.02, -187500.02, -187500.02, -187500.02, -187500.02, 0.000, 0.000, 0.000, 15:46:14.851, 1578577574851
5, -187500.02, -178773.22, -187500.02, -187500.02, -187500.02, -187500.02, -187500.02, -187500.02, 0.000, 0.000, 0.000, 15:46:14.851, 1578577574851
6, -187500.02, -178774.55, -187500.02, -187500.02, -187500.02, -187500.02, -187500.02, -187500.02, 0.000, 0.000, 0.000, 15:46:14.851, 1578577574851
7, -187500.02, -178776.02, -187500.02, -187500.02, -187500.02, -187500.02, -187500.02, -187500.02, 0.000, 0.000, 0.000, 15:46:14.851, 1578577574851
8, -187500.02, -178774.97, -187500.02, -187500.02, -187500.02, -187500.02, -187500.02, -187500.02, 0.000, 0.000, 0.000, 15:46:14.852, 1578577574852
9, -187500.02, -178772.48, -187500.02, -187500.02, -187500.02, -187500.02, -187500.02, -187500.02, 0.000, 0.000, 0.000, 15:46:14.852, 1578577574852
10, -187500.02, -178771.13, -187500.02, -187500.02, -187500.02, -187500.02, -187500.02, -187500.02, 0.000, 0.000, 0.000, 15:46:14.852, 1578577574852
11, -187500.02, -178771.69, -187500.02, -187500.02, -187500.02, -187500.02, -187500.02, -187500.02, -0.040, -0.008, 0.922, 15:46:14.852, 1578577574852
12, -187500.02, -178768.08, -187500.02, -187500.02, -187500.02, -187500.02, -187500.02, -187500.02, 0.000, 0.000, 0.000, 15:46:14.852, 1578577574852
13, -187500.02, -178767.25, -187500.02, -187500.02, -187500.02, -187500.02, -187500.02, -187500.02, 0.000, 0.000, 0.000, 15:46:14.852, 1578577574852
14, -187500.02, -178763.88, -187500.02, -187500.02, -187500.02, -187500.02, -187500.02, -187500.02, 0.000, 0.000, 0.000, 15:46:14.853, 1578577574853
15, -187500.02, -178762.14, -187500.02, -187500.02, -187500.02, -187500.02, -187500.02, -187500.02, 0.000, 0.000, 0.000, 15:46:14.853, 1578577574853
16, -187500.02, -178760.06, -187500.02, -187500.02, -187500.02, -187500.02, -187500.02, -187500.02, 0.000, 0.000, 0.000, 15:46:14.853, 1578577574853
17, -187500.02, -178757.98, -187500.02, -187500.02, -187500.02, -187500.02, -187500.02, -187500.02, 0.000, 0.000, 0.000, 15:46:14.854, 1578577574854
18, -187500.02, -178757.25, -187500.02, -187500.02, -187500.02, -187500.02, -187500.02, -187500.02, 0.000, 0.000, 0.000, 15:46:14.854, 1578577574854
19, -187500.02, -178756.39, -187500.02, -187500.02, -187500.02, -187500.02, -187500.02, -187500.02, 0.000, 0.000, 0.000, 15:46:14.854, 1578577574854
20, -187500.02, -178754.42, -187500.02, -187500.02, -187500.02, -187500.02, -187500.02, -187500.02, -0.016, -0.022, 0.938, 15:46:14.854, 1578577574854
21, -187500.02, -178754.69, -187500.02, -187500.02, -187500.02, -187500.02, -187500.02, -187500.02, 0.000, 0.000, 0.000, 15:46:14.854, 1578577574854
22, -187500.02, -178754.67, -187500.02, -187500.02, -187500.02, -187500.02, -187500.02, -187500.02, 0.000, 0.000, 0.000, 15:46:14.854, 1578577574854
23, -187500.02, -178754.30, -187500.02, -187500.02, -187500.02, -187500.02, -187500.02, -187500.02, 0.000, 0.000, 0.000, 15:46:14.858, 1578577574858
24, -187500.02, -178751.98, -187500.02, -187500.02, -187500.02, -187500.02, -187500.02, -187500.02, 0.000, 0.000, 0.000, 15:46:14.858, 1578577574858
25, -187500.02, -178749.89, -187500.02, -187500.02, -187500.02, -187500.02, -187500.02, -187500.02, 0.000, 0.000, 0.000, 15:46:14.859, 1578577574859
26, -187500.02, -178748.33, -187500.02, -187500.02, -187500.02, -187500.02, -187500.02, -187500.02, 0.000, 0.000, 0.000, 15:46:14.859, 1578577574859
27, -187500.02, -178746.38, -187500.02, -187500.02, -187500.02, -187500.02, -187500.02, -187500.02, 0.000, 0.000, 0.000, 15:46:14.859, 1578577574859
28, -187500.02, -178744.23, -187500.02, -187500.02, -187500.02, -187500.02, -187500.02, -187500.02, 0.000, 0.000, 0.000, 15:46:14.859, 1578577574859
29, -187500.02, -178740.91, -187500.02, -187500.02, -187500.02, -187500.02, -187500.02, -187500.02, 0.000, 0.000, 0.000, 15:46:14.859, 1578577574859
30, -187500.02, -178736.88, -187500.02, -187500.02, -187500.02, -187500.02, -187500.02, -187500.02, -0.024, -0.012, 0.948, 15:46:14.859, 1578577574859
31, -187500.02, -178735.30, -187500.02, -187500.02, -187500.02, -187500.02, -187500.02, -187500.02, 0.000, 0.000, 0.000, 15:46:14.859, 1578577574859
