%OpenBCI Raw EEG Data
%Number of channels = 8
%Sample Rate = 250.0 Hz
%First Column = SampleIndex
%Last Column = Timestamp 
%Other Columns = EEG data in microvolts followed by Accel Data (in G) interleaved with Aux Data
0, 84465.18, 84445.54, 84540.55, 84545.41, -93750.01, 84499.11, -93750.01, -92931.48, 0.190, 0.150, 0.882, 15:27:13.516, 1578576433516
1, -170688.33, -174358.58, -177749.38, -177610.64, -177689.67, -177738.19, -177760.44, -177737.17, 0.000, 0.000, 0.000, 15:27:13.516, 1578576433516
2, 168938.03, 168898.83, 169088.81, 169098.56, -187500.02, 169006.00, -187500.02, -185863.72, 0.000, 0.000, 0.000, 15:27:13.516, 1578576433516
3, -170691.58, -174378.69, -177756.11, -177617.34, -177696.36, -177745.00, -177767.17, -177743.81, 0.000, 0.000, 0.000, 15:27:13.516, 1578576433516
4, 168945.78, 168906.56, 169096.63, 169106.20, -187500.02, 169013.78, -187500.02, -185865.83, 0.000, 0.000, 0.000, 15:27:13.516, 1578576433516
5, -170695.38, -174402.16, -177759.47, -177620.67, -177699.61, -177748.52, -177770.45, -177747.09, 0.000, 0.000, 0.000, 15:27:13.516, 1578576433516
6, 168946.14, 168906.78, 169096.94, 169106.45, -187500.02, 169014.08, -187500.02, -185869.45, 0.000, 0.000, 0.000, 15:27:13.516, 1578576433516
7, -170696.17, -174422.19, -177761.67, -177622.94, -177701.86, -177750.88, -177772.69, -177749.41, 0.068, 0.086, 0.920, 15:27:13.516, 1578576433516
8, 168954.86, 168915.48, 169105.67, 169115.33, -187500.02, 169022.75, -187500.02, -185867.98, 0.000, 0.000, 0.000, 15:27:13.516, 1578576433516
9, -170702.03, -174440.97, -177768.78, -177629.78, -177708.86, -177757.98, -177779.69, -177756.33, 0.000, 0.000, 0.000, 15:27:13.516, 1578576433516
10, 168964.14, 168924.78, 169114.91, 169124.56, -187500.02, 169032.06, -187500.02, -185869.13, 0.000, 0.000, 0.000, 15:27:13.516, 1578576433516
11, -170709.23, -174461.48, -177774.80, -177635.83, -177714.98, -177764.17, -177785.75, -177762.36, 0.000, 0.000, 0.000, 15:27:13.516, 1578576433516
12, 168976.39, 168937.11, 169127.11, 169136.73, -187500.02, 169044.31, -187500.02, -185867.59, 0.000, 0.000, 0.000, 15:27:13.516, 1578576433516
13, -170715.73, -174482.83, -177780.58, -177641.64, -177720.84, -177770.13, -177791.61, -177768.20, 0.000, 0.000, 0.000, 15:27:13.516, 1578576433516
14, 168983.58, 168944.36, 169134.27, 169143.95, -187500.02, 169051.52, -187500.02, -185866.06, 0.000, 0.000, 0.000, 15:27:13.516, 1578576433516
15, -170718.66, -174504.16, -177785.86, -177646.92, -177725.95, -177775.42, -177796.91, -177773.39, 0.000, 0.000, 0.000, 15:27:13.517, 1578576433517
16, 168990.94, 168951.64, 169141.67, 169151.41, -187500.02, 169058.89, -187500.02, -185869.92, 0.010, 0.050, 0.948, 15:27:13.517, 1578576433517
17, -170724.42, -174522.33, -177791.45, -177652.59, -177731.61, -177781.09, -177802.48, -177779.00, 0.000, 0.000, 0.000, 15:27:13.517, 1578576433517
18, 169000.78, 168961.45, 169151.48, 169161.34, -187500.02, 169068.81, -187500.02, -185869.23, 0.000, 0.000, 0.000, 15:27:13.517, 1578576433517
19, -170731.63, -174543.22, -177798.63, -177659.75, -177738.70, -177788.34, -177809.53, -177786.11, 0.000, 0.000, 0.000, 15:27:13.517, 1578576433517
20, 169013.27, 168973.97, 169163.97, 169173.78, -187500.02, 169081.27, -187500.02, -185870.38, 0.000, 0.000, 0.000, 15:27:13.517, 1578576433517
21, -170740.92, -174564.64, -177805.48, -177666.66, -177745.73, -177795.41, -177816.50, -177792.94, 0.000, 0.000, 0.000, 15:27:13.517, 1578576433517
22, 169018.88, 168979.63, 169169.53, 169179.31, -187500.02, 169086.89, -187500.02, -185870.94, 0.000, 0.000, 0.000, 15:27:13.517, 1578576433517
23, -170741.45, -174584.11, -177808.52, -177669.61, -177748.67, -177798.39, -177819.52, -177796.00, 0.000, 0.000, 0.000, 15:27:13.517, 1578576433517
24, 169030.25, 168991.03, 169181.02, 169190.86, -187500.02, 169098.19, -187500.02, -185868.47, 0.000, 0.000, 0.000, 15:27:13.517, 1578576433517
25, -170748.05, -174603.44, -177816.23, -177677.34, -177756.36, -177806.22, -177827.20, -177803.67, 0.000, 0.000, 0.000, 15:27:13.517, 1578576433517
26, 169037.98, 168998.77, 169188.70, 169198.47, -187500.02, 169105.98, -187500.02, -185869.14, -0.022, 0.032, 0.956, 15:27:13.517, 1578576433517
27, -170750.72, -174624.09, -177819.31, -177680.38, -177759.39, -177809.39, -177830.20, -177806.69, 0.000, 0.000, 0.000, 15:27:13.517, 1578576433517
28, 169046.91, 169007.61, 169197.67, 169207.38, -187500.02, 169114.91, -187500.02, -185868.45, 0.000, 0.000, 0.000, 15:27:13.517, 1578576433517
29, -170760.02, -174646.27, -177826.00, -177687.20, -177766.25, -177816.23, -177837.02, -177813.53, 0.000, 0.000, 0.000, 15:27:13.517, 1578576433517
30, 169054.39, 169015.14, 169205.16, 169214.88, -187500.02, 169122.34, -187500.02, -185871.84, 0.000, 0.000, 0.000, 15:27:13.517, 1578576433517
31, -170765.38, -174667.45, -177833.56, -177694.80, -177773.67, -177823.80, -177844.63, -177821.06, 0.000, 0.000, 0.000, 15:27:13.518, 1578576433518
32, 169065.27, 169026.05, 169216.00, 169225.77, -187500.02, 169133.19, -187500.02, -185875.30, 0.000, 0.000, 0.000, 15:27:13.518, 1578576433518
33, -170772.00, -174685.88, -177839.84, -177700.94, -177779.95, -177830.06, -177850.75, -177827.17, 0.000, 0.000, 0.000, 15:27:13.518, 1578576433518
34, 169073.47, 169034.22, 169224.20, 169233.92, -187500.02, 169141.41, -187500.02, -185876.05, 0.000, 0.000, 0.000, 15:27:13.518, 1578576433518
35, -170776.42, -174706.80, -177844.28, -177705.48, -177784.45, -177834.67, -177855.22, -177831.72, 0.000, 0.000, 0.000, 15:27:13.519, 1578576433519
36, 169079.27, 169039.98, 169230.06, 169239.78, -187500.02, 169147.25, -187500.02, -185877.19, -0.040, 0.024, 0.964, 15:27:13.519, 1578576433519
37, -170782.72, -174728.63, -177849.72, -177710.80, -177789.86, -177840.20, -177860.64, -177837.02, 0.000, 0.000, 0.000, 15:27:13.519, 1578576433519
38, 169089.22, 169050.00, 169240.05, 169249.61, -187500.02, 169157.28, -187500.02, -185876.97, 0.000, 0.000, 0.000, 15:27:13.519, 1578576433519
39, -170793.30, -174748.28, -177855.19, -177716.30, -177795.33, -177845.78, -177866.14, -177842.56, 0.000, 0.000, 0.000, 15:27:13.519, 1578576433519
40, 169094.00, 169054.78, 169244.91, 169254.44, -187500.02, 169162.09, -187500.02, -185880.36, 0.000, 0.000, 0.000, 15:27:13.519, 1578576433519
41, -170795.89, -174767.80, -177860.89, -177722.00, -177801.17, -177851.55, -177871.95, -177848.28, 0.000, 0.000, 0.000, 15:27:13.519, 1578576433519
42, 169105.20, 169065.84, 169255.97, 169265.67, -187500.02, 169173.17, -187500.02, -185881.34, 0.000, 0.000, 0.000, 15:27:13.519, 1578576433519
43, -170802.09, -174788.06, -177867.84, -177728.92, -177808.03, -177858.48, -177878.94, -177855.16, 0.000, 0.000, 0.000, 15:27:13.519, 1578576433519
44, 169115.81, 169076.59, 169266.67, 169276.39, -187500.02, 169183.91, -187500.02, -185881.44, 0.000, 0.000, 0.000, 15:27:13.519, 1578576433519
45, -170807.95, -174810.75, -177873.55, -177734.53, -177813.78, -177864.27, -177884.47, -177860.78, 0.000, 0.000, 0.000, 15:27:13.519, 1578576433519
46, 169120.69, 169081.39, 169271.47, 169281.20, -187500.02, 169188.66, -187500.02, -185883.47, -0.044, 0.020, 0.970, 15:27:13.519, 1578576433519
47, -170809.77, -174830.67, -177877.34, -177738.30, -177817.53, -177868.00, -177888.19, -177864.56, 0.000, 0.000, 0.000, 15:27:13.519, 1578576433519
48, 169127.59, 169088.30, 169278.45, 169288.08, -187500.02, 169195.55, -187500.02, -185884.77, 0.000, 0.000, 0.000, 15:27:13.520, 1578576433520
49, -170817.88, -174850.31, -177883.33, -177744.27, -177823.47, -177874.08, -177894.16, -177870.50, 0.000, 0.000, 0.000, 15:27:13.520, 1578576433520
50, 169138.61, 169099.34, 169289.53, 169299.06, -187500.02, 169206.61, -187500.02, -185884.98, 0.000, 0.000, 0.000, 15:27:13.520, 1578576433520
51, -170822.91, -174870.97, -177889.13, -177750.25, -177829.31, -177879.95, -177900.09, -177876.42, 0.000, 0.000, 0.000, 15:27:13.520, 1578576433520
52, 169144.34, 169105.00, 169295.13, 169304.75, -187500.02, 169212.28, -187500.02, -185887.22, 0.000, 0.000, 0.000, 15:27:13.520, 1578576433520
53, -170826.38, -174892.58, -177893.06, -177754.13, -177833.27, -177883.95, -177904.05, -177880.30, 0.000, 0.000, 0.000, 15:27:13.520, 1578576433520
54, 169152.16, 169112.84, 169302.91, 169312.58, -187500.02, 169220.14, -187500.02, -185887.47, 0.000, 0.000, 0.000, 15:27:13.520, 1578576433520
55, -170833.27, -174913.72, -177900.33, -177761.25, -177840.36, -177891.11, -177911.13, -177887.41, -0.052, 0.016, 0.986, 15:27:13.520, 1578576433520
56, 169163.73, 169124.53, 169314.61, 169324.25, -187500.02, 169231.75, -187500.02, -185892.30, 0.000, 0.000, 0.000, 15:27:13.520, 1578576433520
57, -170842.53, -174932.28, -177907.77, -177768.88, -177847.97, -177898.78, -177918.66, -177895.05, 0.000, 0.000, 0.000, 15:27:13.520, 1578576433520
58, 169171.31, 169132.11, 169322.23, 169331.95, -187500.02, 169239.45, -187500.02, -185891.92, 0.000, 0.000, 0.000, 15:27:13.520, 1578576433520
59, -170846.36, -174952.19, -177911.67, -177772.77, -177851.94, -177902.67, -177922.61, -177898.84, 0.000, 0.000, 0.000, 15:27:13.521, 1578576433521
60, 169177.75, 169138.48, 169328.58, 169338.33, -187500.02, 169245.73, -187500.02, -185892.08, 0.000, 0.000, 0.000, 15:27:13.521, 1578576433521
61, -170851.75, -174974.50, -177917.20, -177778.23, -177857.47, -177908.14, -177928.11, -177904.41, 0.000, 0.000, 0.000, 15:27:13.521, 1578576433521
62, 169188.27, 169148.98, 169339.22, 169348.86, -187500.02, 169256.23, -187500.02, -185893.75, 0.000, 0.000, 0.000, 15:27:13.521, 1578576433521
63, -170858.58, -174994.14, -177924.03, -177784.98, -177864.17, -177914.97, -177934.94, -177911.16, 0.000, 0.000, 0.000, 15:27:13.521, 1578576433521
64, 169199.02, 169159.78, 169349.81, 169359.67, -187500.02, 169267.00, -187500.02, -185891.89, 0.000, 0.000, 0.000, 15:27:13.521, 1578576433521
65, -170862.50, -175013.50, -177930.47, -177791.47, -177870.70, -177921.42, -177941.34, -177917.59, -0.054, 0.012, 0.980, 15:27:13.521, 1578576433521
66, 169210.66, 169171.47, 169361.48, 169371.30, -187500.02, 169278.73, -187500.02, -185891.73, 0.000, 0.000, 0.000, 15:27:13.521, 1578576433521
67, -170871.28, -175033.83, -177936.44, -177797.42, -177876.63, -177927.50, -177947.31, -177923.56, 0.000, 0.000, 0.000, 15:27:13.521, 1578576433521
68, 169217.58, 169178.42, 169368.48, 169378.16, -187500.02, 169285.69, -187500.02, -185891.70, 0.000, 0.000, 0.000, 15:27:13.522, 1578576433522
69, -170875.53, -175055.95, -177941.63, -177802.58, -177881.75, -177932.70, -177952.52, -177928.69, 0.000, 0.000, 0.000, 15:27:13.522, 1578576433522
70, 169227.89, 169188.66, 169378.86, 169388.55, -187500.02, 169296.02, -187500.02, -185892.80, 0.000, 0.000, 0.000, 15:27:13.522, 1578576433522
71, -170886.55, -175075.98, -177949.03, -177809.94, -177889.23, -177940.20, -177959.86, -177936.11, 0.000, 0.000, 0.000, 15:27:13.522, 1578576433522
72, 169236.61, 169197.38, 169387.48, 169397.20, -187500.02, 169304.75, -187500.02, -185891.92, 0.000, 0.000, 0.000, 15:27:13.522, 1578576433522
73, -170885.97, -175094.08, -177951.59, -177812.59, -177891.73, -177942.80, -177962.50, -177938.72, 0.000, 0.000, 0.000, 15:27:13.522, 1578576433522
74, 169243.89, 169204.64, 169394.77, 169404.45, -187500.02, 169311.95, -187500.02, -185893.47, 0.000, 0.000, 0.000, 15:27:13.522, 1578576433522
75, -170893.00, -175115.56, -177959.33, -177820.30, -177899.55, -177950.53, -177970.33, -177946.48, -0.040, 0.010, 0.984, 15:27:13.522, 1578576433522
76, 169255.16, 169215.95, 169406.09, 169415.75, -187500.02, 169323.22, -187500.02, -185894.05, 0.000, 0.000, 0.000, 15:27:13.522, 1578576433522
77, -170899.67, -175138.36, -177965.55, -177826.53, -177905.80, -177956.80, -177976.45, -177952.72, 0.000, 0.000, 0.000, 15:27:13.523, 1578576433523
78, 169262.72, 169223.47, 169413.56, 169423.25, -187500.02, 169330.73, -187500.02, -185896.33, 0.000, 0.000, 0.000, 15:27:13.523, 1578576433523
79, -170903.67, -175159.75, -177970.47, -177831.45, -177910.73, -177961.77, -177981.48, -177957.63, 0.000, 0.000, 0.000, 15:27:13.523, 1578576433523
80, 169270.06, 169230.94, 169421.02, 169430.69, -187500.02, 169338.13, -187500.02, -185894.38, 0.000, 0.000, 0.000, 15:27:13.523, 1578576433523
81, -170906.97, -175177.88, -177974.31, -177835.34, -177914.66, -177965.61, -177985.33, -177961.52, 0.000, 0.000, 0.000, 15:27:13.523, 1578576433523
82, 169276.64, 169237.44, 169427.58, 169437.23, -187500.02, 169344.64, -187500.02, -185898.38, 0.000, 0.000, 0.000, 15:27:13.523, 1578576433523
83, -170915.06, -175197.22, -177980.78, -177841.69, -177921.06, -177972.16, -177991.83, -177967.94, 0.000, 0.000, 0.000, 15:27:13.523, 1578576433523
84, 169286.11, 169246.84, 169436.95, 169446.73, -187500.02, 169354.17, -187500.02, -185898.72, 0.000, 0.000, 0.000, 15:27:13.523, 1578576433523
85, -170919.02, -175219.30, -177985.80, -177846.88, -177926.00, -177977.13, -177996.92, -177973.02, -0.032, 0.014, 0.974, 15:27:13.523, 1578576433523
86, 169291.06, 169251.69, 169441.91, 169451.66, -187500.02, 169359.11, -187500.02, -185899.59, 0.000, 0.000, 0.000, 15:27:13.523, 1578576433523
87, -170921.92, -175239.50, -177989.70, -177850.64, -177929.88, -177980.97, -178000.69, -177976.78, 0.000, 0.000, 0.000, 15:27:13.523, 1578576433523
88, 169299.92, 169260.70, 169450.89, 169460.45, -187500.02, 169367.98, -187500.02, -185901.42, 0.000, 0.000, 0.000, 15:27:13.523, 1578576433523
89, -170928.92, -175257.39, -177995.61, -177856.63, -177935.75, -177986.95, -178006.53, -177982.64, 0.000, 0.000, 0.000, 15:27:13.523, 1578576433523
90, 169310.13, 169270.77, 169461.00, 169470.67, -187500.02, 169378.08, -187500.02, -185902.81, 0.000, 0.000, 0.000, 15:27:13.523, 1578576433523
91, -170938.89, -175277.09, -178003.39, -177864.42, -177943.66, -177994.80, -178014.34, -177990.44, 0.000, 0.000, 0.000, 15:27:13.523, 1578576433523
92, 169319.36, 169280.08, 169470.30, 169479.97, -187500.02, 169387.42, -187500.02, -185903.55, 0.000, 0.000, 0.000, 15:27:13.523, 1578576433523
93, -170944.39, -175299.03, -178006.97, -177868.00, -177947.31, -177998.63, -178018.00, -177994.11, 0.000, 0.000, 0.000, 15:27:13.523, 1578576433523
94, 169328.70, 169289.41, 169479.61, 169489.34, -187500.02, 169396.80, -187500.02, -185904.75, -0.030, 0.018, 0.980, 15:27:13.523, 1578576433523
95, -170945.59, -175319.66, -178014.38, -177875.31, -177954.53, -178005.75, -178025.20, -178001.38, 0.000, 0.000, 0.000, 15:27:13.523, 1578576433523
96, 169336.50, 169297.31, 169487.45, 169497.11, -187500.02, 169404.58, -187500.02, -185907.00, 0.000, 0.000, 0.000, 15:27:13.523, 1578576433523
97, -170952.89, -175335.77, -178019.72, -177880.61, -177959.84, -178010.98, -178030.47, -178006.66, 0.000, 0.000, 0.000, 15:27:13.524, 1578576433524
98, 169344.70, 169305.41, 169495.64, 169505.25, -187500.02, 169412.67, -187500.02, -185907.05, 0.000, 0.000, 0.000, 15:27:13.524, 1578576433524
99, -170959.28, -175355.78, -178025.05, -177885.95, -177965.17, -178016.55, -178035.95, -178012.08, 0.000, 0.000, 0.000, 15:27:13.524, 1578576433524
100, 169354.45, 169315.31, 169505.44, 169514.97, -187500.02, 169422.55, -187500.02, -185907.91, 0.000, 0.000, 0.000, 15:27:13.524, 1578576433524
101, -170967.34, -175378.31, -178031.44, -177892.39, -177971.67, -178022.92, -178042.39, -178018.45, 0.000, 0.000, 0.000, 15:27:13.524, 1578576433524
102, 169363.36, 169324.11, 169514.33, 169524.00, -187500.02, 169431.47, -187500.02, -185908.95, 0.000, 0.000, 0.000, 15:27:13.524, 1578576433524
103, -170969.19, -175397.38, -178037.61, -177898.56, -177977.81, -178029.06, -178048.53, -178024.67, 0.000, 0.000, 0.000, 15:27:13.524, 1578576433524
104, 169373.94, 169334.73, 169525.03, 169534.59, -187500.02, 169442.13, -187500.02, -185911.14, -0.024, 0.016, 0.982, 15:27:13.524, 1578576433524
105, -170977.05, -175415.45, -178044.11, -177905.08, -177984.31, -178035.69, -178055.20, -178031.13, 0.000, 0.000, 0.000, 15:27:13.524, 1578576433524
106, 169381.72, 169342.44, 169532.77, 169542.38, -187500.02, 169449.83, -187500.02, -185911.88, 0.000, 0.000, 0.000, 15:27:13.524, 1578576433524
107, -170981.14, -175434.88, -178048.92, -177910.00, -177989.14, -178040.52, -178060.05, -178035.97, 0.000, 0.000, 0.000, 15:27:13.524, 1578576433524
108, 169387.70, 169348.34, 169538.67, 169548.34, -187500.02, 169455.72, -187500.02, -185912.61, 0.000, 0.000, 0.000, 15:27:13.524, 1578576433524
109, -170987.08, -175456.03, -178051.86, -177912.80, -177992.17, -178043.50, -178062.89, -178038.91, 0.000, 0.000, 0.000, 15:27:13.524, 1578576433524
110, 169396.31, 169357.03, 169547.30, 169557.02, -187500.02, 169464.42, -187500.02, -185911.14, 0.000, 0.000, 0.000, 15:27:13.524, 1578576433524
111, -170994.97, -175476.67, -178059.48, -177920.39, -177999.83, -178051.27, -178070.53, -178046.59, 0.000, 0.000, 0.000, 15:27:13.524, 1578576433524
112, 169409.56, 169370.31, 169560.59, 169570.20, -187500.02, 169477.67, -187500.02, -185914.58, 0.000, 0.000, 0.000, 15:27:13.524, 1578576433524
113, -171001.77, -175493.13, -178067.80, -177928.81, -178008.19, -178059.53, -178078.94, -178055.00, 0.000, 0.000, 0.000, 15:27:13.524, 1578576433524
114, 169418.58, 169379.33, 169569.56, 169579.17, -187500.02, 169486.67, -187500.02, -185913.73, -0.014, 0.012, 0.978, 15:27:13.524, 1578576433524
115, -171004.25, -175513.41, -178071.11, -177932.08, -178011.33, -178062.80, -178082.11, -178058.22, 0.000, 0.000, 0.000, 15:27:13.524, 1578576433524
116, 169424.63, 169385.27, 169575.61, 169585.11, -187500.02, 169492.73, -187500.02, -185913.44, 0.000, 0.000, 0.000, 15:27:13.525, 1578576433525
117, -171006.50, -175534.45, -178075.77, -177936.70, -178015.92, -178067.41, -178086.75, -178062.81, 0.000, 0.000, 0.000, 15:27:13.525, 1578576433525
118, 169432.77, 169393.52, 169583.81, 169593.44, -187500.02, 169500.89, -187500.02, -185914.97, 0.000, 0.000, 0.000, 15:27:13.525, 1578576433525
119, -171012.52, -175553.72, -178080.97, -177941.83, -178021.06, -178072.52, -178091.98, -178067.92, 0.000, 0.000, 0.000, 15:27:13.525, 1578576433525
120, 169444.25, 169405.14, 169595.33, 169604.94, -187500.02, 169512.45, -187500.02, -185915.25, 0.000, 0.000, 0.000, 15:27:13.996, 1578576433996
121, -171021.44, -175572.25, -178090.48, -177951.28, -178030.50, -178081.95, -178101.39, -178077.38, 0.000, 0.000, 0.000, 15:27:13.996, 1578576433996
122, 169451.86, 169412.63, 169602.95, 169612.55, -187500.02, 169519.94, -187500.02, -185917.25, 0.000, 0.000, 0.000, 15:27:13.996, 1578576433996
123, -171025.95, -175590.88, -178092.28, -177953.23, -178032.59, -178083.94, -178103.34, -178079.27, 0.000, 0.000, 0.000, 15:27:13.996, 1578576433996
124, 169459.31, 169419.98, 169610.39, 169619.92, -187500.02, 169527.34, -187500.02, -185918.25, -0.004, 0.010, 0.958, 15:27:13.996, 1578576433996
125, -171030.77, -175612.27, -178099.05, -177959.91, -178039.28, -178090.73, -178110.08, -178085.95, 0.000, 0.000, 0.000, 15:27:13.996, 1578576433996
126, 169466.25, 169426.89, 169617.22, 169626.80, -187500.02, 169534.22, -187500.02, -185919.41, 0.000, 0.000, 0.000, 15:27:13.996, 1578576433996
127, -171033.17, -175631.98, -178102.16, -177963.08, -178042.48, -178093.80, -178113.16, -178089.17, 0.000, 0.000, 0.000, 15:27:13.996, 1578576433996
128, 169473.58, 169434.36, 169624.64, 169634.25, -187500.02, 169541.70, -187500.02, -185920.22, 0.000, 0.000, 0.000, 15:27:13.996, 1578576433996
129, -171040.42, -175649.19, -178107.86, -177968.77, -178048.11, -178099.56, -178118.88, -178094.89, 0.000, 0.000, 0.000, 15:27:13.997, 1578576433997
130, 169481.88, 169442.64, 169632.95, 169642.69, -187500.02, 169549.95, -187500.02, -185921.77, 0.000, 0.000, 0.000, 15:27:13.997, 1578576433997
131, -171046.83, -175668.50, -178114.66, -177975.58, -178054.86, -178106.38, -178125.69, -178101.64, 0.000, 0.000, 0.000, 15:27:13.997, 1578576433997
132, 169493.05, 169453.75, 169644.14, 169653.84, -187500.02, 169561.11, -187500.02, -185924.02, 0.000, 0.000, 0.000, 15:27:13.997, 1578576433997
133, -171057.67, -175687.88, -178122.09, -177982.98, -178062.31, -178113.88, -178132.98, -178109.02, -0.012, 0.004, 0.964, 15:27:13.997, 1578576433997
134, 169504.42, 169465.09, 169655.48, 169665.17, -187500.02, 169572.55, -187500.02, -185923.92, 0.000, 0.000, 0.000, 15:27:13.997, 1578576433997
135, -171063.28, -175707.86, -178128.69, -177989.61, -178068.97, -178120.48, -178139.67, -178115.66, 0.000, 0.000, 0.000, 15:27:13.997, 1578576433997
136, 169512.94, 169473.64, 169663.97, 169673.66, -187500.02, 169581.09, -187500.02, -185923.84, 0.000, 0.000, 0.000, 15:27:13.997, 1578576433997
137, -171065.78, -175725.34, -178132.28, -177993.22, -178072.44, -178124.00, -178143.23, -178119.17, 0.000, 0.000, 0.000, 15:27:13.997, 1578576433997
138, 169520.41, 169481.05, 169671.48, 169681.09, -187500.02, 169588.52, -187500.02, -185925.25, 0.000, 0.000, 0.000, 15:27:13.997, 1578576433997
139, -171073.14, -175743.95, -178137.92, -177998.83, -178078.13, -178129.77, -178148.78, -178124.78, 0.000, 0.000, 0.000, 15:27:13.997, 1578576433997
140, 169524.91, 169485.56, 169675.97, 169685.56, -187500.02, 169593.03, -187500.02, -185927.70, 0.000, 0.000, 0.000, 15:27:13.997, 1578576433997
141, -171076.53, -175765.19, -178142.41, -178003.39, -178082.52, -178134.19, -178153.33, -178129.31, 0.000, 0.000, 0.000, 15:27:13.997, 1578576433997
142, 169533.22, 169493.94, 169684.36, 169693.95, -187500.02, 169601.36, -187500.02, -185932.00, 0.000, 0.000, 0.000, 15:27:13.997, 1578576433997
143, -171082.84, -175783.64, -178149.25, -178010.14, -178089.33, -178140.89, -178160.19, -178136.06, -0.010, 0.004, 0.956, 15:27:13.997, 1578576433997
144, 169546.22, 169507.00, 169697.34, 169707.06, -187500.02, 169614.34, -187500.02, -185931.92, 0.000, 0.000, 0.000, 15:27:13.997, 1578576433997
145, -171089.50, -175801.34, -178157.30, -178018.19, -178097.42, -178149.08, -178168.23, -178144.11, 0.000, 0.000, 0.000, 15:27:13.997, 1578576433997
146, 169553.69, 169514.39, 169704.83, 169714.52, -187500.02, 169621.75, -187500.02, -185935.34, 0.000, 0.000, 0.000, 15:27:13.997, 1578576433997
147, -171095.72, -175820.56, -178160.50, -178021.42, -178100.66, -178152.36, -178171.47, -178147.36, 0.000, 0.000, 0.000, 15:27:13.997, 1578576433997
148, 169558.92, 169519.63, 169710.05, 169719.73, -187500.02, 169627.11, -187500.02, -185935.97, 0.000, 0.000, 0.000, 15:27:13.997, 1578576433997
149, -171099.14, -175841.09, -178165.38, -178026.19, -178105.36, -178157.09, -178176.25, -178152.20, 0.000, 0.000, 0.000, 15:27:13.998, 1578576433998
150, 169567.70, 169528.36, 169718.80, 169728.44, -187500.02, 169635.86, -187500.02, -185935.94, 0.000, 0.000, 0.000, 15:27:13.998, 1578576433998
151, -171105.02, -175860.14, -178171.52, -178032.39, -178111.59, -178163.30, -178182.52, -178158.38, 0.000, 0.000, 0.000, 15:27:13.998, 1578576433998
152, 169577.45, 169538.16, 169728.69, 169738.22, -187500.02, 169645.53, -187500.02, -185937.83, 0.000, 0.000, 0.000, 15:27:13.998, 1578576433998
153, -171113.75, -175876.08, -178178.25, -178039.19, -178118.47, -178170.13, -178189.16, -178165.08, -0.014, 0.006, 0.968, 15:27:13.998, 1578576433998
154, 169585.88, 169546.63, 169737.08, 169746.63, -187500.02, 169653.95, -187500.02, -185941.72, 0.000, 0.000, 0.000, 15:27:13.998, 1578576433998
155, -171115.94, -175894.50, -178183.86, -178044.80, -178124.02, -178175.66, -178194.77, -178170.75, 0.000, 0.000, 0.000, 15:27:13.998, 1578576433998
156, 169592.78, 169553.42, 169743.97, 169753.61, -187500.02, 169660.89, -187500.02, -185943.95, 0.000, 0.000, 0.000, 15:27:13.998, 1578576433998
157, -171121.33, -175915.17, -178189.75, -178050.59, -178129.78, -178181.55, -178200.73, -178176.55, 0.000, 0.000, 0.000, 15:27:13.998, 1578576433998
158, 169604.42, 169565.17, 169755.64, 169765.31, -187500.02, 169672.59, -187500.02, -185945.42, 0.000, 0.000, 0.000, 15:27:13.998, 1578576433998
159, -171127.41, -175934.27, -178196.92, -178057.80, -178136.89, -178188.72, -178207.86, -178183.73, 0.000, 0.000, 0.000, 15:27:13.998, 1578576433998
160, 169613.81, 169574.52, 169764.95, 169774.66, -187500.02, 169682.02, -187500.02, -185944.17, 0.000, 0.000, 0.000, 15:27:13.998, 1578576433998
161, -171134.72, -175951.66, -178202.09, -178062.89, -178142.17, -178193.94, -178213.02, -178188.81, 0.000, 0.000, 0.000, 15:27:13.998, 1578576433998
162, 169622.23, 169582.91, 169773.36, 169783.06, -187500.02, 169690.42, -187500.02, -185945.91, 0.000, 0.000, 0.000, 15:27:13.998, 1578576433998
163, -171140.34, -175969.83, -178207.80, -178068.58, -178147.78, -178199.52, -178218.64, -178194.42, -0.008, -0.002, 0.976, 15:27:13.998, 1578576433998
164, 169631.50, 169592.17, 169782.73, 169792.34, -187500.02, 169699.63, -187500.02, -185947.08, 0.000, 0.000, 0.000, 15:27:13.998, 1578576433998
165, -171147.77, -175989.78, -178212.02, -178072.86, -178152.11, -178203.92, -178222.92, -178198.81, 0.000, 0.000, 0.000, 15:27:13.998, 1578576433998
166, 169636.09, 169596.73, 169787.31, 169796.97, -187500.02, 169704.25, -187500.02, -185946.72, 0.000, 0.000, 0.000, 15:27:13.998, 1578576433998
167, -171148.42, -176007.78, -178215.95, -178076.81, -178155.95, -178207.77, -178226.91, -178202.72, 0.000, 0.000, 0.000, 15:27:13.998, 1578576433998
168, 169644.44, 169605.19, 169795.77, 169805.34, -187500.02, 169712.63, -187500.02, -185949.70, 0.000, 0.000, 0.000, 15:27:13.999, 1578576433999
169, -171156.33, -176025.28, -178223.34, -178084.20, -178163.36, -178215.25, -178234.25, -178210.08, 0.000, 0.000, 0.000, 15:27:13.999, 1578576433999
170, 169658.34, 169618.98, 169809.55, 169819.23, -187500.02, 169726.58, -187500.02, -185949.47, 0.000, 0.000, 0.000, 15:27:13.999, 1578576433999
171, -171165.05, -176043.72, -178230.13, -178090.89, -178170.16, -178222.02, -178240.94, -178216.91, 0.000, 0.000, 0.000, 15:27:13.999, 1578576433999
172, 169663.66, 169624.33, 169814.91, 169824.55, -187500.02, 169731.81, -187500.02, -185951.39, 0.000, 0.000, 0.000, 15:27:13.999, 1578576433999
173, -171170.34, -176062.73, -178234.09, -178094.89, -178174.11, -178225.97, -178244.97, -178220.83, -0.012, -0.002, 0.966, 15:27:13.999, 1578576433999
174, 169673.16, 169633.75, 169824.33, 169834.03, -187500.02, 169741.25, -187500.02, -185953.44, 0.000, 0.000, 0.000, 15:27:13.999, 1578576433999
175, -171172.69, -176081.50, -178241.66, -178102.53, -178181.73, -178233.56, -178252.56, -178228.42, 0.000, 0.000, 0.000, 15:27:13.999, 1578576433999
176, 169682.13, 169642.77, 169833.44, 169843.02, -187500.02, 169750.34, -187500.02, -185955.64, 0.000, 0.000, 0.000, 15:27:13.999, 1578576433999
177, -171177.67, -176097.44, -178245.86, -178106.73, -178186.02, -178237.81, -178256.81, -178232.72, 0.000, 0.000, 0.000, 15:27:13.999, 1578576433999
178, 169690.13, 169650.77, 169841.33, 169850.92, -187500.02, 169758.34, -187500.02, -185955.91, 0.000, 0.000, 0.000, 15:27:13.999, 1578576433999
179, -171188.52, -176115.30, -178252.94, -178113.92, -178193.20, -178244.98, -178263.88, -178239.67, 0.000, 0.000, 0.000, 15:27:13.999, 1578576433999
180, 169703.78, 169664.52, 169855.08, 169864.61, -187500.02, 169771.97, -187500.02, -185957.83, 0.000, 0.000, 0.000, 15:27:13.999, 1578576433999
181, -171192.86, -176134.11, -178261.42, -178122.28, -178201.44, -178253.30, -178272.39, -178248.20, 0.000, 0.000, 0.000, 15:27:13.999, 1578576433999
182, 169710.27, 169670.95, 169861.56, 169871.16, -187500.02, 169778.45, -187500.02, -185959.72, -0.032, 0.000, 0.970, 15:27:13.999, 1578576433999
183, -171198.27, -176151.41, -178266.23, -178127.06, -178206.39, -178258.20, -178277.19, -178252.98, 0.000, 0.000, 0.000, 15:27:13.999, 1578576433999
184, 169722.69, 169683.31, 169874.02, 169883.63, -187500.02, 169790.81, -187500.02, -185958.75, 0.000, 0.000, 0.000, 15:27:13.999, 1578576433999
185, -171205.81, -176168.22, -178271.42, -178132.33, -178211.59, -178263.45, -178282.42, -178258.23, 0.000, 0.000, 0.000, 15:27:13.999, 1578576433999
186, 169727.41, 169687.98, 169878.61, 169888.27, -187500.02, 169795.45, -187500.02, -185959.88, 0.000, 0.000, 0.000, 15:27:14.000, 1578576434000
187, -171209.27, -176186.45, -178276.14, -178136.94, -178216.23, -178268.08, -178287.09, -178262.89, 0.000, 0.000, 0.000, 15:27:14.000, 1578576434000
188, 169737.78, 169698.38, 169889.03, 169898.70, -187500.02, 169805.97, -187500.02, -185961.25, 0.000, 0.000, 0.000, 15:27:14.000, 1578576434000
189, -171216.50, -176205.77, -178281.86, -178142.84, -178222.08, -178273.91, -178292.94, -178268.64, 0.000, 0.000, 0.000, 15:27:14.000, 1578576434000
190, 169742.00, 169702.63, 169893.41, 169902.95, -187500.02, 169810.11, -187500.02, -185963.41, 0.000, 0.000, 0.000, 15:27:14.000, 1578576434000
191, -171218.89, -176223.52, -178285.31, -178146.13, -178225.41, -178277.38, -178296.17, -178271.98, 0.000, 0.000, 0.000, 15:27:14.000, 1578576434000
192, 169750.86, 169711.42, 169902.13, 169911.72, -187500.02, 169818.94, -187500.02, -185966.33, -0.018, 0.000, 0.976, 15:27:14.000, 1578576434000
193, -171226.36, -176239.14, -178292.81, -178153.59, -178232.89, -178284.80, -178303.72, -178279.47, 0.000, 0.000, 0.000, 15:27:14.000, 1578576434000
194, 169757.83, 169718.36, 169909.06, 169918.63, -187500.02, 169825.98, -187500.02, -185971.48, 0.000, 0.000, 0.000, 15:27:14.000, 1578576434000
195, -171231.08, -176257.89, -178298.27, -178159.06, -178238.34, -178290.25, -178309.20, -178284.89, 0.000, 0.000, 0.000, 15:27:14.000, 1578576434000
196, 169768.63, 169729.17, 169919.88, 169929.42, -187500.02, 169836.78, -187500.02, -185972.55, 0.000, 0.000, 0.000, 15:27:14.000, 1578576434000
197, -171237.16, -176276.72, -178305.45, -178166.31, -178245.55, -178297.44, -178316.41, -178292.14, 0.000, 0.000, 0.000, 15:27:14.000, 1578576434000
198, 169777.25, 169737.84, 169928.61, 169938.20, -187500.02, 169845.52, -187500.02, -185974.20, 0.000, 0.000, 0.000, 15:27:14.001, 1578576434001
199, -171244.06, -176294.38, -178310.95, -178171.61, -178250.86, -178302.77, -178321.81, -178297.48, 0.000, 0.000, 0.000, 15:27:14.001, 1578576434001
200, 169786.03, 169746.58, 169937.45, 169946.97, -187500.02, 169854.30, -187500.02, -185973.64, 0.000, 0.000, 0.000, 15:27:14.001, 1578576434001
201, -171247.50, -176310.86, -178315.39, -178176.20, -178255.33, -178307.25, -178326.30, -178302.03, 0.000, 0.000, 0.000, 15:27:14.001, 1578576434001
202, 169793.97, 169754.61, 169945.34, 169954.91, -187500.02, 169862.20, -187500.02, -185975.45, -0.022, -0.002, 0.970, 15:27:14.001, 1578576434001
203, -171251.53, -176327.67, -178320.13, -178181.00, -178260.14, -178312.17, -178331.17, -178306.86, 0.000, 0.000, 0.000, 15:27:14.001, 1578576434001
204, 169795.69, 169756.27, 169946.98, 169956.64, -187500.02, 169863.94, -187500.02, -185981.33, 0.000, 0.000, 0.000, 15:27:14.001, 1578576434001
205, -171259.02, -176347.25, -178324.95, -178185.84, -178264.98, -178317.03, -178335.94, -178311.73, 0.000, 0.000, 0.000, 15:27:14.002, 1578576434002
206, 169808.05, 169768.63, 169959.38, 169968.98, -187500.02, 169876.36, -187500.02, -185983.41, 0.000, 0.000, 0.000, 15:27:14.002, 1578576434002
207, -171267.11, -176364.41, -178333.47, -178194.31, -178273.42, -178325.56, -178344.50, -178320.22, 0.000, 0.000, 0.000, 15:27:14.002, 1578576434002
208, 169819.83, 169780.52, 169971.16, 169980.78, -187500.02, 169888.05, -187500.02, -185980.34, 0.000, 0.000, 0.000, 15:27:14.002, 1578576434002
209, -171271.39, -176380.84, -178337.25, -178198.16, -178277.33, -178329.41, -178348.30, -178324.05, 0.000, 0.000, 0.000, 15:27:14.002, 1578576434002
210, 169821.98, 169782.61, 169973.36, 169982.89, -187500.02, 169890.23, -187500.02, -185983.83, 0.000, 0.000, 0.000, 15:27:14.002, 1578576434002
211, -171274.14, -176398.91, -178341.66, -178202.55, -178281.64, -178333.75, -178352.63, -178328.45, 0.000, 0.000, 0.000, 15:27:14.002, 1578576434002
212, 169832.58, 169793.19, 169984.05, 169993.55, -187500.02, 169900.88, -187500.02, -185983.34, -0.016, 0.000, 0.980, 15:27:14.002, 1578576434002
213, -171279.72, -176417.03, -178346.84, -178207.64, -178286.83, -178338.89, -178357.77, -178333.59, 0.000, 0.000, 0.000, 15:27:14.002, 1578576434002
214, 169839.50, 169800.23, 169990.94, 170000.50, -187500.02, 169907.78, -187500.02, -185987.45, 0.000, 0.000, 0.000, 15:27:14.002, 1578576434002
215, -171286.33, -176435.05, -178353.66, -178214.45, -178293.59, -178345.59, -178364.50, -178340.19, 0.000, 0.000, 0.000, 15:27:14.002, 1578576434002
216, 169847.53, 169808.28, 169998.91, 170008.53, -187500.02, 169915.77, -187500.02, -185990.45, 0.000, 0.000, 0.000, 15:27:14.003, 1578576434003
217, -171291.27, -176450.91, -178360.25, -178221.05, -178300.27, -178352.30, -178371.08, -178346.86, 0.000, 0.000, 0.000, 15:27:14.003, 1578576434003
218, 169860.09, 169820.80, 170011.50, 170021.13, -187500.02, 169928.30, -187500.02, -185990.14, 0.000, 0.000, 0.000, 15:27:14.003, 1578576434003
219, -171297.30, -176468.14, -178365.42, -178226.09, -178305.41, -178357.45, -178376.23, -178351.94, 0.000, 0.000, 0.000, 15:27:14.003, 1578576434003
220, 169864.89, 169825.59, 170016.27, 170025.88, -187500.02, 169933.11, -187500.02, -185992.08, 0.000, 0.000, 0.000, 15:27:14.003, 1578576434003
221, -171301.64, -176488.77, -178370.38, -178231.11, -178310.34, -178362.38, -178381.17, -178356.88, -0.012, -0.002, 0.968, 15:27:14.003, 1578576434003
222, 169871.52, 169832.22, 170022.97, 170032.59, -187500.02, 169939.91, -187500.02, -185993.80, 0.000, 0.000, 0.000, 15:27:14.003, 1578576434003
223, -171305.94, -176507.08, -178373.95, -178234.70, -178313.89, -178365.91, -178384.84, -178360.59, 0.000, 0.000, 0.000, 15:27:14.003, 1578576434003
224, 169882.61, 169843.28, 170034.14, 170043.70, -187500.02, 169950.97, -187500.02, -185991.52, 0.000, 0.000, 0.000, 15:27:14.003, 1578576434003
225, -171312.80, -176524.55, -178380.73, -178241.45, -178320.56, -178372.64, -178391.50, -178367.20, 0.000, 0.000, 0.000, 15:27:14.003, 1578576434003
226, 169890.13, 169850.75, 170041.58, 170051.19, -187500.02, 169958.44, -187500.02, -185993.75, 0.000, 0.000, 0.000, 15:27:14.003, 1578576434003
227, -171315.67, -176543.08, -178385.48, -178246.22, -178325.41, -178377.47, -178396.28, -178372.08, 0.000, 0.000, 0.000, 15:27:14.003, 1578576434003
228, 169898.02, 169858.59, 170049.47, 170059.11, -187500.02, 169966.33, -187500.02, -185996.73, 0.000, 0.000, 0.000, 15:27:14.003, 1578576434003
229, -171324.50, -176563.94, -178390.98, -178251.78, -178330.91, -178383.03, -178401.78, -178377.59, 0.000, 0.000, 0.000, 15:27:14.003, 1578576434003
230, 169907.78, 169868.30, 170059.16, 170068.73, -187500.02, 169976.00, -187500.02, -185996.38, 0.000, 0.000, 0.000, 15:27:14.003, 1578576434003
231, -171331.28, -176583.30, -178399.38, -178260.13, -178339.27, -178391.25, -178410.14, -178385.88, -0.008, 0.002, 0.970, 15:27:14.003, 1578576434003
232, 169918.53, 169879.20, 170069.92, 170079.63, -187500.02, 169986.89, -187500.02, -186002.58, 0.000, 0.000, 0.000, 15:27:14.003, 1578576434003
233, -171336.22, -176599.73, -178405.16, -178266.00, -178345.08, -178397.14, -178416.05, -178391.77, 0.000, 0.000, 0.000, 15:27:14.003, 1578576434003
234, 169925.78, 169886.53, 170077.28, 170086.94, -187500.02, 169994.08, -187500.02, -186000.45, 0.000, 0.000, 0.000, 15:27:14.004, 1578576434004
235, -171341.78, -176619.88, -178409.78, -178270.58, -178349.75, -178401.88, -178420.64, -178396.47, 0.000, 0.000, 0.000, 15:27:14.004, 1578576434004
236, 169936.86, 169897.50, 170088.30, 170097.94, -187500.02, 170005.17, -187500.02, -186002.31, 0.000, 0.000, 0.000, 15:27:14.004, 1578576434004
237, -171347.06, -176639.73, -178417.42, -178278.31, -178357.38, -178409.52, -178428.30, -178404.06, 0.000, 0.000, 0.000, 15:27:14.004, 1578576434004
238, 169944.38, 169905.02, 170095.81, 170105.47, -187500.02, 170012.69, -187500.02, -186006.25, 0.000, 0.000, 0.000, 15:27:14.004, 1578576434004
239, -171353.20, -176658.25, -178423.23, -178283.92, -178363.11, -178415.19, -178433.97, -178409.72, 0.000, 0.000, 0.000, 15:27:14.004, 1578576434004
240, 169954.97, 169915.56, 170106.41, 170116.03, -187500.02, 170023.25, -187500.02, -186006.86, 0.000, 0.000, 0.000, 15:27:14.477, 1578576434477
241, -171364.19, -176675.89, -178429.95, -178290.61, -178369.86, -178421.94, -178440.70, -178416.41, -0.016, 0.006, 0.974, 15:27:14.478, 1578576434478
242, 169963.84, 169924.39, 170115.19, 170124.86, -187500.02, 170032.11, -187500.02, -186009.09, 0.000, 0.000, 0.000, 15:27:14.478, 1578576434478
243, -171368.41, -176694.72, -178435.31, -178296.06, -178375.19, -178427.28, -178446.11, -178421.86, 0.000, 0.000, 0.000, 15:27:14.478, 1578576434478
244, 169970.64, 169931.33, 170122.16, 170131.84, -187500.02, 170038.98, -187500.02, -186010.56, 0.000, 0.000, 0.000, 15:27:14.478, 1578576434478
245, -171371.83, -176716.95, -178440.31, -178301.00, -178380.02, -178432.22, -178451.09, -178426.80, 0.000, 0.000, 0.000, 15:27:14.478, 1578576434478
246, 169977.44, 169938.20, 170128.95, 170138.52, -187500.02, 170045.73, -187500.02, -186012.48, 0.000, 0.000, 0.000, 15:27:14.478, 1578576434478
247, -171376.08, -176736.27, -178444.70, -178305.42, -178384.48, -178436.63, -178455.52, -178431.13, 0.000, 0.000, 0.000, 15:27:14.478, 1578576434478
248, 169985.48, 169946.03, 170136.88, 170146.48, -187500.02, 170053.72, -187500.02, -186014.34, 0.000, 0.000, 0.000, 15:27:14.478, 1578576434478
249, -171378.80, -176754.17, -178448.86, -178309.56, -178388.70, -178440.86, -178459.72, -178435.42, 0.000, 0.000, 0.000, 15:27:14.478, 1578576434478
250, 169986.48, 169947.06, 170137.88, 170147.55, -187500.02, 170054.81, -187500.02, -186019.06, 0.000, 0.000, 0.000, 15:27:14.478, 1578576434478
251, -171386.83, -176774.70, -178453.03, -178313.73, -178393.11, -178445.13, -178463.91, -178439.61, -0.020, 0.004, 0.980, 15:27:14.478, 1578576434478
252, 169996.98, 169957.52, 170148.38, 170158.11, -187500.02, 170065.44, -187500.02, -186022.03, 0.000, 0.000, 0.000, 15:27:14.478, 1578576434478
253, -171390.31, -176796.45, -178460.41, -178321.11, -178400.36, -178452.41, -178471.28, -178446.91, 0.000, 0.000, 0.000, 15:27:14.478, 1578576434478
254, 170005.50, 169966.09, 170156.92, 170166.63, -187500.02, 170073.91, -187500.02, -186021.81, 0.000, 0.000, 0.000, 15:27:14.478, 1578576434478
255, -171394.73, -176816.95, -178463.67, -178324.45, -178403.59, -178455.72, -178474.53, -178450.20, 0.000, 0.000, 0.000, 15:27:14.478, 1578576434478
0, 170011.83, 169972.50, 170163.31, 170172.94, -187500.02, 170080.16, -187500.02, -186023.55, 0.000, 0.000, 0.000, 15:27:14.479, 1578576434479
1, -171400.81, -176834.69, -178469.36, -178330.13, -178409.34, -178461.38, -178480.28, -178455.92, 0.000, 0.000, 0.000, 15:27:14.479, 1578576434479
2, 170021.95, 169982.59, 170173.44, 170183.05, -187500.02, 170090.27, -187500.02, -186026.86, 0.000, 0.000, 0.000, 15:27:14.479, 1578576434479
3, -171408.22, -176854.33, -178477.63, -178338.34, -178417.50, -178469.67, -178488.48, -178464.13, 0.000, 0.000, 0.000, 15:27:14.479, 1578576434479
4, 170029.53, 169990.20, 170181.02, 170190.67, -187500.02, 170097.84, -187500.02, -186031.94, -0.026, 0.004, 0.970, 15:27:14.479, 1578576434479
5, -171415.92, -176877.53, -178481.42, -178342.13, -178421.36, -178473.55, -178492.20, -178467.91, 0.000, 0.000, 0.000, 15:27:14.479, 1578576434479
6, 170036.05, 169996.77, 170187.56, 170197.20, -187500.02, 170104.53, -187500.02, -186033.25, 0.000, 0.000, 0.000, 15:27:14.479, 1578576434479
7, -171418.94, -176897.52, -178487.97, -178348.77, -178427.89, -178480.08, -178498.83, -178474.45, 0.000, 0.000, 0.000, 15:27:14.479, 1578576434479
8, 170049.19, 170009.98, 170200.70, 170210.39, -187500.02, 170117.67, -187500.02, -186031.53, 0.000, 0.000, 0.000, 15:27:14.479, 1578576434479
9, -171423.44, -176916.48, -178494.08, -178354.80, -178433.91, -178486.08, -178504.91, -178480.63, 0.000, 0.000, 0.000, 15:27:14.479, 1578576434479
10, 170057.72, 170018.34, 170209.06, 170218.78, -187500.02, 170126.08, -187500.02, -186032.13, 0.000, 0.000, 0.000, 15:27:14.479, 1578576434479
11, -171429.11, -176937.19, -178499.81, -178360.45, -178439.53, -178491.75, -178510.64, -178486.27, 0.000, 0.000, 0.000, 15:27:14.479, 1578576434479
12, 170068.78, 170029.27, 170220.08, 170229.81, -187500.02, 170137.09, -187500.02, -186031.94, 0.000, 0.000, 0.000, 15:27:14.479, 1578576434479
13, -171437.41, -176958.63, -178507.34, -178367.98, -178447.14, -178499.33, -178518.13, -178493.81, 0.000, 0.000, 0.000, 15:27:14.479, 1578576434479
14, 170079.09, 170039.69, 170230.55, 170240.27, -187500.02, 170147.50, -187500.02, -186035.33, -0.022, 0.002, 0.972, 15:27:14.479, 1578576434479
15, -171444.47, -176980.69, -178513.47, -178374.05, -178453.38, -178505.41, -178524.25, -178499.89, 0.000, 0.000, 0.000, 15:27:14.479, 1578576434479
16, 170085.08, 170045.72, 170236.56, 170246.22, -187500.02, 170153.50, -187500.02, -186037.20, 0.000, 0.000, 0.000, 15:27:14.479, 1578576434479
17, -171448.00, -177000.33, -178517.67, -178378.22, -178457.38, -178509.61, -178528.34, -178504.05, 0.000, 0.000, 0.000, 15:27:14.479, 1578576434479
18, 170093.06, 170053.67, 170244.52, 170254.17, -187500.02, 170161.48, -187500.02, -186039.58, 0.000, 0.000, 0.000, 15:27:14.479, 1578576434479
19, -171453.91, -177022.45, -178523.42, -178384.11, -178463.23, -178515.39, -178534.17, -178509.91, 0.000, 0.000, 0.000, 15:27:14.480, 1578576434480
20, 170101.55, 170062.23, 170252.98, 170262.78, -187500.02, 170169.97, -187500.02, -186044.27, 0.000, 0.000, 0.000, 15:27:14.480, 1578576434480
21, -171463.06, -177044.70, -178529.97, -178390.58, -178469.78, -178522.03, -178540.72, -178516.50, 0.000, 0.000, 0.000, 15:27:14.480, 1578576434480
22, 170111.59, 170072.14, 170263.09, 170272.72, -187500.02, 170179.94, -187500.02, -186043.27, 0.000, 0.000, 0.000, 15:27:14.480, 1578576434480
23, -171468.09, -177067.56, -178535.89, -178396.42, -178475.61, -178527.83, -178546.58, -178522.28, 0.000, 0.000, 0.000, 15:27:14.480, 1578576434480
24, 170118.03, 170078.64, 170269.59, 170279.16, -187500.02, 170186.44, -187500.02, -186047.94, -0.024, 0.000, 0.968, 15:27:14.480, 1578576434480
25, -171473.34, -177088.47, -178540.36, -178400.83, -178480.03, -178532.25, -178551.00, -178526.66, 0.000, 0.000, 0.000, 15:27:14.480, 1578576434480
26, 170125.58, 170086.22, 170277.06, 170286.72, -187500.02, 170193.98, -187500.02, -186044.63, 0.000, 0.000, 0.000, 15:27:14.480, 1578576434480
27, -171475.78, -177109.30, -178544.14, -178404.67, -178483.86, -178536.05, -178554.73, -178530.44, 0.000, 0.000, 0.000, 15:27:14.480, 1578576434480
28, 170133.88, 170094.56, 170285.44, 170295.14, -187500.02, 170202.31, -187500.02, -186045.14, 0.000, 0.000, 0.000, 15:27:14.480, 1578576434480
29, -171482.88, -177133.70, -178550.25, -178410.88, -178490.03, -178542.20, -178560.91, -178536.66, 0.000, 0.000, 0.000, 15:27:14.480, 1578576434480
30, 170145.08, 170105.69, 170296.70, 170306.34, -187500.02, 170213.48, -187500.02, -186046.34, 0.000, 0.000, 0.000, 15:27:14.480, 1578576434480
31, -171491.94, -177153.81, -178556.70, -178417.23, -178496.36, -178548.56, -178567.25, -178543.03, 0.000, 0.000, 0.000, 15:27:14.480, 1578576434480
32, 170150.91, 170111.55, 170302.52, 170312.17, -187500.02, 170219.44, -187500.02, -186051.41, 0.000, 0.000, 0.000, 15:27:14.480, 1578576434480
33, -171494.06, -177174.45, -178561.89, -178422.33, -178501.56, -178553.66, -178572.47, -178548.17, 0.000, 0.000, 0.000, 15:27:14.480, 1578576434480
34, 170155.88, 170116.58, 170307.45, 170317.19, -187500.02, 170224.28, -187500.02, -186059.06, -0.018, -0.002, 0.972, 15:27:14.480, 1578576434480
35, -171499.86, -177196.64, -178567.45, -178428.00, -178507.13, -178559.31, -178578.00, -178553.73, 0.000, 0.000, 0.000, 15:27:14.481, 1578576434481
36, 170162.22, 170122.89, 170313.77, 170323.50, -187500.02, 170230.56, -187500.02, -186060.97, 0.000, 0.000, 0.000, 15:27:14.481, 1578576434481
37, -171504.77, -177219.38, -178571.97, -178432.52, -178511.70, -178563.86, -178582.61, -178558.27, 0.000, 0.000, 0.000, 15:27:14.481, 1578576434481
38, 170173.13, 170133.83, 170324.69, 170334.41, -187500.02, 170241.55, -187500.02, -186058.94, 0.000, 0.000, 0.000, 15:27:14.481, 1578576434481
39, -171509.48, -177242.23, -178578.34, -178439.00, -178517.98, -178570.34, -178588.95, -178564.66, 0.000, 0.000, 0.000, 15:27:14.481, 1578576434481
40, 170182.17, 170142.75, 170333.63, 170343.36, -187500.02, 170250.50, -187500.02, -186059.94, 0.000, 0.000, 0.000, 15:27:14.481, 1578576434481
41, -171514.31, -177262.16, -178581.94, -178442.58, -178521.56, -178573.89, -178592.59, -178568.22, 0.000, 0.000, 0.000, 15:27:14.481, 1578576434481
42, 170187.89, 170148.53, 170339.48, 170349.17, -187500.02, 170256.42, -187500.02, -186059.80, 0.000, 0.000, 0.000, 15:27:14.481, 1578576434481
43, -171520.11, -177285.58, -178587.22, -178447.63, -178526.75, -178579.13, -178597.88, -178573.47, -0.012, -0.002, 0.972, 15:27:14.481, 1578576434481
44, 170196.53, 170157.14, 170348.06, 170357.81, -187500.02, 170265.02, -187500.02, -186062.22, 0.000, 0.000, 0.000, 15:27:14.481, 1578576434481
45, -171526.66, -177309.98, -178593.31, -178453.80, -178532.94, -178585.20, -178604.00, -178579.56, 0.000, 0.000, 0.000, 15:27:14.481, 1578576434481
46, 170208.28, 170168.88, 170359.77, 170369.58, -187500.02, 170276.77, -187500.02, -186061.38, 0.000, 0.000, 0.000, 15:27:14.481, 1578576434481
47, -171531.81, -177332.86, -178599.17, -178459.67, -178538.70, -178591.02, -178609.88, -178585.61, 0.000, 0.000, 0.000, 15:27:14.481, 1578576434481
48, 170216.31, 170176.83, 170367.83, 170377.50, -187500.02, 170284.70, -187500.02, -186063.95, 0.000, 0.000, 0.000, 15:27:14.481, 1578576434481
49, -171540.20, -177354.02, -178605.25, -178465.75, -178544.95, -178597.14, -178615.98, -178591.59, 0.000, 0.000, 0.000, 15:27:14.481, 1578576434481
50, 170221.94, 170182.53, 170373.44, 170383.13, -187500.02, 170290.38, -187500.02, -186066.02, 0.000, 0.000, 0.000, 15:27:14.481, 1578576434481
51, -171541.67, -177376.64, -178608.17, -178468.69, -178547.66, -178599.97, -178618.84, -178594.41, 0.000, 0.000, 0.000, 15:27:14.481, 1578576434481
52, 170229.03, 170189.55, 170380.55, 170390.31, -187500.02, 170297.47, -187500.02, -186067.67, 0.000, 0.000, 0.000, 15:27:14.482, 1578576434482
53, -171550.19, -177401.88, -178614.42, -178474.94, -178553.94, -178606.33, -178625.05, -178600.69, -0.012, 0.000, 0.976, 15:27:14.482, 1578576434482
54, 170236.58, 170197.20, 170388.11, 170397.89, -187500.02, 170304.97, -187500.02, -186069.27, 0.000, 0.000, 0.000, 15:27:14.482, 1578576434482
55, -171553.05, -177425.70, -178619.56, -178480.03, -178559.16, -178611.47, -178630.13, -178605.83, 0.000, 0.000, 0.000, 15:27:14.482, 1578576434482
56, 170245.31, 170205.94, 170396.89, 170406.67, -187500.02, 170313.83, -187500.02, -186075.03, 0.000, 0.000, 0.000, 15:27:14.482, 1578576434482
57, -171557.92, -177446.61, -178625.84, -178486.27, -178565.27, -178617.67, -178636.45, -178612.11, 0.000, 0.000, 0.000, 15:27:14.482, 1578576434482
58, 170251.67, 170212.27, 170403.25, 170412.98, -187500.02, 170320.13, -187500.02, -186076.88, 0.000, 0.000, 0.000, 15:27:14.482, 1578576434482
59, -171562.39, -177472.00, -178631.88, -178492.36, -178571.39, -178623.69, -178642.44, -178618.27, 0.000, 0.000, 0.000, 15:27:14.482, 1578576434482
60, 170260.23, 170220.83, 170411.80, 170421.41, -187500.02, 170328.53, -187500.02, -186081.08, 0.000, 0.000, 0.000, 15:27:14.482, 1578576434482
61, -171566.91, -177497.92, -178636.47, -178496.89, -178575.97, -178628.30, -178647.16, -178622.89, 0.000, 0.000, 0.000, 15:27:14.482, 1578576434482
62, 170266.42, 170227.06, 170417.97, 170427.67, -187500.02, 170334.72, -187500.02, -186083.97, 0.000, 0.000, 0.000, 15:27:14.482, 1578576434482
63, -171574.95, -177522.48, -178642.27, -178502.81, -178581.83, -178634.23, -178653.00, -178628.63, -0.026, -0.002, 0.964, 15:27:14.482, 1578576434482
64, 170278.38, 170239.02, 170430.03, 170439.59, -187500.02, 170346.80, -187500.02, -186080.05, 0.000, 0.000, 0.000, 15:27:14.482, 1578576434482
65, -171579.11, -177544.91, -178647.94, -178508.45, -178587.45, -178639.81, -178658.58, -178634.27, 0.000, 0.000, 0.000, 15:27:14.482, 1578576434482
66, 170285.89, 170246.42, 170437.50, 170447.20, -187500.02, 170354.31, -187500.02, -186083.25, 0.000, 0.000, 0.000, 15:27:14.482, 1578576434482
67, -171584.34, -177568.38, -178652.53, -178513.09, -178592.05, -178644.41, -178663.14, -178638.94, 0.000, 0.000, 0.000, 15:27:14.483, 1578576434483
68, 170291.83, 170252.36, 170443.42, 170453.02, -187500.02, 170360.20, -187500.02, -186088.13, 0.000, 0.000, 0.000, 15:27:14.483, 1578576434483
69, -171592.06, -177594.27, -178658.05, -178518.59, -178597.66, -178650.02, -178668.64, -178644.33, 0.000, 0.000, 0.000, 15:27:14.483, 1578576434483
70, 170298.72, 170259.28, 170450.27, 170459.94, -187500.02, 170367.11, -187500.02, -186089.55, 0.000, 0.000, 0.000, 15:27:14.483, 1578576434483
71, -171592.91, -177617.58, -178661.72, -178522.30, -178601.34, -178653.58, -178672.33, -178647.98, 0.000, 0.000, 0.000, 15:27:14.483, 1578576434483
72, 170305.44, 170266.02, 170457.08, 170466.69, -187500.02, 170373.80, -187500.02, -186088.66, 0.000, 0.000, 0.000, 15:27:14.483, 1578576434483
73, -171596.50, -177639.72, -178667.59, -178528.05, -178607.11, -178659.36, -178678.19, -178653.83, -0.020, 0.002, 0.972, 15:27:14.483, 1578576434483
74, 170317.83, 170278.33, 170469.38, 170479.00, -187500.02, 170386.22, -187500.02, -186091.47, 0.000, 0.000, 0.000, 15:27:14.483, 1578576434483
75, -171607.80, -177662.80, -178675.08, -178535.53, -178614.64, -178667.02, -178685.67, -178661.36, 0.000, 0.000, 0.000, 15:27:14.483, 1578576434483
76, 170326.25, 170286.88, 170477.94, 170487.59, -187500.02, 170394.77, -187500.02, -186093.58, 0.000, 0.000, 0.000, 15:27:14.484, 1578576434484
77, -171615.39, -177686.73, -178681.05, -178541.45, -178620.61, -178672.86, -178691.66, -178667.23, 0.000, 0.000, 0.000, 15:27:14.484, 1578576434484
78, 170332.80, 170293.39, 170484.50, 170494.20, -187500.02, 170401.31, -187500.02, -186097.95, 0.000, 0.000, 0.000, 15:27:14.484, 1578576434484
79, -171619.33, -177711.06, -178684.88, -178545.27, -178624.47, -178676.70, -178695.50, -178671.08, 0.000, 0.000, 0.000, 15:27:14.484, 1578576434484
80, 170337.98, 170298.56, 170489.63, 170499.38, -187500.02, 170406.59, -187500.02, -186100.34, 0.000, 0.000, 0.000, 15:27:14.484, 1578576434484
81, -171620.88, -177732.03, -178689.25, -178549.84, -178628.92, -178681.19, -178699.89, -178675.55, 0.000, 0.000, 0.000, 15:27:14.484, 1578576434484
82, 170345.20, 170305.83, 170496.94, 170506.59, -187500.02, 170413.78, -187500.02, -186100.17, -0.018, 0.004, 0.966, 15:27:14.484, 1578576434484
83, -171630.41, -177756.48, -178694.72, -178555.20, -178634.44, -178686.66, -178705.31, -178680.86, 0.000, 0.000, 0.000, 15:27:14.484, 1578576434484
84, 170353.88, 170314.45, 170505.61, 170515.19, -187500.02, 170422.41, -187500.02, -186104.94, 0.000, 0.000, 0.000, 15:27:14.484, 1578576434484
85, -171634.88, -177782.91, -178701.77, -178562.20, -178641.39, -178693.66, -178712.31, -178687.95, 0.000, 0.000, 0.000, 15:27:14.484, 1578576434484
86, 170362.95, 170323.48, 170514.69, 170524.22, -187500.02, 170431.42, -187500.02, -186107.13, 0.000, 0.000, 0.000, 15:27:14.484, 1578576434484
87, -171638.44, -177806.59, -178705.97, -178566.38, -178645.47, -178697.83, -178716.52, -178692.13, 0.000, 0.000, 0.000, 15:27:14.484, 1578576434484
88, 170372.33, 170332.92, 170524.00, 170533.72, -187500.02, 170440.77, -187500.02, -186107.56, 0.000, 0.000, 0.000, 15:27:14.485, 1578576434485
89, -171645.03, -177829.09, -178714.03, -178574.52, -178653.55, -178705.95, -178724.66, -178700.33, 0.000, 0.000, 0.000, 15:27:14.485, 1578576434485
90, 170381.39, 170342.02, 170533.14, 170542.75, -187500.02, 170449.97, -187500.02, -186109.80, 0.000, 0.000, 0.000, 15:27:14.485, 1578576434485
91, -171647.75, -177853.09, -178717.77, -178578.31, -178657.20, -178709.64, -178728.41, -178704.05, 0.000, 0.000, 0.000, 15:27:14.485, 1578576434485
92, 170387.91, 170348.55, 170539.64, 170549.39, -187500.02, 170456.41, -187500.02, -186110.94, -0.026, 0.006, 0.978, 15:27:14.485, 1578576434485
93, -171659.16, -177878.97, -178723.45, -178583.97, -178663.03, -178715.36, -178734.09, -178709.67, 0.000, 0.000, 0.000, 15:27:14.485, 1578576434485
94, 170397.28, 170357.84, 170548.92, 170558.59, -187500.02, 170465.75, -187500.02, -186112.11, 0.000, 0.000, 0.000, 15:27:14.485, 1578576434485
95, -171663.89, -177902.78, -178730.17, -178590.61, -178669.63, -178722.06, -178740.75, -178716.41, 0.000, 0.000, 0.000, 15:27:14.485, 1578576434485
96, 170411.22, 170371.67, 170562.88, 170572.48, -187500.02, 170479.67, -187500.02, -186111.13, 0.000, 0.000, 0.000, 15:27:14.485, 1578576434485
97, -171670.73, -177923.64, -178736.61, -178597.09, -178676.11, -178728.41, -178747.16, -178722.80, 0.000, 0.000, 0.000, 15:27:14.485, 1578576434485
98, 170418.50, 170379.09, 170570.27, 170579.88, -187500.02, 170486.92, -187500.02, -186111.23, 0.000, 0.000, 0.000, 15:27:14.485, 1578576434485
99, -171674.00, -177947.86, -178740.53, -178600.94, -178680.05, -178732.30, -178751.08, -178726.70, 0.000, 0.000, 0.000, 15:27:14.485, 1578576434485
100, 170425.31, 170385.84, 170577.08, 170586.70, -187500.02, 170493.78, -187500.02, -186113.97, 0.000, 0.000, 0.000, 15:27:14.485, 1578576434485
101, -171681.59, -177973.88, -178748.13, -178608.53, -178687.58, -178739.94, -178758.58, -178734.25, 0.000, 0.000, 0.000, 15:27:14.485, 1578576434485
102, 170437.55, 170397.98, 170589.22, 170598.92, -187500.02, 170505.97, -187500.02, -186116.33, -0.026, 0.004, 0.980, 15:27:14.485, 1578576434485
103, -171689.20, -177997.55, -178753.13, -178613.56, -178692.69, -178745.00, -178763.56, -178739.27, 0.000, 0.000, 0.000, 15:27:14.485, 1578576434485
104, 170439.59, 170400.17, 170591.25, 170600.98, -187500.02, 170507.95, -187500.02, -186118.77, 0.000, 0.000, 0.000, 15:27:14.961, 1578576434961
105, -171690.52, -178019.92, -178755.03, -178615.44, -178694.45, -178746.83, -178765.41, -178741.06, 0.000, 0.000, 0.000, 15:27:14.962, 1578576434962
106, 170443.98, 170404.55, 170595.69, 170605.34, -187500.02, 170512.42, -187500.02, -186123.58, 0.000, 0.000, 0.000, 15:27:14.962, 1578576434962
107, -171694.72, -178043.00, -178760.44, -178620.86, -178699.84, -178752.11, -178770.78, -178746.45, 0.000, 0.000, 0.000, 15:27:14.962, 1578576434962
108, 170449.77, 170410.25, 170601.53, 170611.16, -187500.02, 170518.30, -187500.02, -186129.83, 0.000, 0.000, 0.000, 15:27:14.962, 1578576434962
109, -171702.36, -178068.86, -178766.75, -178627.16, -178706.30, -178758.55, -178777.27, -178752.81, 0.000, 0.000, 0.000, 15:27:14.962, 1578576434962
110, 170461.39, 170421.92, 170613.09, 170622.77, -187500.02, 170529.88, -187500.02, -186128.61, 0.000, 0.000, 0.000, 15:27:14.962, 1578576434962
111, -171711.64, -178091.19, -178772.22, -178632.66, -178711.91, -178764.16, -178782.75, -178758.36, 0.000, 0.000, 0.000, 15:27:14.962, 1578576434962
112, 170467.61, 170428.17, 170619.39, 170629.03, -187500.02, 170536.14, -187500.02, -186133.16, -0.028, 0.004, 0.976, 15:27:14.962, 1578576434962
113, -171713.36, -178113.31, -178777.45, -178638.00, -178716.97, -178769.41, -178788.00, -178763.59, 0.000, 0.000, 0.000, 15:27:14.962, 1578576434962
114, 170475.47, 170436.06, 170627.22, 170636.86, -187500.02, 170544.09, -187500.02, -186135.42, 0.000, 0.000, 0.000, 15:27:14.962, 1578576434962
115, -171716.78, -178137.11, -178784.77, -178645.19, -178724.20, -178776.52, -178795.27, -178770.86, 0.000, 0.000, 0.000, 15:27:14.962, 1578576434962
116, 170489.88, 170450.39, 170641.59, 170651.27, -187500.02, 170558.48, -187500.02, -186137.00, 0.000, 0.000, 0.000, 15:27:14.962, 1578576434962
117, -171728.58, -178161.02, -178791.70, -178652.08, -178731.27, -178783.53, -178802.13, -178777.81, 0.000, 0.000, 0.000, 15:27:14.962, 1578576434962
118, 170495.25, 170455.78, 170646.98, 170656.69, -187500.02, 170563.83, -187500.02, -186137.34, 0.000, 0.000, 0.000, 15:27:14.962, 1578576434962
119, -171732.48, -178184.66, -178794.69, -178655.13, -178734.20, -178786.55, -178805.05, -178780.75, 0.000, 0.000, 0.000, 15:27:14.963, 1578576434963
120, 170499.66, 170460.23, 170651.39, 170661.03, -187500.02, 170568.19, -187500.02, -186141.30, 0.000, 0.000, 0.000, 15:27:14.963, 1578576434963
121, -171734.89, -178206.55, -178800.31, -178660.70, -178739.83, -178792.17, -178810.69, -178786.33, 0.000, 0.000, 0.000, 15:27:14.963, 1578576434963
122, 170509.30, 170469.86, 170661.16, 170670.77, -187500.02, 170577.98, -187500.02, -186144.69, -0.040, 0.006, 0.970, 15:27:14.963, 1578576434963
123, -171738.73, -178229.16, -178806.02, -178666.45, -178745.48, -178797.77, -178816.45, -178792.11, 0.000, 0.000, 0.000, 15:27:14.963, 1578576434963
124, 170516.64, 170477.27, 170668.42, 170678.14, -187500.02, 170585.31, -187500.02, -186145.91, 0.000, 0.000, 0.000, 15:27:14.963, 1578576434963
125, -171743.00, -178252.56, -178811.11, -178671.66, -178750.61, -178803.00, -178821.64, -178797.28, 0.000, 0.000, 0.000, 15:27:14.963, 1578576434963
126, 170523.58, 170484.11, 170675.33, 170684.94, -187500.02, 170592.16, -187500.02, -186150.44, 0.000, 0.000, 0.000, 15:27:14.963, 1578576434963
127, -171748.78, -178274.72, -178816.78, -178677.36, -178756.33, -178808.66, -178827.36, -178802.94, 0.000, 0.000, 0.000, 15:27:14.963, 1578576434963
128, 170532.81, 170493.38, 170684.67, 170694.23, -187500.02, 170601.47, -187500.02, -186150.33, 0.000, 0.000, 0.000, 15:27:14.963, 1578576434963
129, -171755.14, -178296.03, -178821.95, -178682.44, -178761.31, -178813.77, -178832.41, -178808.03, 0.000, 0.000, 0.000, 15:27:14.963, 1578576434963
130, 170542.34, 170502.92, 170694.25, 170703.80, -187500.02, 170610.97, -187500.02, -186149.14, 0.000, 0.000, 0.000, 15:27:14.963, 1578576434963
131, -171765.42, -178318.67, -178826.64, -178687.14, -178766.14, -178818.58, -178837.06, -178812.70, -0.034, 0.008, 0.972, 15:27:14.963, 1578576434963
132, 170551.67, 170512.22, 170703.63, 170713.19, -187500.02, 170620.31, -187500.02, -186148.78, 0.000, 0.000, 0.000, 15:27:14.963, 1578576434963
133, -171771.55, -178342.70, -178833.64, -178694.19, -178773.17, -178825.53, -178844.14, -178819.77, 0.000, 0.000, 0.000, 15:27:14.963, 1578576434963
134, 170561.95, 170522.64, 170713.95, 170723.53, -187500.02, 170630.59, -187500.02, -186149.28, 0.000, 0.000, 0.000, 15:27:14.963, 1578576434963
135, -171775.19, -178366.42, -178838.67, -178699.08, -178778.03, -178830.38, -178849.00, -178824.72, 0.000, 0.000, 0.000, 15:27:14.963, 1578576434963
136, 170569.17, 170529.75, 170721.14, 170730.73, -187500.02, 170637.81, -187500.02, -186152.50, 0.000, 0.000, 0.000, 15:27:14.963, 1578576434963
137, -171777.11, -178386.50, -178844.11, -178704.61, -178783.47, -178835.77, -178854.56, -178830.06, 0.000, 0.000, 0.000, 15:27:14.963, 1578576434963
138, 170576.45, 170537.08, 170728.41, 170738.05, -187500.02, 170645.17, -187500.02, -186154.91, 0.000, 0.000, 0.000, 15:27:14.964, 1578576434964
139, -171785.91, -178408.72, -178849.80, -178710.45, -178789.30, -178841.64, -178860.39, -178835.83, 0.000, 0.000, 0.000, 15:27:14.964, 1578576434964
140, 170587.53, 170548.05, 170739.45, 170749.03, -187500.02, 170656.19, -187500.02, -186157.45, 0.000, 0.000, 0.000, 15:27:14.964, 1578576434964
141, -171796.00, -178430.50, -178856.70, -178717.14, -178796.16, -178848.50, -178867.14, -178842.66, -0.028, 0.008, 0.976, 15:27:14.964, 1578576434964
142, 170592.27, 170552.95, 170744.30, 170753.84, -187500.02, 170661.00, -187500.02, -186161.06, 0.000, 0.000, 0.000, 15:27:14.964, 1578576434964
143, -171800.64, -178451.81, -178858.73, -178719.17, -178798.14, -178850.52, -178869.14, -178844.69, 0.000, 0.000, 0.000, 15:27:14.964, 1578576434964
144, 170595.70, 170556.44, 170747.72, 170757.39, -187500.02, 170664.45, -187500.02, -186163.36, 0.000, 0.000, 0.000, 15:27:14.964, 1578576434964
145, -171802.31, -178472.64, -178864.39, -178724.86, -178803.80, -178856.17, -178874.81, -178850.27, 0.000, 0.000, 0.000, 15:27:14.964, 1578576434964
146, 170605.50, 170566.11, 170757.44, 170767.09, -187500.02, 170674.22, -187500.02, -186165.69, 0.000, 0.000, 0.000, 15:27:14.964, 1578576434964
147, -171807.23, -178493.69, -178870.33, -178730.75, -178809.69, -178862.05, -178880.64, -178856.17, 0.000, 0.000, 0.000, 15:27:14.964, 1578576434964
148, 170615.47, 170576.03, 170767.44, 170777.06, -187500.02, 170684.11, -187500.02, -186168.13, 0.000, 0.000, 0.000, 15:27:14.964, 1578576434964
149, -171814.67, -178516.83, -178876.22, -178736.59, -178815.64, -178868.00, -178886.59, -178862.08, 0.000, 0.000, 0.000, 15:27:14.964, 1578576434964
150, 170620.73, 170581.28, 170772.66, 170782.34, -187500.02, 170689.45, -187500.02, -186171.19, 0.000, 0.000, 0.000, 15:27:14.964, 1578576434964
151, -171824.92, -178538.22, -178881.72, -178742.16, -178821.22, -178873.61, -178892.06, -178867.58, -0.032, 0.008, 0.974, 15:27:14.964, 1578576434964
152, 170632.09, 170592.70, 170784.13, 170793.81, -187500.02, 170700.80, -187500.02, -186173.27, 0.000, 0.000, 0.000, 15:27:14.964, 1578576434964
153, -171827.58, -178558.72, -178888.20, -178748.66, -178827.66, -178880.09, -178898.50, -178874.14, 0.000, 0.000, 0.000, 15:27:14.964, 1578576434964
154, 170640.52, 170601.09, 170792.48, 170802.14, -187500.02, 170709.20, -187500.02, -186175.94, 0.000, 0.000, 0.000, 15:27:14.964, 1578576434964
155, -171831.78, -178580.44, -178893.66, -178754.16, -178833.16, -178885.55, -178904.00, -178879.58, 0.000, 0.000, 0.000, 15:27:14.964, 1578576434964
156, 170646.23, 170606.80, 170798.14, 170807.89, -187500.02, 170714.89, -187500.02, -186178.30, 0.000, 0.000, 0.000, 15:27:14.964, 1578576434964
157, -171838.39, -178602.61, -178898.48, -178758.89, -178837.98, -178890.50, -178908.77, -178884.31, 0.000, 0.000, 0.000, 15:27:14.965, 1578576434965
158, 170656.88, 170617.45, 170808.81, 170818.55, -187500.02, 170725.56, -187500.02, -186178.61, 0.000, 0.000, 0.000, 15:27:14.965, 1578576434965
159, -171842.73, -178623.78, -178904.16, -178764.63, -178843.63, -178896.20, -178914.38, -178889.98, 0.000, 0.000, 0.000, 15:27:14.965, 1578576434965
160, 170662.22, 170622.80, 170814.17, 170823.83, -187500.02, 170730.83, -187500.02, -186180.66, 0.000, 0.000, 0.000, 15:27:14.965, 1578576434965
161, -171844.72, -178643.47, -178908.34, -178768.67, -178847.86, -178900.31, -178918.59, -178894.19, -0.038, 0.006, 0.978, 15:27:14.965, 1578576434965
162, 170674.36, 170634.89, 170826.33, 170835.92, -187500.02, 170742.95, -187500.02, -186178.73, 0.000, 0.000, 0.000, 15:27:14.965, 1578576434965
163, -171848.52, -178662.97, -178914.89, -178775.11, -178854.30, -178906.70, -178925.06, -178900.55, 0.000, 0.000, 0.000, 15:27:14.965, 1578576434965
164, 170680.94, 170641.33, 170832.86, 170842.52, -187500.02, 170749.55, -187500.02, -186180.92, 0.000, 0.000, 0.000, 15:27:14.965, 1578576434965
165, -171860.44, -178683.91, -178919.73, -178780.05, -178859.41, -178911.81, -178929.94, -178905.53, 0.000, 0.000, 0.000, 15:27:14.965, 1578576434965
166, 170689.67, 170650.22, 170841.70, 170851.36, -187500.02, 170758.38, -187500.02, -186184.30, 0.000, 0.000, 0.000, 15:27:14.965, 1578576434965
167, -171867.34, -178699.58, -178926.88, -178787.00, -178866.34, -178918.88, -178937.02, -178912.56, 0.000, 0.000, 0.000, 15:27:14.965, 1578576434965
168, 170698.86, 170659.47, 170850.94, 170860.59, -187500.02, 170767.50, -187500.02, -186187.95, 0.000, 0.000, 0.000, 15:27:14.965, 1578576434965
169, -171869.55, -178709.61, -178930.73, -178791.06, -178870.33, -178922.84, -178940.97, -178916.50, 0.000, 0.000, 0.000, 15:27:14.965, 1578576434965
170, 170701.36, 170662.02, 170853.39, 170863.08, -187500.02, 170769.95, -187500.02, -186191.86, -0.038, 0.008, 0.974, 15:27:14.965, 1578576434965
171, -171874.53, -178718.02, -178935.05, -178795.44, -178874.70, -178927.19, -178945.28, -178920.88, 0.000, 0.000, 0.000, 15:27:14.965, 1578576434965
172, 170710.55, 170671.03, 170862.50, 170872.17, -187500.02, 170779.23, -187500.02, -186196.08, 0.000, 0.000, 0.000, 15:27:14.965, 1578576434965
173, -171881.17, -178728.08, -178942.83, -178803.16, -178882.48, -178934.89, -178953.16, -178928.61, 0.000, 0.000, 0.000, 15:27:14.965, 1578576434965
174, 170718.55, 170679.03, 170870.50, 170880.22, -187500.02, 170787.17, -187500.02, -186200.03, 0.000, 0.000, 0.000, 15:27:14.965, 1578576434965
175, -171885.72, -178734.80, -178947.52, -178808.03, -178887.16, -178939.66, -178957.84, -178933.42, 0.000, 0.000, 0.000, 15:27:14.965, 1578576434965
176, 170728.31, 170688.91, 170880.38, 170889.92, -187500.02, 170796.94, -187500.02, -186199.66, 0.000, 0.000, 0.000, 15:27:14.966, 1578576434966
177, -171888.81, -178740.77, -178952.08, -178812.55, -178891.69, -178944.19, -178962.39, -178937.94, 0.000, 0.000, 0.000, 15:27:14.966, 1578576434966
178, 170735.92, 170696.48, 170888.00, 170897.55, -187500.02, 170804.63, -187500.02, -186202.86, 0.000, 0.000, 0.000, 15:27:14.966, 1578576434966
179, -171899.33, -178750.30, -178959.66, -178820.05, -178899.38, -178951.86, -178969.98, -178945.48, 0.000, 0.000, 0.000, 15:27:14.966, 1578576434966
180, 170744.81, 170705.39, 170896.78, 170906.47, -187500.02, 170813.50, -187500.02, -186205.58, -0.040, 0.006, 0.968, 15:27:14.966, 1578576434966
181, -171908.09, -178756.42, -178963.69, -178824.14, -178903.47, -178955.84, -178974.02, -178949.52, 0.000, 0.000, 0.000, 15:27:14.966, 1578576434966
182, 170750.92, 170711.33, 170902.80, 170912.52, -187500.02, 170819.45, -187500.02, -186206.39, 0.000, 0.000, 0.000, 15:27:14.966, 1578576434966
183, -171912.47, -178762.25, -178968.36, -178828.66, -178908.05, -178960.53, -178978.55, -178954.09, 0.000, 0.000, 0.000, 15:27:14.966, 1578576434966
184, 170760.92, 170721.48, 170912.89, 170922.64, -187500.02, 170829.64, -187500.02, -186207.08, 0.000, 0.000, 0.000, 15:27:14.966, 1578576434966
185, -171915.00, -178768.23, -178974.25, -178834.61, -178913.92, -178966.34, -178984.45, -178959.97, 0.000, 0.000, 0.000, 15:27:14.966, 1578576434966
186, 170769.89, 170730.28, 170921.91, 170931.52, -187500.02, 170838.58, -187500.02, -186208.63, 0.000, 0.000, 0.000, 15:27:14.966, 1578576434966
187, -171921.30, -178775.73, -178981.08, -178841.42, -178920.64, -178973.11, -178991.20, -178966.77, 0.000, 0.000, 0.000, 15:27:14.966, 1578576434966
188, 170781.11, 170741.53, 170933.08, 170942.77, -187500.02, 170849.70, -187500.02, -186211.03, 0.000, 0.000, 0.000, 15:27:14.966, 1578576434966
189, -171927.38, -178782.56, -178986.97, -178847.44, -178926.61, -178978.95, -178997.14, -178972.73, 0.000, 0.000, 0.000, 15:27:14.966, 1578576434966
190, 170789.45, 170749.94, 170941.44, 170951.08, -187500.02, 170858.09, -187500.02, -186211.77, -0.038, 0.008, 0.966, 15:27:14.966, 1578576434966
191, -171931.94, -178788.48, -178992.45, -178852.89, -178932.06, -178984.45, -179002.63, -178978.23, 0.000, 0.000, 0.000, 15:27:14.966, 1578576434966
192, 170795.22, 170755.70, 170947.19, 170956.84, -187500.02, 170863.80, -187500.02, -186215.17, 0.000, 0.000, 0.000, 15:27:14.966, 1578576434966
193, -171934.38, -178792.61, -178996.25, -178856.66, -178935.75, -178988.22, -179006.38, -178981.98, 0.000, 0.000, 0.000, 15:27:14.966, 1578576434966
194, 170800.56, 170761.02, 170952.58, 170962.09, -187500.02, 170869.16, -187500.02, -186219.55, 0.000, 0.000, 0.000, 15:27:14.967, 1578576434967
195, -171942.44, -178800.20, -179002.80, -178863.17, -178942.42, -178994.86, -179013.02, -178988.53, 0.000, 0.000, 0.000, 15:27:14.967, 1578576434967
196, 170815.09, 170775.45, 170967.02, 170976.69, -187500.02, 170883.69, -187500.02, -186220.31, 0.000, 0.000, 0.000, 15:27:14.968, 1578576434968
197, -171953.63, -178809.09, -179010.59, -178870.91, -178950.19, -179002.69, -179020.64, -178996.23, 0.000, 0.000, 0.000, 15:27:14.968, 1578576434968
198, 170823.38, 170783.81, 170975.39, 170985.05, -187500.02, 170892.05, -187500.02, -186217.81, 0.000, 0.000, 0.000, 15:27:14.968, 1578576434968
199, -171957.80, -178812.14, -179012.61, -178872.98, -178952.34, -179004.75, -179022.64, -178998.34, 0.000, 0.000, 0.000, 15:27:14.968, 1578576434968
200, 170827.84, 170788.33, 170979.81, 170989.45, -187500.02, 170896.41, -187500.02, -186221.03, -0.040, 0.004, 0.964, 15:27:14.968, 1578576434968
201, -171959.56, -178816.59, -179017.31, -178877.77, -178957.00, -179009.39, -179027.41, -179003.05, 0.000, 0.000, 0.000, 15:27:14.968, 1578576434968
202, 170832.13, 170792.53, 170984.16, 170993.83, -187500.02, 170900.73, -187500.02, -186227.13, 0.000, 0.000, 0.000, 15:27:14.968, 1578576434968
203, -171964.61, -178820.45, -179020.33, -178880.72, -178959.92, -179012.44, -179030.34, -179005.97, 0.000, 0.000, 0.000, 15:27:14.968, 1578576434968
204, 170838.53, 170798.91, 170990.48, 171000.19, -187500.02, 170907.11, -187500.02, -186227.75, 0.000, 0.000, 0.000, 15:27:14.968, 1578576434968
205, -171971.08, -178826.88, -179026.27, -178886.72, -178966.03, -179018.47, -179036.45, -179012.08, 0.000, 0.000, 0.000, 15:27:14.968, 1578576434968
206, 170847.91, 170808.25, 170999.98, 171009.56, -187500.02, 170916.50, -187500.02, -186230.91, 0.000, 0.000, 0.000, 15:27:14.968, 1578576434968
207, -171975.98, -178833.31, -179032.69, -178893.13, -178972.36, -179024.80, -179042.81, -179018.48, 0.000, 0.000, 0.000, 15:27:14.969, 1578576434969
208, 170857.75, 170818.19, 171009.80, 171019.47, -187500.02, 170926.42, -187500.02, -186232.11, 0.000, 0.000, 0.000, 15:27:14.969, 1578576434969
209, -171977.48, -178837.59, -179037.48, -178897.88, -178977.11, -179029.53, -179047.61, -179023.23, -0.028, 0.010, 0.976, 15:27:14.969, 1578576434969
210, 170865.52, 170825.86, 171017.39, 171027.09, -187500.02, 170934.02, -187500.02, -186234.84, 0.000, 0.000, 0.000, 15:27:14.969, 1578576434969
211, -171983.44, -178845.22, -179045.38, -178905.81, -178984.83, -179037.36, -179055.45, -179031.03, 0.000, 0.000, 0.000, 15:27:14.969, 1578576434969
212, 170876.05, 170836.50, 171027.98, 171037.69, -187500.02, 170944.69, -187500.02, -186235.41, 0.000, 0.000, 0.000, 15:27:14.969, 1578576434969
213, -171990.77, -178850.19, -179049.27, -178909.72, -178988.98, -179041.36, -179059.42, -179035.05, 0.000, 0.000, 0.000, 15:27:14.969, 1578576434969
214, 170880.00, 170840.48, 171031.97, 171041.67, -187500.02, 170948.64, -187500.02, -186238.39, 0.000, 0.000, 0.000, 15:27:14.969, 1578576434969
215, -171995.03, -178854.67, -179053.58, -178913.95, -178993.19, -179045.56, -179063.73, -179039.34, 0.000, 0.000, 0.000, 15:27:14.969, 1578576434969
216, 170889.16, 170849.55, 171041.23, 171050.83, -187500.02, 170957.77, -187500.02, -186240.06, 0.000, 0.000, 0.000, 15:27:14.969, 1578576434969
217, -171998.13, -178859.19, -179058.30, -178918.67, -178997.72, -179050.30, -179068.36, -179043.91, 0.000, 0.000, 0.000, 15:27:14.969, 1578576434969
218, 170897.36, 170857.84, 171049.56, 171059.09, -187500.02, 170966.05, -187500.02, -186239.13, 0.000, 0.000, 0.000, 15:27:14.969, 1578576434969
219, -172002.72, -178864.05, -179062.97, -178923.31, -179002.38, -179054.91, -179073.09, -179048.53, -0.028, 0.008, 0.978, 15:27:14.969, 1578576434969
220, 170900.78, 170861.25, 171052.83, 171062.41, -187500.02, 170969.41, -187500.02, -186242.55, 0.000, 0.000, 0.000, 15:27:14.969, 1578576434969
221, -172008.83, -178868.27, -179066.39, -178926.73, -179005.84, -179058.34, -179076.47, -179051.97, 0.000, 0.000, 0.000, 15:27:14.969, 1578576434969
222, 170910.11, 170870.50, 171062.09, 171071.78, -187500.02, 170978.80, -187500.02, -186248.19, 0.000, 0.000, 0.000, 15:27:14.969, 1578576434969
223, -172014.42, -178877.36, -179076.30, -178936.69, -179015.73, -179068.25, -179086.42, -179061.98, 0.000, 0.000, 0.000, 15:27:14.969, 1578576434969
224, 170921.50, 170881.81, 171073.39, 171083.08, -187500.02, 170990.14, -187500.02, -186251.92, 0.000, 0.000, 0.000, 15:27:14.970, 1578576434970
225, -172018.14, -178881.72, -179080.50, -178940.81, -179019.89, -179072.41, -179090.58, -179066.22, 0.000, 0.000, 0.000, 15:27:15.439, 1578576435439
226, 170927.67, 170888.09, 171079.64, 171089.28, -187500.02, 170996.36, -187500.02, -186250.17, 0.000, 0.000, 0.000, 15:27:15.439, 1578576435439
227, -172023.17, -178886.34, -179084.77, -178945.13, -179024.23, -179076.81, -179094.94, -179070.48, 0.000, 0.000, 0.000, 15:27:15.440, 1578576435440
228, 170937.44, 170897.88, 171089.48, 171099.11, -187500.02, 171006.06, -187500.02, -186251.38, 0.000, 0.000, 0.000, 15:27:15.440, 1578576435440
229, -172029.91, -178893.34, -179091.58, -178951.97, -179030.94, -179083.47, -179101.64, -179077.16, -0.036, 0.006, 0.974, 15:27:15.440, 1578576435440
230, 170944.59, 170904.94, 171096.67, 171106.31, -187500.02, 171013.25, -187500.02, -186259.00, 0.000, 0.000, 0.000, 15:27:15.440, 1578576435440
231, -172034.89, -178898.63, -179096.72, -178957.06, -179036.11, -179088.63, -179106.73, -179082.28, 0.000, 0.000, 0.000, 15:27:15.440, 1578576435440
232, 170950.92, 170911.36, 171102.94, 171112.59, -187500.02, 171019.63, -187500.02, -186260.17, 0.000, 0.000, 0.000, 15:27:15.440, 1578576435440
233, -172038.05, -178902.63, -179100.70, -178961.06, -179040.03, -179092.47, -179110.78, -179086.22, 0.000, 0.000, 0.000, 15:27:15.440, 1578576435440
234, 170959.64, 170920.05, 171111.61, 171121.27, -187500.02, 171028.23, -187500.02, -186263.06, 0.000, 0.000, 0.000, 15:27:15.441, 1578576435441
235, -172041.86, -178909.22, -179107.97, -178968.36, -179047.30, -179099.67, -179117.98, -179093.50, 0.000, 0.000, 0.000, 15:27:15.441, 1578576435441
236, 170969.92, 170930.41, 171121.95, 171131.61, -187500.02, 171038.56, -187500.02, -186264.91, 0.000, 0.000, 0.000, 15:27:15.441, 1578576435441
237, -172048.09, -178915.38, -179114.11, -178974.41, -179053.41, -179105.86, -179124.13, -179099.63, 0.000, 0.000, 0.000, 15:27:15.441, 1578576435441
238, 170978.41, 170938.89, 171130.47, 171140.16, -187500.02, 171047.03, -187500.02, -186266.52, 0.000, 0.000, 0.000, 15:27:15.441, 1578576435441
239, -172053.53, -178921.06, -179119.61, -178979.98, -179058.91, -179111.34, -179129.64, -179105.14, -0.030, 0.014, 0.988, 15:27:15.441, 1578576435441
240, 170983.47, 170943.91, 171135.48, 171145.14, -187500.02, 171052.08, -187500.02, -186270.52, 0.000, 0.000, 0.000, 15:27:15.441, 1578576435441
241, -172060.70, -178924.84, -179122.16, -178982.44, -179061.50, -179113.91, -179132.17, -179107.70, 0.000, 0.000, 0.000, 15:27:15.441, 1578576435441
242, 170988.16, 170948.59, 171140.16, 171149.83, -187500.02, 171056.84, -187500.02, -186273.44, 0.000, 0.000, 0.000, 15:27:15.442, 1578576435442
243, -172068.58, -178930.42, -179126.88, -178987.20, -179066.30, -179118.89, -179136.89, -179112.50, 0.000, 0.000, 0.000, 15:27:15.442, 1578576435442
244, 170993.83, 170954.39, 171145.94, 171155.58, -187500.02, 171062.66, -187500.02, -186276.23, 0.000, 0.000, 0.000, 15:27:15.442, 1578576435442
245, -172075.34, -178935.39, -179131.09, -178991.47, -179070.64, -179123.13, -179141.14, -179116.80, 0.000, 0.000, 0.000, 15:27:15.442, 1578576435442
246, 171006.06, 170966.47, 171158.03, 171167.73, -187500.02, 171074.72, -187500.02, -186276.19, 0.000, 0.000, 0.000, 15:27:15.442, 1578576435442
247, -172080.28, -178943.08, -179139.69, -179000.00, -179079.08, -179131.56, -179149.73, -179125.33, 0.000, 0.000, 0.000, 15:27:15.442, 1578576435442
248, 171015.06, 170975.59, 171167.17, 171176.84, -187500.02, 171083.86, -187500.02, -186279.61, -0.054, 0.014, 0.958, 15:27:15.442, 1578576435442
249, -172081.97, -178947.86, -179145.31, -179005.70, -179084.73, -179137.20, -179155.42, -179131.02, 0.000, 0.000, 0.000, 15:27:15.442, 1578576435442
250, 171024.95, 170985.36, 171177.03, 171186.63, -187500.02, 171093.64, -187500.02, -186281.80, 0.000, 0.000, 0.000, 15:27:15.442, 1578576435442
251, -172088.02, -178954.11, -179151.27, -179011.72, -179090.70, -179143.19, -179161.34, -179136.98, 0.000, 0.000, 0.000, 15:27:15.442, 1578576435442
252, 171032.22, 170992.61, 171184.31, 171193.91, -187500.02, 171100.94, -187500.02, -186284.78, 0.000, 0.000, 0.000, 15:27:15.442, 1578576435442
253, -172095.58, -178960.13, -179156.78, -179017.22, -179096.20, -179148.67, -179166.84, -179142.36, 0.000, 0.000, 0.000, 15:27:15.442, 1578576435442
254, 171041.63, 171002.03, 171193.75, 171203.25, -187500.02, 171110.27, -187500.02, -186287.03, 0.000, 0.000, 0.000, 15:27:15.442, 1578576435442
255, -172099.80, -178965.27, -179161.88, -179022.33, -179101.28, -179153.81, -179171.91, -179147.55, 0.000, 0.000, 0.000, 15:27:15.442, 1578576435442
0, 171047.75, 171008.27, 171199.89, 171209.42, -187500.02, 171116.45, -187500.02, -186289.05, 0.000, 0.000, 0.000, 15:27:15.442, 1578576435442
1, -172103.48, -178968.63, -179165.03, -179025.36, -179104.39, -179156.84, -179175.06, -179150.61, 0.000, 0.000, 0.000, 15:27:15.442, 1578576435442
2, 171050.39, 171010.83, 171202.38, 171212.13, -187500.02, 171119.16, -187500.02, -186293.25, -0.054, 0.016, 0.964, 15:27:15.442, 1578576435442
3, -172108.36, -178973.23, -179169.44, -179029.78, -179108.72, -179161.23, -179179.41, -179155.02, 0.000, 0.000, 0.000, 15:27:15.443, 1578576435443
4, 171058.55, 171019.03, 171210.75, 171220.30, -187500.02, 171127.31, -187500.02, -186296.95, 0.000, 0.000, 0.000, 15:27:15.443, 1578576435443
5, -172115.05, -178979.28, -179175.22, -179035.61, -179114.48, -179166.92, -179185.19, -179160.88, 0.000, 0.000, 0.000, 15:27:15.443, 1578576435443
6, 171069.11, 171029.53, 171221.27, 171230.86, -187500.02, 171137.83, -187500.02, -186295.41, 0.000, 0.000, 0.000, 15:27:15.443, 1578576435443
7, -172119.47, -178985.14, -179181.45, -179041.94, -179120.70, -179173.17, -179191.36, -179167.08, 0.000, 0.000, 0.000, 15:27:15.443, 1578576435443
8, 171076.94, 171037.52, 171229.27, 171238.77, -187500.02, 171145.73, -187500.02, -186300.06, 0.000, 0.000, 0.000, 15:27:15.443, 1578576435443
9, -172122.80, -178990.28, -179187.06, -179047.45, -179126.30, -179178.80, -179197.02, -179172.56, 0.000, 0.000, 0.000, 15:27:15.443, 1578576435443
10, 171086.03, 171046.39, 171238.20, 171247.75, -187500.02, 171154.70, -187500.02, -186301.73, 0.000, 0.000, 0.000, 15:27:15.443, 1578576435443
11, -172127.98, -178996.50, -179193.33, -179053.72, -179132.44, -179185.03, -179203.20, -179178.86, 0.000, 0.000, 0.000, 15:27:15.443, 1578576435443
12, 171095.73, 171056.11, 171247.91, 171257.50, -187500.02, 171164.48, -187500.02, -186302.83, -0.046, 0.012, 0.972, 15:27:15.443, 1578576435443
13, -172134.42, -179001.59, -179197.94, -179058.19, -179137.02, -179189.61, -179207.88, -179183.45, 0.000, 0.000, 0.000, 15:27:15.443, 1578576435443
14, 171100.00, 171060.38, 171252.17, 171261.78, -187500.02, 171168.83, -187500.02, -186305.77, 0.000, 0.000, 0.000, 15:27:15.443, 1578576435443
15, -172140.45, -179006.58, -179202.58, -179062.83, -179141.77, -179194.27, -179212.55, -179188.09, 0.000, 0.000, 0.000, 15:27:15.443, 1578576435443
16, 171108.63, 171068.94, 171260.80, 171270.38, -187500.02, 171177.44, -187500.02, -186311.00, 0.000, 0.000, 0.000, 15:27:15.443, 1578576435443
17, -172145.59, -179013.30, -179209.63, -179069.83, -179148.78, -179201.17, -179219.56, -179195.11, 0.000, 0.000, 0.000, 15:27:15.443, 1578576435443
18, 171121.63, 171082.06, 171273.77, 171283.48, -187500.02, 171190.44, -187500.02, -186310.52, 0.000, 0.000, 0.000, 15:27:15.443, 1578576435443
19, -172155.72, -179021.80, -179217.63, -179077.97, -179156.80, -179209.11, -179227.45, -179203.09, 0.000, 0.000, 0.000, 15:27:15.443, 1578576435443
20, 171131.00, 171091.44, 171283.13, 171292.81, -187500.02, 171199.77, -187500.02, -186312.44, 0.000, 0.000, 0.000, 15:27:15.444, 1578576435444
21, -172163.84, -179026.63, -179221.47, -179081.77, -179160.67, -179213.17, -179231.30, -179206.92, 0.000, 0.000, 0.000, 15:27:15.444, 1578576435444
22, 171139.72, 171100.23, 171291.81, 171301.55, -187500.02, 171208.52, -187500.02, -186309.20, -0.052, 0.010, 0.970, 15:27:15.444, 1578576435444
23, -172167.56, -179030.05, -179224.91, -179085.14, -179164.11, -179216.59, -179234.75, -179210.42, 0.000, 0.000, 0.000, 15:27:15.444, 1578576435444
24, 171140.78, 171101.19, 171292.97, 171302.67, -187500.02, 171209.63, -187500.02, -186313.66, 0.000, 0.000, 0.000, 15:27:15.444, 1578576435444
25, -172170.09, -179032.13, -179226.58, -179086.81, -179165.81, -179218.25, -179236.47, -179212.03, 0.000, 0.000, 0.000, 15:27:15.444, 1578576435444
26, 171145.42, 171105.91, 171297.70, 171307.45, -187500.02, 171214.33, -187500.02, -186316.63, 0.000, 0.000, 0.000, 15:27:15.444, 1578576435444
27, -172176.28, -179038.42, -179232.83, -179093.09, -179172.03, -179224.53, -179242.70, -179218.34, 0.000, 0.000, 0.000, 15:27:15.444, 1578576435444
28, 171156.31, 171116.64, 171308.53, 171318.14, -187500.02, 171225.16, -187500.02, -186321.34, 0.000, 0.000, 0.000, 15:27:15.444, 1578576435444
29, -172183.17, -179046.00, -179240.42, -179100.81, -179179.72, -179232.22, -179250.30, -179225.92, 0.000, 0.000, 0.000, 15:27:15.444, 1578576435444
30, 171166.80, 171127.16, 171318.92, 171328.64, -187500.02, 171235.64, -187500.02, -186323.00, 0.000, 0.000, 0.000, 15:27:15.444, 1578576435444
31, -172189.27, -179051.33, -179245.47, -179105.70, -179184.66, -179237.20, -179255.34, -179230.91, 0.000, 0.000, 0.000, 15:27:15.444, 1578576435444
32, 171172.77, 171133.13, 171324.89, 171334.55, -187500.02, 171241.56, -187500.02, -186325.03, -0.054, 0.012, 0.978, 15:27:15.444, 1578576435444
33, -172191.91, -179055.23, -179249.97, -179110.17, -179188.98, -179241.61, -179259.83, -179235.33, 0.000, 0.000, 0.000, 15:27:15.444, 1578576435444
34, 171177.03, 171137.52, 171329.25, 171338.86, -187500.02, 171245.78, -187500.02, -186327.00, 0.000, 0.000, 0.000, 15:27:15.444, 1578576435444
35, -172196.05, -179057.63, -179251.70, -179111.89, -179190.91, -179243.42, -179261.61, -179237.11, 0.000, 0.000, 0.000, 15:27:15.444, 1578576435444
36, 171182.70, 171143.08, 171334.78, 171344.59, -187500.02, 171251.48, -187500.02, -186330.02, 0.000, 0.000, 0.000, 15:27:15.444, 1578576435444
37, -172203.02, -179064.47, -179258.25, -179118.47, -179197.48, -179250.03, -179268.14, -179243.69, 0.000, 0.000, 0.000, 15:27:15.444, 1578576435444
38, 171192.94, 171153.41, 171345.14, 171354.95, -187500.02, 171261.91, -187500.02, -186335.05, 0.000, 0.000, 0.000, 15:27:15.444, 1578576435444
39, -172207.64, -179070.77, -179264.97, -179125.23, -179204.09, -179256.63, -179274.78, -179250.36, 0.000, 0.000, 0.000, 15:27:15.444, 1578576435444
40, 171198.64, 171159.14, 171350.86, 171360.56, -187500.02, 171267.52, -187500.02, -186340.94, 0.000, 0.000, 0.000, 15:27:15.444, 1578576435444
41, -172211.95, -179075.89, -179270.53, -179130.78, -179209.59, -179262.11, -179280.31, -179255.95, -0.046, 0.008, 0.978, 15:27:15.445, 1578576435445
42, 171208.61, 171169.11, 171360.83, 171370.44, -187500.02, 171277.44, -187500.02, -186343.61, 0.000, 0.000, 0.000, 15:27:15.445, 1578576435445
43, -172217.13, -179082.34, -179277.23, -179137.48, -179216.28, -179268.73, -179287.06, -179262.73, 0.000, 0.000, 0.000, 15:27:15.445, 1578576435445
44, 171218.52, 171179.00, 171370.86, 171380.52, -187500.02, 171287.47, -187500.02, -186340.97, 0.000, 0.000, 0.000, 15:27:15.445, 1578576435445
45, -172224.72, -179087.38, -179281.33, -179141.67, -179220.44, -179273.08, -179291.27, -179266.91, 0.000, 0.000, 0.000, 15:27:15.445, 1578576435445
46, 171225.16, 171185.55, 171377.33, 171387.05, -187500.02, 171294.08, -187500.02, -186344.00, 0.000, 0.000, 0.000, 15:27:15.445, 1578576435445
47, -172230.05, -179091.77, -179285.53, -179145.78, -179224.58, -179277.17, -179295.31, -179270.97, 0.000, 0.000, 0.000, 15:27:15.445, 1578576435445
48, 171229.88, 171190.33, 171382.08, 171391.83, -187500.02, 171298.80, -187500.02, -186347.09, 0.000, 0.000, 0.000, 15:27:15.445, 1578576435445
49, -172232.67, -179096.08, -179290.00, -179150.30, -179229.11, -179281.64, -179299.88, -179275.48, 0.000, 0.000, 0.000, 15:27:15.445, 1578576435445
50, 171239.03, 171199.58, 171391.34, 171401.08, -187500.02, 171307.97, -187500.02, -186347.73, 0.000, 0.000, 0.000, 15:27:15.445, 1578576435445
51, -172238.09, -179101.81, -179295.81, -179156.17, -179234.94, -179287.41, -179305.70, -179281.33, -0.048, 0.010, 0.970, 15:27:15.445, 1578576435445
52, 171247.61, 171208.08, 171399.89, 171409.58, -187500.02, 171316.44, -187500.02, -186350.78, 0.000, 0.000, 0.000, 15:27:15.445, 1578576435445
53, -172244.70, -179109.34, -179303.50, -179163.91, -179242.67, -179295.09, -179313.38, -179289.02, 0.000, 0.000, 0.000, 15:27:15.445, 1578576435445
54, 171258.48, 171218.98, 171410.77, 171420.50, -187500.02, 171327.36, -187500.02, -186355.55, 0.000, 0.000, 0.000, 15:27:15.445, 1578576435445
55, -172249.94, -179114.56, -179308.55, -179168.83, -179247.63, -179300.17, -179318.31, -179293.97, 0.000, 0.000, 0.000, 15:27:15.445, 1578576435445
56, 171263.48, 171223.83, 171415.70, 171425.45, -187500.02, 171332.23, -187500.02, -186357.47, 0.000, 0.000, 0.000, 15:27:15.445, 1578576435445
57, -172253.22, -179119.47, -179313.67, -179174.03, -179252.67, -179305.31, -179323.53, -179299.14, 0.000, 0.000, 0.000, 15:27:15.445, 1578576435445
58, 171273.14, 171233.44, 171425.31, 171434.98, -187500.02, 171341.84, -187500.02, -186357.47, 0.000, 0.000, 0.000, 15:27:15.445, 1578576435445
59, -172257.22, -179123.03, -179317.58, -179177.91, -179256.56, -179309.16, -179327.41, -179303.03, 0.000, 0.000, 0.000, 15:27:15.445, 1578576435445
60, 171280.70, 171241.11, 171432.94, 171442.64, -187500.02, 171349.42, -187500.02, -186359.70, 0.000, 0.000, 0.000, 15:27:15.445, 1578576435445
61, -172265.64, -179130.22, -179324.23, -179184.56, -179263.28, -179315.80, -179334.09, -179309.69, -0.050, 0.010, 0.970, 15:27:15.445, 1578576435445
62, 171290.16, 171250.59, 171442.39, 171452.16, -187500.02, 171358.97, -187500.02, -186361.50, 0.000, 0.000, 0.000, 15:27:15.446, 1578576435446
63, -172270.47, -179135.41, -179329.56, -179189.97, -179268.66, -179321.11, -179339.39, -179314.97, 0.000, 0.000, 0.000, 15:27:15.446, 1578576435446
64, 171299.22, 171259.81, 171451.55, 171461.25, -187500.02, 171368.09, -187500.02, -186365.78, 0.000, 0.000, 0.000, 15:27:15.446, 1578576435446
65, -172274.08, -179141.83, -179336.94, -179197.22, -179275.84, -179328.31, -179346.72, -179322.34, 0.000, 0.000, 0.000, 15:27:15.446, 1578576435446
66, 171305.81, 171266.28, 171458.13, 171467.80, -187500.02, 171374.53, -187500.02, -186367.36, 0.000, 0.000, 0.000, 15:27:15.446, 1578576435446
67, -172279.02, -179144.98, -179339.34, -179199.67, -179278.31, -179330.88, -179349.19, -179324.75, 0.000, 0.000, 0.000, 15:27:15.446, 1578576435446
68, 171311.39, 171271.84, 171463.69, 171473.44, -187500.02, 171380.19, -187500.02, -186369.22, 0.000, 0.000, 0.000, 15:27:15.446, 1578576435446
69, -172285.03, -179150.70, -179344.89, -179205.06, -179283.94, -179336.36, -179354.64, -179330.28, 0.000, 0.000, 0.000, 15:27:15.446, 1578576435446
70, 171320.06, 171280.41, 171472.36, 171481.95, -187500.02, 171388.75, -187500.02, -186370.05, 0.000, 0.000, 0.000, 15:27:15.446, 1578576435446
71, -172290.25, -179155.97, -179350.09, -179210.36, -179289.19, -179341.55, -179359.94, -179335.59, -0.050, 0.012, 0.970, 15:27:15.446, 1578576435446
72, 171329.94, 171290.38, 171482.27, 171491.92, -187500.02, 171398.72, -187500.02, -186372.86, 0.000, 0.000, 0.000, 15:27:15.446, 1578576435446
73, -172298.58, -179162.34, -179355.84, -179216.06, -179295.03, -179347.39, -179365.66, -179341.30, 0.000, 0.000, 0.000, 15:27:15.446, 1578576435446
74, 171335.34, 171295.92, 171487.77, 171497.36, -187500.02, 171404.25, -187500.02, -186376.39, 0.000, 0.000, 0.000, 15:27:15.446, 1578576435446
75, -172307.14, -179168.94, -179361.95, -179222.22, -179301.11, -179353.61, -179371.73, -179347.39, 0.000, 0.000, 0.000, 15:27:15.446, 1578576435446
76, 171346.20, 171306.67, 171498.48, 171508.14, -187500.02, 171414.98, -187500.02, -186375.52, 0.000, 0.000, 0.000, 15:27:15.446, 1578576435446
77, -172314.17, -179175.09, -179367.80, -179228.02, -179306.83, -179359.33, -179377.50, -179353.13, 0.000, 0.000, 0.000, 15:27:15.446, 1578576435446
78, 171358.70, 171319.19, 171511.02, 171520.59, -187500.02, 171427.45, -187500.02, -186375.75, 0.000, 0.000, 0.000, 15:27:15.446, 1578576435446
79, -172319.58, -179181.09, -179374.16, -179234.34, -179313.17, -179365.70, -179383.83, -179359.47, 0.000, 0.000, 0.000, 15:27:15.446, 1578576435446
80, 171364.83, 171325.25, 171517.25, 171526.77, -187500.02, 171433.61, -187500.02, -186378.55, -0.048, 0.014, 0.976, 15:27:15.446, 1578576435446
81, -172322.98, -179186.03, -179379.42, -179239.59, -179318.45, -179370.89, -179389.19, -179364.73, 0.000, 0.000, 0.000, 15:27:15.446, 1578576435446
82, 171371.83, 171332.27, 171524.27, 171533.77, -187500.02, 171440.69, -187500.02, -186383.23, 0.000, 0.000, 0.000, 15:27:15.446, 1578576435446
83, -172327.05, -179190.39, -179383.88, -179244.06, -179322.83, -179375.25, -179393.59, -179369.17, 0.000, 0.000, 0.000, 15:27:15.447, 1578576435447
84, 171377.14, 171337.56, 171529.45, 171539.08, -187500.02, 171446.08, -187500.02, -186388.03, 0.000, 0.000, 0.000, 15:27:15.447, 1578576435447
85, -172334.02, -179196.55, -179389.80, -179250.05, -179328.89, -179381.28, -179399.52, -179375.20, 0.000, 0.000, 0.000, 15:27:15.447, 1578576435447
86, 171388.16, 171348.58, 171540.48, 171550.19, -187500.02, 171457.09, -187500.02, -186388.17, 0.000, 0.000, 0.000, 15:27:15.447, 1578576435447
87, -172339.52, -179201.80, -179394.84, -179255.17, -179333.89, -179386.38, -179404.69, -179380.25, 0.000, 0.000, 0.000, 15:27:15.447, 1578576435447
88, 171392.59, 171352.92, 171544.80, 171554.53, -187500.02, 171461.33, -187500.02, -186389.45, 0.000, 0.000, 0.000, 15:27:15.447, 1578576435447
89, -172342.58, -179204.55, -179397.39, -179257.77, -179336.38, -179388.95, -179407.20, -179382.84, 0.000, 0.000, 0.000, 15:27:15.918, 1578576435918
90, 171401.34, 171361.67, 171553.61, 171563.27, -187500.02, 171470.11, -187500.02, -186389.84, -0.048, 0.010, 0.974, 15:27:15.919, 1578576435919
91, -172348.34, -179211.52, -179404.75, -179265.03, -179343.66, -179396.23, -179414.50, -179390.09, 0.000, 0.000, 0.000, 15:27:15.919, 1578576435919
92, 171411.61, 171371.98, 171563.95, 171573.59, -187500.02, 171480.44, -187500.02, -186392.13, 0.000, 0.000, 0.000, 15:27:15.919, 1578576435919
93, -172355.53, -179218.84, -179411.84, -179272.19, -179350.72, -179403.41, -179421.67, -179397.27, 0.000, 0.000, 0.000, 15:27:15.919, 1578576435919
94, 171419.50, 171379.95, 171571.92, 171581.55, -187500.02, 171488.41, -187500.02, -186397.56, 0.000, 0.000, 0.000, 15:27:15.919, 1578576435919
95, -172361.73, -179223.77, -179416.33, -179276.63, -179355.33, -179407.92, -179426.14, -179401.70, 0.000, 0.000, 0.000, 15:27:15.919, 1578576435919
96, 171426.30, 171386.73, 171578.63, 171588.41, -187500.02, 171495.23, -187500.02, -186397.41, 0.000, 0.000, 0.000, 15:27:15.919, 1578576435919
97, -172365.27, -179228.27, -179421.20, -179281.55, -179360.22, -179412.84, -179431.02, -179406.66, 0.000, 0.000, 0.000, 15:27:15.919, 1578576435919
98, 171433.34, 171393.69, 171585.59, 171595.28, -187500.02, 171502.06, -187500.02, -186397.92, 0.000, 0.000, 0.000, 15:27:15.919, 1578576435919
99, -172370.64, -179232.02, -179424.42, -179284.70, -179363.53, -179416.06, -179434.33, -179409.94, 0.000, 0.000, 0.000, 15:27:15.919, 1578576435919
100, 171441.25, 171401.69, 171593.67, 171603.28, -187500.02, 171510.06, -187500.02, -186396.73, -0.048, 0.010, 0.974, 15:27:15.919, 1578576435919
101, -172378.48, -179238.75, -179430.72, -179290.95, -179369.80, -179422.28, -179440.58, -179416.11, 0.000, 0.000, 0.000, 15:27:15.919, 1578576435919
102, 171451.80, 171412.17, 171604.22, 171613.83, -187500.02, 171520.64, -187500.02, -186395.58, 0.000, 0.000, 0.000, 15:27:15.919, 1578576435919
103, -172382.44, -179245.06, -179437.81, -179298.22, -179376.86, -179429.36, -179447.64, -179423.33, 0.000, 0.000, 0.000, 15:27:15.919, 1578576435919
104, 171462.23, 171422.70, 171614.61, 171624.22, -187500.02, 171531.17, -187500.02, -186390.94, 0.000, 0.000, 0.000, 15:27:15.919, 1578576435919
105, -172385.92, -179250.17, -179443.36, -179303.81, -179382.36, -179434.97, -179453.19, -179428.73, 0.000, 0.000, 0.000, 15:27:15.919, 1578576435919
106, 171469.14, 171429.63, 171621.52, 171631.22, -187500.02, 171538.05, -187500.02, -186391.97, 0.000, 0.000, 0.000, 15:27:15.919, 1578576435919
107, -172390.91, -179255.23, -179448.38, -179308.75, -179387.34, -179439.86, -179458.19, -179433.83, 0.000, 0.000, 0.000, 15:27:15.919, 1578576435919
108, 171473.91, 171434.36, 171626.23, 171635.91, -187500.02, 171542.77, -187500.02, -186396.44, 0.000, 0.000, 0.000, 15:27:15.920, 1578576435920
109, -172398.48, -179261.13, -179453.52, -179313.91, -179392.55, -179445.13, -179463.38, -179438.95, 0.000, 0.000, 0.000, 15:27:15.920, 1578576435920
110, 171483.94, 171444.17, 171636.14, 171645.83, -187500.02, 171552.83, -187500.02, -186331.63, -0.044, 0.010, 0.970, 15:27:15.920, 1578576435920
111, -172404.23, -179266.11, -179458.23, -179318.61, -179397.36, -179449.77, -179467.92, -179443.64, 0.000, 0.000, 0.000, 15:27:15.920, 1578576435920
112, 171490.38, 171450.69, 171642.53, 171652.20, -187500.02, 171559.20, -187500.02, -186285.25, 0.000, 0.000, 0.000, 15:27:15.920, 1578576435920
113, -172407.14, -179272.31, -179465.55, -179325.92, -179404.48, -179456.86, -179475.25, -179450.91, 0.000, 0.000, 0.000, 15:27:15.920, 1578576435920
114, 171502.22, 171462.66, 171654.38, 171663.98, -187500.02, 171571.17, -187500.02, -186169.39, 0.000, 0.000, 0.000, 15:27:15.920, 1578576435920
115, -172411.81, -179277.88, -179471.67, -179331.91, -179410.42, -179462.95, -179481.34, -179456.94, 0.000, 0.000, 0.000, 15:27:15.920, 1578576435920
116, 171506.50, 171466.86, 171658.63, 171668.31, -187500.02, 171575.41, -187500.02, -186134.23, 0.000, 0.000, 0.000, 15:27:15.920, 1578576435920
117, -172419.88, -179282.42, -179475.06, -179335.30, -179413.95, -179466.47, -179484.77, -179460.45, 0.000, 0.000, 0.000, 15:27:15.920, 1578576435920
118, 171513.59, 171473.91, 171665.75, 171675.41, -187500.02, 171582.48, -187500.02, -186116.95, 0.000, 0.000, 0.000, 15:27:15.920, 1578576435920
119, -172425.23, -179288.20, -179480.88, -179341.05, -179419.84, -179472.28, -179490.56, -179466.17, -0.084, 0.006, 0.984, 15:27:15.920, 1578576435920
120, 171514.25, 171474.55, 171666.38, 171676.05, -187500.02, 171583.16, -187500.02, -186209.19, 0.000, 0.000, 0.000, 15:27:15.920, 1578576435920
121, -172428.75, -179291.05, -179483.34, -179343.63, -179422.25, -179474.84, -179493.17, -179468.70, 0.000, 0.000, 0.000, 15:27:15.920, 1578576435920
122, 171525.20, 171485.48, 171677.34, 171686.94, -187500.02, 171594.05, -187500.02, -186088.89, 0.000, 0.000, 0.000, 15:27:15.920, 1578576435920
123, -172434.47, -179298.89, -179491.72, -179352.05, -179430.64, -179483.16, -179501.56, -179477.06, 0.000, 0.000, 0.000, 15:27:15.920, 1578576435920
124, 171531.50, 171491.72, 171683.59, 171693.28, -187500.02, 171600.34, -187500.02, -186037.16, 0.000, 0.000, 0.000, 15:27:15.921, 1578576435921
125, -172441.41, -179303.83, -179495.92, -179356.25, -179434.86, -179487.25, -179505.63, -179481.27, 0.000, 0.000, 0.000, 15:27:15.921, 1578576435921
126, 171540.30, 171500.64, 171692.45, 171702.05, -187500.02, 171609.25, -187500.02, -185943.16, 0.000, 0.000, 0.000, 15:27:15.921, 1578576435921
127, -172446.31, -179309.20, -179501.64, -179361.98, -179440.63, -179493.05, -179511.41, -179486.98, 0.000, 0.000, 0.000, 15:27:15.921, 1578576435921
128, 171548.52, 171508.84, 171700.70, 171710.30, -187500.02, 171617.50, -187500.02, -185816.44, 0.000, 0.000, 0.000, 15:27:15.921, 1578576435921
129, -172450.56, -179314.09, -179506.70, -179367.00, -179445.67, -179498.09, -179516.39, -179492.03, -0.094, 0.008, 0.974, 15:27:15.921, 1578576435921
130, 171553.80, 171514.19, 171706.08, 171715.59, -187500.02, 171622.80, -187500.02, -185826.63, 0.000, 0.000, 0.000, 15:27:15.921, 1578576435921
131, -172456.39, -179319.30, -179511.64, -179371.92, -179450.64, -179503.02, -179521.38, -179497.00, 0.000, 0.000, 0.000, 15:27:15.921, 1578576435921
132, 171560.67, 171521.00, 171712.84, 171722.45, -187500.02, 171629.58, -187500.02, -185773.48, 0.000, 0.000, 0.000, 15:27:15.921, 1578576435921
133, -172463.08, -179325.06, -179517.09, -179377.38, -179456.09, -179508.47, -179526.70, -179502.34, 0.000, 0.000, 0.000, 15:27:15.921, 1578576435921
134, 171570.39, 171530.70, 171722.52, 171732.16, -187500.02, 171639.23, -187500.02, -185648.31, 0.000, 0.000, 0.000, 15:27:15.921, 1578576435921
135, -172468.89, -179331.13, -179523.39, -179383.72, -179462.47, -179514.83, -179533.05, -179508.64, 0.000, 0.000, 0.000, 15:27:15.921, 1578576435921
136, 171579.19, 171539.58, 171731.39, 171740.97, -187500.02, 171648.11, -187500.02, -185524.30, 0.000, 0.000, 0.000, 15:27:15.922, 1578576435922
137, -172472.09, -179335.95, -179528.59, -179388.86, -179467.53, -179519.92, -179538.33, -179513.89, 0.000, 0.000, 0.000, 15:27:15.922, 1578576435922
138, 171584.69, 171545.00, 171736.89, 171746.44, -187500.02, 171653.59, -187500.02, -185540.81, 0.000, 0.000, 0.000, 15:27:15.922, 1578576435922
139, -172477.19, -179340.98, -179533.45, -179393.75, -179472.19, -179524.75, -179543.13, -179518.72, -0.074, 0.008, 0.978, 15:27:15.922, 1578576435922
140, 171589.58, 171549.95, 171741.77, 171751.42, -187500.02, 171658.53, -187500.02, -185511.83, 0.000, 0.000, 0.000, 15:27:15.922, 1578576435922
141, -172484.98, -179347.31, -179539.38, -179399.66, -179478.28, -179530.69, -179549.03, -179524.67, 0.000, 0.000, 0.000, 15:27:15.922, 1578576435922
142, 171602.42, 171562.70, 171754.69, 171764.20, -187500.02, 171671.38, -187500.02, -185339.98, 0.000, 0.000, 0.000, 15:27:15.922, 1578576435922
143, -172490.48, -179353.77, -179546.06, -179406.25, -179484.92, -179537.31, -179555.88, -179531.34, 0.000, 0.000, 0.000, 15:27:15.922, 1578576435922
144, 171609.36, 171569.64, 171761.53, 171771.08, -187500.02, 171678.25, -187500.02, -185301.78, 0.000, 0.000, 0.000, 15:27:15.922, 1578576435922
145, -172492.88, -179358.23, -179551.41, -179411.50, -179490.20, -179542.58, -179561.03, -179536.58, 0.000, 0.000, 0.000, 15:27:15.922, 1578576435922
146, 171616.13, 171576.34, 171768.20, 171777.78, -187500.02, 171684.97, -187500.02, -185237.97, 0.000, 0.000, 0.000, 15:27:15.922, 1578576435922
147, -172499.30, -179362.70, -179555.25, -179415.39, -179494.02, -179546.58, -179564.95, -179540.56, 0.000, 0.000, 0.000, 15:27:15.923, 1578576435923
148, 171622.92, 171583.23, 171775.11, 171784.59, -187500.02, 171691.80, -187500.02, -185163.63, 0.000, 0.000, 0.000, 15:27:15.923, 1578576435923
149, -172506.02, -179369.72, -179562.39, -179422.50, -179501.11, -179553.64, -179572.03, -179547.63, -0.058, 0.008, 0.986, 15:27:15.924, 1578576435924
150, 171633.70, 171594.02, 171785.84, 171795.45, -187500.02, 171702.67, -187500.02, -185027.36, 0.000, 0.000, 0.000, 15:27:15.924, 1578576435924
151, -172511.08, -179373.95, -179566.20, -179426.30, -179505.11, -179557.53, -179575.88, -179551.41, 0.000, 0.000, 0.000, 15:27:15.924, 1578576435924
152, 171638.86, 171599.16, 171791.02, 171800.59, -187500.02, 171707.75, -187500.02, -184988.58, 0.000, 0.000, 0.000, 15:27:15.924, 1578576435924
153, -172514.61, -179380.36, -179573.53, -179433.67, -179512.23, -179564.59, -179583.16, -179558.78, 0.000, 0.000, 0.000, 15:27:15.924, 1578576435924
154, 171650.58, 171610.81, 171802.72, 171812.33, -187500.02, 171719.44, -187500.02, -184863.34, 0.000, 0.000, 0.000, 15:27:15.924, 1578576435924
155, -172520.22, -179386.25, -179579.70, -179439.78, -179518.34, -179570.83, -179589.33, -179564.91, 0.000, 0.000, 0.000, 15:27:15.924, 1578576435924
156, 171658.08, 171618.39, 171810.25, 171819.91, -187500.02, 171726.97, -187500.02, -184760.61, 0.000, 0.000, 0.000, 15:27:15.924, 1578576435924
157, -172527.19, -179390.80, -179583.63, -179443.78, -179522.39, -179574.95, -179593.31, -179568.88, 0.000, 0.000, 0.000, 15:27:15.924, 1578576435924
158, 171663.06, 171623.30, 171815.16, 171824.83, -187500.02, 171731.84, -187500.02, -184742.77, -0.054, 0.010, 0.998, 15:27:15.924, 1578576435924
159, -172531.77, -179394.78, -179587.28, -179447.42, -179526.02, -179578.56, -179596.94, -179572.48, 0.000, 0.000, 0.000, 15:27:15.924, 1578576435924
160, 171668.61, 171628.92, 171820.77, 171830.42, -187500.02, 171737.56, -187500.02, -184707.97, 0.000, 0.000, 0.000, 15:27:15.924, 1578576435924
161, -172535.59, -179399.30, -179592.08, -179452.22, -179530.84, -179583.31, -179601.67, -179577.22, 0.000, 0.000, 0.000, 15:27:15.924, 1578576435924
162, 171674.69, 171634.91, 171826.81, 171836.52, -187500.02, 171743.63, -187500.02, -184704.30, 0.000, 0.000, 0.000, 15:27:15.924, 1578576435924
163, -172540.48, -179404.14, -179596.75, -179456.94, -179535.55, -179587.98, -179606.44, -179581.89, 0.000, 0.000, 0.000, 15:27:15.924, 1578576435924
164, 171681.33, 171641.59, 171833.44, 171843.11, -187500.02, 171750.27, -187500.02, -184657.50, 0.000, 0.000, 0.000, 15:27:15.925, 1578576435925
165, -172548.44, -179412.38, -179605.06, -179465.22, -179543.78, -179596.27, -179614.77, -179590.25, 0.000, 0.000, 0.000, 15:27:15.925, 1578576435925
166, 171694.47, 171654.89, 171846.67, 171856.39, -187500.02, 171763.53, -187500.02, -184470.50, 0.000, 0.000, 0.000, 15:27:15.925, 1578576435925
167, -172553.42, -179416.34, -179608.64, -179468.77, -179547.27, -179599.77, -179618.28, -179593.69, 0.000, 0.000, 0.000, 15:27:15.925, 1578576435925
168, 171697.64, 171657.97, 171849.75, 171859.47, -187500.02, 171766.59, -187500.02, -184487.17, -0.054, 0.010, 0.986, 15:27:15.925, 1578576435925
169, -172555.66, -179422.00, -179615.45, -179475.47, -179553.97, -179606.47, -179624.95, -179600.50, 0.000, 0.000, 0.000, 15:27:15.925, 1578576435925
170, 171705.52, 171665.89, 171857.78, 171867.39, -187500.02, 171774.48, -187500.02, -184473.41, 0.000, 0.000, 0.000, 15:27:15.925, 1578576435925
171, -172562.02, -179427.27, -179620.22, -179480.28, -179558.84, -179611.23, -179629.81, -179605.31, 0.000, 0.000, 0.000, 15:27:15.925, 1578576435925
172, 171711.39, 171671.73, 171863.63, 171873.17, -187500.02, 171780.33, -187500.02, -184450.44, 0.000, 0.000, 0.000, 15:27:15.925, 1578576435925
173, -172569.31, -179432.98, -179625.41, -179485.55, -179564.00, -179616.42, -179634.86, -179610.47, 0.000, 0.000, 0.000, 15:27:15.925, 1578576435925
174, 171719.19, 171679.47, 171871.31, 171880.95, -187500.02, 171788.08, -187500.02, -184387.16, 0.000, 0.000, 0.000, 15:27:15.925, 1578576435925
175, -172575.08, -179438.23, -179630.41, -179490.63, -179569.08, -179621.63, -179639.98, -179615.59, 0.000, 0.000, 0.000, 15:27:15.925, 1578576435925
176, 171727.28, 171687.63, 171879.48, 171889.11, -187500.02, 171796.23, -187500.02, -184304.45, 0.000, 0.000, 0.000, 15:27:15.925, 1578576435925
177, -172577.64, -179443.70, -179636.84, -179497.16, -179575.47, -179627.98, -179646.50, -179622.08, 0.000, 0.000, 0.000, 15:27:15.925, 1578576435925
178, 171734.70, 171695.02, 171886.97, 171896.64, -187500.02, 171803.70, -187500.02, -184270.19, -0.052, 0.004, 0.986, 15:27:15.925, 1578576435925
179, -172583.41, -179448.78, -179641.64, -179501.80, -179580.25, -179632.77, -179651.20, -179626.84, 0.000, 0.000, 0.000, 15:27:15.925, 1578576435925
180, 171740.25, 171700.39, 171892.36, 171901.98, -187500.02, 171809.11, -187500.02, -184230.73, 0.000, 0.000, 0.000, 15:27:15.926, 1578576435926
181, -172591.33, -179453.97, -179645.88, -179506.16, -179584.59, -179637.13, -179655.52, -179631.08, 0.000, 0.000, 0.000, 15:27:15.926, 1578576435926
182, 171748.92, 171709.17, 171901.06, 171910.81, -187500.02, 171817.88, -187500.02, -184142.94, 0.000, 0.000, 0.000, 15:27:15.926, 1578576435926
183, -172595.09, -179460.00, -179652.67, -179512.89, -179591.28, -179643.75, -179662.27, -179637.80, 0.000, 0.000, 0.000, 15:27:15.926, 1578576435926
184, 171753.95, 171714.30, 171906.25, 171915.86, -187500.02, 171822.91, -187500.02, -184147.25, 0.000, 0.000, 0.000, 15:27:15.926, 1578576435926
185, -172598.58, -179463.94, -179656.78, -179516.98, -179595.34, -179647.83, -179666.41, -179641.86, 0.000, 0.000, 0.000, 15:27:15.926, 1578576435926
186, 171763.94, 171724.41, 171916.30, 171925.91, -187500.02, 171833.02, -187500.02, -184046.88, 0.000, 0.000, 0.000, 15:27:15.926, 1578576435926
187, -172605.23, -179470.91, -179663.81, -179524.05, -179602.39, -179655.02, -179673.47, -179649.02, 0.000, 0.000, 0.000, 15:27:15.926, 1578576435926
188, 171771.00, 171731.42, 171923.27, 171932.97, -187500.02, 171839.94, -187500.02, -184004.67, -0.056, 0.004, 0.974, 15:27:15.926, 1578576435926
189, -172613.44, -179476.81, -179668.91, -179529.16, -179607.59, -179660.19, -179678.50, -179654.08, 0.000, 0.000, 0.000, 15:27:15.926, 1578576435926
190, 171776.56, 171737.00, 171928.88, 171938.55, -187500.02, 171845.61, -187500.02, -183988.00, 0.000, 0.000, 0.000, 15:27:15.926, 1578576435926
191, -172619.08, -179482.05, -179674.14, -179534.33, -179612.80, -179665.42, -179683.72, -179659.20, 0.000, 0.000, 0.000, 15:27:15.926, 1578576435926
192, 171785.06, 171745.50, 171937.34, 171946.98, -187500.02, 171854.06, -187500.02, -183870.73, 0.000, 0.000, 0.000, 15:27:15.926, 1578576435926
193, -172620.97, -179485.86, -179678.42, -179538.59, -179616.98, -179669.55, -179687.88, -179663.52, 0.000, 0.000, 0.000, 15:27:15.926, 1578576435926
194, 171792.39, 171752.83, 171944.72, 171954.27, -187500.02, 171861.47, -187500.02, -183804.63, 0.000, 0.000, 0.000, 15:27:15.926, 1578576435926
195, -172627.64, -179492.14, -179684.48, -179544.69, -179623.06, -179675.59, -179693.92, -179669.50, 0.000, 0.000, 0.000, 15:27:15.926, 1578576435926
196, 171799.59, 171759.98, 171951.89, 171961.52, -187500.02, 171868.61, -187500.02, -183742.89, 0.000, 0.000, 0.000, 15:27:15.926, 1578576435926
197, -172635.38, -179497.47, -179689.13, -179549.28, -179627.67, -179680.22, -179698.59, -179674.16, -0.046, 0.008, 0.980, 15:27:15.927, 1578576435927
198, 171807.70, 171768.03, 171959.91, 171969.56, -187500.02, 171876.61, -187500.02, -183667.16, 0.000, 0.000, 0.000, 15:27:15.927, 1578576435927
199, -172640.31, -179502.36, -179693.94, -179554.06, -179632.56, -179685.06, -179703.48, -179679.03, 0.000, 0.000, 0.000, 15:27:15.927, 1578576435927
200, 171813.27, 171773.58, 171965.58, 171975.14, -187500.02, 171882.31, -187500.02, -183643.95, 0.000, 0.000, 0.000, 15:27:15.927, 1578576435927
201, -172644.05, -179508.59, -179700.98, -179561.22, -179639.63, -179692.13, -179710.67, -179686.14, 0.000, 0.000, 0.000, 15:27:15.927, 1578576435927
202, 171825.25, 171785.53, 171977.52, 171987.17, -187500.02, 171894.20, -187500.02, -183529.97, 0.000, 0.000, 0.000, 15:27:15.928, 1578576435928
203, -172649.47, -179514.97, -179707.89, -179568.13, -179646.39, -179698.92, -179717.47, -179693.02, 0.000, 0.000, 0.000, 15:27:15.928, 1578576435928
204, 171830.48, 171790.78, 171982.72, 171992.42, -187500.02, 171899.39, -187500.02, -183523.66, 0.000, 0.000, 0.000, 15:27:15.928, 1578576435928
205, -172656.02, -179519.48, -179711.64, -179571.77, -179650.22, -179702.75, -179721.28, -179696.80, 0.000, 0.000, 0.000, 15:27:15.928, 1578576435928
206, 171835.98, 171796.28, 171988.16, 171997.89, -187500.02, 171904.94, -187500.02, -183493.69, 0.000, 0.000, 0.000, 15:27:15.928, 1578576435928
207, -172661.61, -179524.05, -179715.84, -179575.92, -179654.52, -179706.98, -179725.39, -179700.94, -0.048, 0.008, 0.972, 15:27:15.928, 1578576435928
208, 171844.61, 171804.89, 171996.88, 172006.41, -187500.02, 171913.55, -187500.02, -183383.67, 0.000, 0.000, 0.000, 15:27:15.928, 1578576435928
209, -172664.34, -179528.58, -179720.98, -179581.11, -179659.42, -179712.00, -179730.39, -179705.97, 0.000, 0.000, 0.000, 15:27:16.399, 1578576436399
210, 171850.22, 171810.52, 172002.44, 172012.05, -187500.02, 171919.13, -187500.02, -183324.44, 0.000, 0.000, 0.000, 15:27:16.399, 1578576436399
211, -172669.72, -179532.88, -179724.94, -179585.00, -179663.38, -179715.95, -179734.34, -179709.83, 0.000, 0.000, 0.000, 15:27:16.399, 1578576436399
212, 171857.13, 171817.47, 172009.30, 172019.02, -187500.02, 171926.11, -187500.02, -183272.66, 0.000, 0.000, 0.000, 15:27:16.399, 1578576436399
213, -172676.34, -179538.66, -179730.30, -179590.34, -179668.84, -179721.31, -179739.73, -179715.34, 0.000, 0.000, 0.000, 15:27:16.399, 1578576436399
214, 171864.80, 171825.05, 172016.92, 172026.59, -187500.02, 171933.72, -187500.02, -183214.94, 0.000, 0.000, 0.000, 15:27:16.399, 1578576436399
215, -172681.72, -179544.94, -179736.70, -179596.75, -179675.16, -179727.75, -179746.13, -179721.59, 0.000, 0.000, 0.000, 15:27:16.399, 1578576436399
216, 171873.11, 171833.41, 172025.25, 172034.89, -187500.02, 171941.95, -187500.02, -183161.81, 0.000, 0.000, 0.000, 15:27:16.399, 1578576436399
217, -172685.06, -179549.72, -179742.06, -179602.20, -179680.42, -179733.13, -179751.50, -179727.06, -0.054, 0.010, 0.978, 15:27:16.399, 1578576436399
218, 171878.88, 171839.13, 172031.16, 172040.77, -187500.02, 171947.89, -187500.02, -183171.06, 0.000, 0.000, 0.000, 15:27:16.399, 1578576436399
219, -172689.89, -179554.55, -179746.91, -179607.02, -179685.22, -179737.81, -179756.33, -179731.94, 0.000, 0.000, 0.000, 15:27:16.399, 1578576436399
220, 171884.78, 171845.06, 172037.08, 172046.72, -187500.02, 171953.80, -187500.02, -183089.91, 0.000, 0.000, 0.000, 15:27:16.399, 1578576436399
221, -172698.20, -179559.14, -179750.33, -179610.45, -179688.84, -179741.53, -179759.86, -179735.42, 0.000, 0.000, 0.000, 15:27:16.400, 1578576436400
222, 171892.42, 171852.61, 172044.67, 172054.36, -187500.02, 171961.33, -187500.02, -183023.78, 0.000, 0.000, 0.000, 15:27:16.400, 1578576436400
223, -172703.05, -179565.23, -179756.86, -179616.91, -179695.23, -179747.83, -179766.25, -179741.84, 0.000, 0.000, 0.000, 15:27:16.400, 1578576436400
224, 171900.69, 171860.88, 172052.95, 172062.61, -187500.02, 171969.73, -187500.02, -182948.34, 0.000, 0.000, 0.000, 15:27:16.400, 1578576436400
225, -172706.53, -179570.33, -179762.33, -179622.55, -179700.78, -179753.39, -179771.75, -179747.41, 0.000, 0.000, 0.000, 15:27:16.400, 1578576436400
226, 171909.63, 171869.83, 172061.94, 172071.56, -187500.02, 171978.66, -187500.02, -182868.95, 0.000, 0.000, 0.000, 15:27:16.400, 1578576436400
227, -172711.97, -179576.81, -179769.22, -179629.34, -179707.55, -179760.17, -179778.63, -179754.22, -0.048, 0.010, 0.974, 15:27:16.400, 1578576436400
228, 171918.44, 171878.58, 172070.63, 172080.33, -187500.02, 171987.44, -187500.02, -182813.14, 0.000, 0.000, 0.000, 15:27:16.400, 1578576436400
229, -172718.52, -179583.39, -179775.91, -179636.06, -179714.23, -179766.83, -179785.42, -179760.95, 0.000, 0.000, 0.000, 15:27:16.400, 1578576436400
230, 171926.06, 171886.27, 172078.30, 172088.06, -187500.02, 171995.11, -187500.02, -182751.56, 0.000, 0.000, 0.000, 15:27:16.400, 1578576436400
231, -172724.81, -179587.55, -179779.34, -179639.47, -179717.83, -179770.41, -179788.75, -179764.45, 0.000, 0.000, 0.000, 15:27:16.400, 1578576436400
232, 171929.75, 171890.08, 172082.08, 172091.69, -187500.02, 171998.83, -187500.02, -182709.67, 0.000, 0.000, 0.000, 15:27:16.400, 1578576436400
233, -172728.63, -179591.36, -179783.20, -179643.48, -179721.78, -179774.36, -179792.78, -179768.39, 0.000, 0.000, 0.000, 15:27:16.400, 1578576436400
234, 171939.92, 171900.08, 172092.13, 172101.75, -187500.02, 172008.92, -187500.02, -182608.41, 0.000, 0.000, 0.000, 15:27:16.400, 1578576436400
235, -172734.13, -179596.78, -179788.58, -179648.78, -179727.02, -179779.59, -179798.08, -179773.55, 0.000, 0.000, 0.000, 15:27:16.400, 1578576436400
236, 171943.11, 171903.30, 172095.42, 172105.05, -187500.02, 172012.16, -187500.02, -182616.63, -0.050, 0.010, 0.978, 15:27:16.400, 1578576436400
237, -172741.72, -179603.22, -179794.50, -179654.70, -179733.09, -179785.56, -179804.02, -179779.52, 0.000, 0.000, 0.000, 15:27:16.400, 1578576436400
238, 171953.38, 171913.67, 172105.63, 172115.33, -187500.02, 172022.55, -187500.02, -182515.75, 0.000, 0.000, 0.000, 15:27:16.400, 1578576436400
239, -172747.84, -179608.59, -179799.66, -179659.77, -179738.28, -179790.67, -179809.23, -179784.70, 0.000, 0.000, 0.000, 15:27:16.400, 1578576436400
240, 171957.28, 171917.63, 172109.56, 172119.31, -187500.02, 172026.47, -187500.02, -182516.03, 0.000, 0.000, 0.000, 15:27:16.401, 1578576436401
241, -172752.83, -179612.27, -179802.86, -179663.05, -179741.53, -179793.97, -179812.41, -179787.92, 0.000, 0.000, 0.000, 15:27:16.401, 1578576436401
242, 171965.67, 171926.02, 172118.02, 172127.69, -187500.02, 172034.83, -187500.02, -182414.53, 0.000, 0.000, 0.000, 15:27:16.401, 1578576436401
243, -172758.84, -179619.02, -179809.98, -179670.05, -179748.52, -179801.03, -179819.42, -179795.03, 0.000, 0.000, 0.000, 15:27:16.401, 1578576436401
244, 171976.69, 171936.92, 172128.94, 172138.63, -187500.02, 172045.81, -187500.02, -182314.67, 0.000, 0.000, 0.000, 15:27:16.401, 1578576436401
245, -172766.91, -179626.13, -179816.72, -179676.81, -179755.31, -179807.80, -179826.22, -179801.77, 0.000, 0.000, 0.000, 15:27:16.401, 1578576436401
246, 171984.53, 171944.88, 172136.97, 172146.58, -187500.02, 172053.63, -187500.02, -182211.61, -0.048, 0.006, 0.974, 15:27:16.401, 1578576436401
247, -172773.64, -179631.20, -179821.34, -179681.48, -179759.94, -179812.56, -179830.78, -179806.41, 0.000, 0.000, 0.000, 15:27:16.401, 1578576436401
248, 171993.09, 171953.48, 172145.47, 172155.13, -187500.02, 172062.22, -187500.02, -182118.05, 0.000, 0.000, 0.000, 15:27:16.401, 1578576436401
249, -172777.13, -179636.41, -179827.20, -179687.36, -179765.67, -179818.30, -179836.59, -179812.20, 0.000, 0.000, 0.000, 15:27:16.401, 1578576436401
250, 171999.08, 171959.42, 172151.39, 172161.06, -187500.02, 172068.23, -187500.02, -182108.89, 0.000, 0.000, 0.000, 15:27:16.401, 1578576436401
251, -172783.53, -179641.86, -179832.19, -179692.27, -179770.67, -179823.36, -179841.59, -179817.08, 0.000, 0.000, 0.000, 15:27:16.401, 1578576436401
252, 172006.56, 171966.88, 172158.92, 172168.64, -187500.02, 172075.72, -187500.02, -182075.06, 0.000, 0.000, 0.000, 15:27:16.401, 1578576436401
253, -172791.88, -179648.19, -179837.95, -179697.98, -179776.45, -179829.02, -179847.30, -179822.80, 0.000, 0.000, 0.000, 15:27:16.401, 1578576436401
254, 172012.11, 171972.48, 172164.53, 172174.16, -187500.02, 172081.17, -187500.02, -182028.00, 0.000, 0.000, 0.000, 15:27:16.401, 1578576436401
255, -172798.45, -179653.17, -179842.36, -179702.50, -179781.05, -179833.45, -179851.78, -179827.31, 0.000, 0.000, 0.000, 15:27:16.401, 1578576436401
0, 172021.02, 171981.45, 172173.42, 172183.11, -187500.02, 172090.17, -187500.02, -181975.63, -0.054, 0.010, 0.976, 15:27:16.401, 1578576436401
1, -172803.00, -179660.19, -179850.25, -179710.34, -179788.70, -179841.28, -179859.56, -179835.06, 0.000, 0.000, 0.000, 15:27:16.401, 1578576436401
2, 172030.27, 171990.56, 172182.66, 172192.25, -187500.02, 172099.33, -187500.02, -181892.61, 0.000, 0.000, 0.000, 15:27:16.401, 1578576436401
3, -172808.91, -179665.91, -179855.83, -179715.94, -179794.36, -179846.83, -179865.16, -179840.75, 0.000, 0.000, 0.000, 15:27:16.402, 1578576436402
4, 172038.39, 171998.64, 172190.75, 172200.42, -187500.02, 172107.38, -187500.02, -181825.42, 0.000, 0.000, 0.000, 15:27:16.402, 1578576436402
5, -172817.00, -179672.13, -179861.44, -179721.47, -179800.05, -179852.55, -179870.83, -179846.36, 0.000, 0.000, 0.000, 15:27:16.402, 1578576436402
6, 172044.72, 172005.00, 172197.00, 172206.81, -187500.02, 172113.72, -187500.02, -181797.03, 0.000, 0.000, 0.000, 15:27:16.402, 1578576436402
7, -172822.61, -179676.59, -179865.63, -179725.72, -179804.27, -179856.77, -179875.09, -179850.63, 0.000, 0.000, 0.000, 15:27:16.402, 1578576436402
8, 172052.56, 172012.92, 172204.98, 172214.69, -187500.02, 172121.69, -187500.02, -181691.83, 0.000, 0.000, 0.000, 15:27:16.402, 1578576436402
9, -172826.92, -179682.88, -179872.53, -179732.72, -179811.08, -179863.67, -179881.94, -179857.53, 0.000, 0.000, 0.000, 15:27:16.402, 1578576436402
10, 172061.58, 172021.91, 172214.02, 172223.69, -187500.02, 172130.67, -187500.02, -181595.92, -0.050, 0.010, 0.970, 15:27:16.402, 1578576436402
11, -172833.34, -179686.47, -179875.25, -179735.41, -179813.86, -179866.36, -179884.67, -179860.22, 0.000, 0.000, 0.000, 15:27:16.402, 1578576436402
12, 172061.48, 172021.81, 172213.84, 172223.58, -187500.02, 172130.53, -187500.02, -181718.88, 0.000, 0.000, 0.000, 15:27:16.402, 1578576436402
13, -172841.08, -179691.08, -179879.08, -179739.30, -179817.70, -179870.30, -179888.47, -179864.03, 0.000, 0.000, 0.000, 15:27:16.402, 1578576436402
14, 172067.03, 172027.31, 172219.45, 172229.03, -187500.02, 172136.13, -187500.02, -181695.83, 0.000, 0.000, 0.000, 15:27:16.402, 1578576436402
15, -172847.55, -179696.28, -179884.06, -179744.19, -179822.59, -179875.25, -179893.41, -179868.95, 0.000, 0.000, 0.000, 15:27:16.402, 1578576436402
16, 172079.08, 172039.30, 172231.42, 172241.08, -187500.02, 172148.13, -187500.02, -181532.59, 0.000, 0.000, 0.000, 15:27:16.402, 1578576436402
17, -172850.95, -179703.73, -179892.64, -179752.81, -179831.06, -179883.66, -179901.92, -179877.53, 0.000, 0.000, 0.000, 15:27:16.402, 1578576436402
18, 172086.59, 172046.80, 172238.88, 172248.70, -187500.02, 172155.64, -187500.02, -181485.67, 0.000, 0.000, 0.000, 15:27:16.402, 1578576436402
19, -172857.36, -179707.81, -179896.05, -179756.09, -179834.48, -179887.06, -179905.23, -179880.91, 0.000, 0.000, 0.000, 15:27:16.402, 1578576436402
20, 172092.38, 172052.61, 172244.69, 172254.47, -187500.02, 172161.44, -187500.02, -181443.30, -0.044, 0.008, 0.966, 15:27:16.402, 1578576436402
21, -172865.39, -179714.61, -179902.23, -179762.33, -179840.83, -179893.45, -179911.53, -179887.19, 0.000, 0.000, 0.000, 15:27:16.403, 1578576436403
22, 172101.25, 172061.53, 172253.59, 172263.34, -187500.02, 172170.44, -187500.02, -181351.72, 0.000, 0.000, 0.000, 15:27:16.403, 1578576436403
23, -172871.61, -179720.56, -179908.25, -179768.34, -179846.80, -179899.50, -179917.56, -179893.20, 0.000, 0.000, 0.000, 15:27:16.403, 1578576436403
24, 172112.11, 172072.38, 172264.52, 172274.14, -187500.02, 172181.16, -187500.02, -181222.13, 0.000, 0.000, 0.000, 15:27:16.403, 1578576436403
25, -172875.94, -179726.55, -179914.75, -179774.88, -179853.31, -179905.91, -179924.05, -179899.70, 0.000, 0.000, 0.000, 15:27:16.403, 1578576436403
26, 172120.63, 172080.86, 172273.00, 172282.66, -187500.02, 172189.70, -187500.02, -181153.39, 0.000, 0.000, 0.000, 15:27:16.403, 1578576436403
27, -172882.17, -179732.09, -179920.09, -179780.23, -179858.72, -179911.28, -179929.34, -179905.00, 0.000, 0.000, 0.000, 15:27:16.403, 1578576436403
28, 172126.42, 172086.64, 172278.80, 172288.48, -187500.02, 172195.48, -187500.02, -181135.58, 0.000, 0.000, 0.000, 15:27:16.403, 1578576436403
29, -172889.89, -179737.95, -179925.33, -179785.64, -179864.03, -179916.63, -179934.67, -179910.30, -0.052, 0.008, 0.966, 15:27:16.403, 1578576436403
30, 172133.44, 172093.61, 172285.77, 172295.48, -187500.02, 172202.42, -187500.02, -181056.34, 0.000, 0.000, 0.000, 15:27:16.403, 1578576436403
31, -172897.44, -179742.13, -179928.56, -179788.70, -179867.30, -179919.83, -179937.89, -179913.47, 0.000, 0.000, 0.000, 15:27:16.403, 1578576436403
32, 172139.47, 172099.70, 172291.80, 172301.56, -187500.02, 172208.55, -187500.02, -181024.92, 0.000, 0.000, 0.000, 15:27:16.403, 1578576436403
33, -172901.28, -179748.55, -179935.72, -179795.86, -179874.31, -179926.91, -179944.91, -179920.56, 0.000, 0.000, 0.000, 15:27:16.403, 1578576436403
34, 172149.42, 172109.66, 172301.81, 172311.38, -187500.02, 172218.52, -187500.02, -180960.45, 0.000, 0.000, 0.000, 15:27:16.403, 1578576436403
35, -172908.75, -179755.00, -179941.91, -179802.17, -179880.50, -179933.28, -179951.25, -179926.86, 0.000, 0.000, 0.000, 15:27:16.403, 1578576436403
36, 172153.13, 172113.50, 172305.61, 172315.25, -187500.02, 172222.33, -187500.02, -180947.61, 0.000, 0.000, 0.000, 15:27:16.403, 1578576436403
37, -172917.30, -179758.00, -179943.56, -179803.73, -179882.34, -179934.91, -179952.81, -179928.47, 0.000, 0.000, 0.000, 15:27:16.403, 1578576436403
38, 172159.92, 172120.19, 172312.23, 172322.00, -187500.02, 172229.02, -187500.02, -180912.80, 0.000, 0.000, 0.000, 15:27:16.404, 1578576436404
39, -172924.25, -179765.03, -179950.88, -179811.11, -179889.63, -179942.02, -179960.08, -179935.73, -0.058, 0.008, 0.968, 15:27:16.404, 1578576436404
40, 172166.56, 172126.73, 172318.80, 172328.59, -187500.02, 172235.58, -187500.02, -180886.30, 0.000, 0.000, 0.000, 15:27:16.404, 1578576436404
41, -172928.16, -179769.00, -179954.61, -179814.77, -179893.38, -179945.91, -179963.88, -179939.50, 0.000, 0.000, 0.000, 15:27:16.404, 1578576436404
42, 172174.23, 172134.52, 172326.67, 172336.39, -187500.02, 172243.41, -187500.02, -180838.69, 0.000, 0.000, 0.000, 15:27:16.404, 1578576436404
43, -172934.33, -179776.44, -179962.36, -179822.45, -179901.08, -179953.59, -179971.66, -179947.27, 0.000, 0.000, 0.000, 15:27:16.404, 1578576436404
44, 172181.36, 172141.53, 172333.73, 172343.45, -187500.02, 172250.42, -187500.02, -180799.81, 0.000, 0.000, 0.000, 15:27:16.404, 1578576436404
45, -172944.20, -179781.72, -179966.50, -179826.64, -179905.30, -179957.84, -179975.81, -179951.39, 0.000, 0.000, 0.000, 15:27:16.404, 1578576436404
