%OpenBCI Raw EEG Data
%Number of channels = 8
%Sample Rate = 250.0 Hz
%First Column = SampleIndex
%Last Column = Timestamp 
%Other Columns = EEG data in microvolts followed by Accel Data (in G) interleaved with Aux Data
0, -19530.46, -17289.68, -35848.87, -33169.79, -27253.68, -24617.81, -36413.36, 7839.58, 0.008, -0.002, 0.478, 16:10:32.655, 1574777432655
1, -72331.74, -99602.74, -187500.02, -187500.02, -187500.02, -187500.02, -187500.02, -187500.02, 0.000, 0.000, 0.000, 16:10:33.140, 1574777433140
2, -39162.20, -34668.94, -71956.55, -66565.35, -54620.17, -49290.69, -73021.65, 15811.18, 0.000, 0.000, 0.000, 16:10:33.140, 1574777433140
3, -71813.09, -99267.02, -187500.02, -187500.02, -187500.02, -187500.02, -187500.02, -187500.02, 0.000, 0.000, 0.000, 16:10:33.140, 1574777433140
4, -39320.52, -34812.62, -72327.13, -66890.86, -54797.91, -49391.27, -73307.08, 15961.25, 0.000, 0.000, 0.000, 16:10:33.140, 1574777433140
5, -72315.47, -99444.27, -187500.02, -187500.02, -187500.02, -187500.02, -187500.02, -187500.02, 0.000, 0.000, 0.000, 16:10:33.140, 1574777433140
6, -39479.19, -34958.48, -72701.17, -67219.49, -54976.57, -49494.76, -73596.00, 16109.42, 0.004, -0.002, 0.734, 16:10:33.141, 1574777433141
7, -72091.46, -99431.17, -187500.02, -187500.02, -187500.02, -187500.02, -187500.02, -187500.02, 0.000, 0.000, 0.000, 16:10:33.141, 1574777433141
8, -39620.30, -35083.50, -73049.70, -67528.35, -55130.66, -49575.86, -73862.30, 16272.96, 0.000, 0.000, 0.000, 16:10:33.141, 1574777433141
9, -72036.67, -99266.73, -187500.02, -187500.02, -187500.02, -187500.02, -187500.02, -187500.02, 0.000, 0.000, 0.000, 16:10:33.141, 1574777433141
10, -39787.15, -35236.70, -73429.39, -67868.79, -55316.50, -49684.66, -74157.32, 16409.76, 0.000, 0.000, 0.000, 16:10:33.141, 1574777433141
11, -72373.38, -99497.52, -187500.02, -187500.02, -187500.02, -187500.02, -187500.02, -187500.02, 0.000, 0.000, 0.000, 16:10:33.141, 1574777433141
12, -39927.25, -35364.59, -73784.23, -68182.16, -55474.10, -49768.28, -74427.98, 16568.92, 0.000, 0.000, 0.000, 16:10:33.141, 1574777433141
13, -71886.38, -99188.70, -187500.02, -187500.02, -187500.02, -187500.02, -187500.02, -187500.02, 0.000, 0.000, 0.000, 16:10:33.141, 1574777433141
14, -40084.97, -35506.97, -74158.48, -68510.55, -55650.54, -49869.24, -74712.78, 16712.76, 0.000, 0.000, 0.000, 16:10:33.141, 1574777433141
15, -72349.82, -99376.14, -187500.02, -187500.02, -187500.02, -187500.02, -187500.02, -187500.02, 0.000, 0.000, 0.000, 16:10:33.141, 1574777433141
16, -40244.31, -35653.00, -74532.02, -68836.55, -55827.14, -49972.64, -75000.29, 16853.66, 0.016, -0.006, 0.848, 16:10:33.141, 1574777433141
17, -72069.80, -99295.09, -187500.02, -187500.02, -187500.02, -187500.02, -187500.02, -187500.02, 0.000, 0.000, 0.000, 16:10:33.142, 1574777433142
18, -40386.00, -35778.73, -74878.79, -69144.11, -55983.81, -50055.84, -75268.42, 17012.92, 0.000, 0.000, 0.000, 16:10:33.142, 1574777433142
19, -72029.84, -99111.68, -187500.02, -187500.02, -187500.02, -187500.02, -187500.02, -187500.02, 0.000, 0.000, 0.000, 16:10:33.142, 1574777433142
20, -40555.72, -35935.46, -75262.23, -69483.91, -56171.32, -50170.19, -75567.98, 17143.03, 0.000, 0.000, 0.000, 16:10:33.142, 1574777433142
21, -72338.13, -99323.82, -187500.02, -187500.02, -187500.02, -187500.02, -187500.02, -187500.02, 0.000, 0.000, 0.000, 16:10:33.142, 1574777433142
22, -40699.15, -36061.25, -75616.42, -69793.27, -56333.03, -50252.31, -75837.05, 17299.82, 0.000, 0.000, 0.000, 16:10:33.142, 1574777433142
23, -71840.63, -99005.04, -187500.02, -187500.02, -187500.02, -187500.02, -187500.02, -187500.02, 0.000, 0.000, 0.000, 16:10:33.142, 1574777433142
24, -40854.54, -36203.32, -75985.80, -70119.39, -56506.01, -50349.36, -76121.30, 17441.58, 0.000, 0.000, 0.000, 16:10:33.142, 1574777433142
25, -72317.30, -99203.81, -187500.02, -187500.02, -187500.02, -187500.02, -187500.02, -187500.02, 0.000, 0.000, 0.000, 16:10:33.142, 1574777433142
26, -41012.36, -36347.20, -76357.55, -70449.52, -56681.54, -50452.47, -76407.31, 17579.69, 0.010, -0.002, 0.912, 16:10:33.142, 1574777433142
27, -72037.86, -99119.52, -187500.02, -187500.02, -187500.02, -187500.02, -187500.02, -187500.02, 0.000, 0.000, 0.000, 16:10:33.142, 1574777433142
28, -41153.16, -36475.18, -76710.24, -70757.38, -56840.64, -50536.64, -76673.84, 17731.06, 0.000, 0.000, 0.000, 16:10:33.143, 1574777433143
29, -71973.51, -98929.45, -187500.02, -187500.02, -187500.02, -187500.02, -187500.02, -187500.02, 0.000, 0.000, 0.000, 16:10:33.143, 1574777433143
30, -41321.69, -36636.61, -77093.60, -71096.76, -57029.98, -50650.44, -76971.05, 17853.43, 0.000, 0.000, 0.000, 16:10:33.143, 1574777433143
31, -72221.44, -99091.29, -187500.02, -187500.02, -187500.02, -187500.02, -187500.02, -187500.02, 0.000, 0.000, 0.000, 16:10:33.143, 1574777433143
32, -41463.80, -36766.52, -77443.61, -71405.39, -57187.05, -50733.54, -77240.23, 18001.18, 0.000, 0.000, 0.000, 16:10:33.143, 1574777433143
33, -71674.13, -98731.07, -187500.02, -187500.02, -187500.02, -187500.02, -187500.02, -187500.02, 0.000, 0.000, 0.000, 16:10:33.143, 1574777433143
34, -41621.23, -36909.57, -77810.38, -71728.53, -57363.52, -50830.97, -77524.20, 18134.30, 0.000, 0.000, 0.000, 16:10:33.143, 1574777433143
35, -72183.13, -98942.97, -187500.02, -187500.02, -187500.02, -187500.02, -187500.02, -187500.02, 0.000, 0.000, 0.000, 16:10:33.143, 1574777433143
36, -41779.97, -37057.27, -78182.09, -72055.72, -57546.00, -50933.48, -77814.38, 18259.01, 0.006, -0.008, 0.932, 16:10:33.143, 1574777433143
37, -71897.89, -98860.11, -187500.02, -187500.02, -187500.02, -187500.02, -187500.02, -187500.02, 0.000, 0.000, 0.000, 16:10:33.143, 1574777433143
38, -41921.10, -37185.37, -78533.81, -72362.14, -57707.66, -51015.98, -78083.88, 18400.04, 0.000, 0.000, 0.000, 16:10:33.144, 1574777433144
39, -71836.29, -98690.68, -187500.02, -187500.02, -187500.02, -187500.02, -187500.02, -187500.02, 0.000, 0.000, 0.000, 16:10:33.144, 1574777433144
40, -42088.27, -37343.08, -78916.07, -72699.60, -57894.50, -51127.98, -78381.09, 18519.25, 0.000, 0.000, 0.000, 16:10:33.144, 1574777433144
41, -72113.37, -98874.84, -187500.02, -187500.02, -187500.02, -187500.02, -187500.02, -187500.02, 0.000, 0.000, 0.000, 16:10:33.144, 1574777433144
42, -42227.90, -37469.99, -79266.13, -73009.27, -58050.14, -51214.98, -78648.21, 18663.04, 0.000, 0.000, 0.000, 16:10:33.144, 1574777433144
43, -71627.37, -98545.69, -187500.02, -187500.02, -187500.02, -187500.02, -187500.02, -187500.02, 0.000, 0.000, 0.000, 16:10:33.144, 1574777433144
44, -42386.08, -37615.10, -79634.84, -73333.23, -58223.54, -51315.91, -78931.36, 18789.05, 0.000, 0.000, 0.000, 16:10:33.145, 1574777433145
45, -72062.16, -98708.66, -187500.02, -187500.02, -187500.02, -187500.02, -187500.02, -187500.02, 0.002, -0.008, 0.954, 16:10:33.145, 1574777433145
46, -42545.11, -37763.32, -80005.56, -73657.66, -58403.50, -51420.21, -79219.07, 18912.77, 0.000, 0.000, 0.000, 16:10:33.145, 1574777433145
47, -71825.49, -98668.84, -187500.02, -187500.02, -187500.02, -187500.02, -187500.02, -187500.02, 0.000, 0.000, 0.000, 16:10:33.145, 1574777433145
48, -42679.58, -37888.82, -80352.28, -73958.08, -58561.73, -51503.78, -79482.51, 19055.31, 0.000, 0.000, 0.000, 16:10:33.146, 1574777433146
49, -71669.68, -98412.05, -187500.02, -187500.02, -187500.02, -187500.02, -187500.02, -187500.02, 0.000, 0.000, 0.000, 16:10:33.146, 1574777433146
50, -42845.30, -38043.56, -80732.40, -74297.06, -58750.20, -51616.30, -79775.20, 19170.20, 0.000, 0.000, 0.000, 16:10:33.146, 1574777433146
51, -72011.26, -98647.01, -187500.02, -187500.02, -187500.02, -187500.02, -187500.02, -187500.02, 0.000, 0.000, 0.000, 16:10:33.146, 1574777433146
52, -42989.02, -38174.21, -81088.70, -74608.82, -58913.65, -51704.57, -80047.61, 19305.60, 0.000, 0.000, 0.000, 16:10:33.146, 1574777433146
53, -71510.07, -98316.40, -187500.02, -187500.02, -187500.02, -187500.02, -187500.02, -187500.02, 0.000, 0.000, 0.000, 16:10:33.146, 1574777433146
54, -43147.76, -38316.61, -81458.31, -74933.30, -59089.20, -51805.38, -80334.09, 19429.43, 0.000, 0.000, 0.000, 16:10:33.146, 1574777433146
55, -71902.19, -98430.09, -187500.02, -187500.02, -187500.02, -187500.02, -187500.02, -187500.02, 0.010, -0.010, 0.968, 16:10:33.146, 1574777433146
56, -43306.41, -38459.71, -81828.30, -75259.53, -59268.09, -51907.48, -80623.12, 19549.06, 0.000, 0.000, 0.000, 16:10:33.146, 1574777433146
57, -71660.23, -98378.38, -187500.02, -187500.02, -187500.02, -187500.02, -187500.02, -187500.02, 0.000, 0.000, 0.000, 16:10:33.146, 1574777433146
58, -43449.46, -38582.91, -82174.48, -75560.59, -59425.35, -51990.09, -80890.60, 19686.30, 0.000, 0.000, 0.000, 16:10:33.147, 1574777433147
59, -71617.09, -98226.62, -187500.02, -187500.02, -187500.02, -187500.02, -187500.02, -187500.02, 0.000, 0.000, 0.000, 16:10:33.147, 1574777433147
60, -43621.02, -38739.04, -82558.96, -75896.53, -59613.62, -52105.69, -81187.73, 19793.52, 0.000, 0.000, 0.000, 16:10:33.147, 1574777433147
61, -71932.43, -98432.30, -187500.02, -187500.02, -187500.02, -187500.02, -187500.02, -187500.02, 0.000, 0.000, 0.000, 16:10:33.147, 1574777433147
62, -43763.66, -38867.31, -82911.67, -76204.80, -59772.90, -52192.35, -81456.77, 19925.89, 0.000, 0.000, 0.000, 16:10:33.147, 1574777433147
63, -71453.52, -98136.80, -187500.02, -187500.02, -187500.02, -187500.02, -187500.02, -187500.02, 0.000, 0.000, 0.000, 16:10:33.147, 1574777433147
64, -43916.84, -39008.46, -83277.57, -76525.48, -59946.91, -52292.91, -81737.60, 20045.92, 0.000, 0.000, 0.000, 16:10:33.147, 1574777433147
65, -71860.16, -98268.41, -187500.02, -187500.02, -187500.02, -187500.02, -187500.02, -187500.02, 0.010, -0.008, 0.974, 16:10:33.147, 1574777433147
66, -44074.62, -39156.32, -83647.89, -76849.56, -60125.03, -52396.71, -82024.35, 20158.03, 0.000, 0.000, 0.000, 16:10:33.147, 1574777433147
67, -71658.86, -98255.74, -187500.02, -187500.02, -187500.02, -187500.02, -187500.02, -187500.02, 0.000, 0.000, 0.000, 16:10:33.147, 1574777433147
68, -44218.50, -39283.01, -83998.01, -77156.32, -60285.00, -52483.13, -82293.04, 20285.01, 0.000, 0.000, 0.000, 16:10:33.147, 1574777433147
69, -71471.76, -97960.02, -187500.02, -187500.02, -187500.02, -187500.02, -187500.02, -187500.02, 0.000, 0.000, 0.000, 16:10:33.147, 1574777433147
70, -44392.24, -39439.27, -84378.39, -77493.61, -60474.99, -52600.29, -82588.46, 20387.76, 0.000, 0.000, 0.000, 16:10:33.148, 1574777433148
71, -71857.91, -98238.02, -187500.02, -187500.02, -187500.02, -187500.02, -187500.02, -187500.02, 0.000, 0.000, 0.000, 16:10:33.148, 1574777433148
72, -44534.71, -39566.70, -84728.15, -77799.00, -60637.17, -52689.07, -82857.22, 20517.63, 0.000, 0.000, 0.000, 16:10:33.148, 1574777433148
73, -71299.36, -97867.45, -187500.02, -187500.02, -187500.02, -187500.02, -187500.02, -187500.02, 0.000, 0.000, 0.000, 16:10:33.148, 1574777433148
74, -44688.31, -39709.79, -85093.18, -78118.74, -60810.94, -52790.28, -83140.15, 20632.18, 0.000, 0.000, 0.000, 16:10:33.148, 1574777433148
75, -71773.82, -98053.05, -187500.02, -187500.02, -187500.02, -187500.02, -187500.02, -187500.02, 0.012, -0.004, 0.970, 16:10:33.148, 1574777433148
76, -44847.39, -39858.43, -85465.78, -78445.44, -60991.85, -52897.32, -83427.46, 20737.37, 0.000, 0.000, 0.000, 16:10:33.148, 1574777433148
77, -71533.45, -97997.33, -187500.02, -187500.02, -187500.02, -187500.02, -187500.02, -187500.02, 0.000, 0.000, 0.000, 16:10:33.148, 1574777433148
78, -44988.92, -39984.79, -85813.93, -78751.18, -61150.10, -52983.29, -83692.51, 20862.74, 0.000, 0.000, 0.000, 16:10:33.148, 1574777433148
79, -71348.87, -97725.71, -187500.02, -187500.02, -187500.02, -187500.02, -187500.02, -187500.02, 0.000, 0.000, 0.000, 16:10:33.148, 1574777433148
80, -45156.36, -40138.57, -86191.07, -79084.25, -61335.98, -53094.55, -83986.21, 20962.83, 0.000, 0.000, 0.000, 16:10:33.148, 1574777433148
81, -71712.10, -97976.92, -187500.02, -187500.02, -187500.02, -187500.02, -187500.02, -187500.02, 0.000, 0.000, 0.000, 16:10:33.149, 1574777433149
82, -45300.97, -40265.37, -86540.34, -79391.47, -61496.80, -53182.82, -84254.80, 21082.39, 0.000, 0.000, 0.000, 16:10:33.149, 1574777433149
83, -71242.14, -97681.70, -187500.02, -187500.02, -187500.02, -187500.02, -187500.02, -187500.02, 0.000, 0.000, 0.000, 16:10:33.149, 1574777433149
84, -45457.90, -40405.98, -86904.97, -79713.05, -61671.39, -53283.81, -84537.18, 21188.63, 0.010, -0.006, 0.974, 16:10:33.149, 1574777433149
85, -71678.98, -97842.16, -187500.02, -187500.02, -187500.02, -187500.02, -187500.02, -187500.02, 0.000, 0.000, 0.000, 16:10:33.149, 1574777433149
86, -45619.11, -40554.16, -87275.73, -80037.93, -61854.29, -53392.57, -84823.82, 21292.94, 0.000, 0.000, 0.000, 16:10:33.149, 1574777433149
87, -71414.83, -97767.48, -187500.02, -187500.02, -187500.02, -187500.02, -187500.02, -187500.02, 0.000, 0.000, 0.000, 16:10:33.149, 1574777433149
88, -45757.73, -40680.00, -87620.87, -80340.30, -62012.88, -53476.61, -85090.67, 21415.79, 0.000, 0.000, 0.000, 16:10:33.149, 1574777433149
89, -71281.95, -97537.11, -187500.02, -187500.02, -187500.02, -187500.02, -187500.02, -187500.02, 0.000, 0.000, 0.000, 16:10:33.149, 1574777433149
90, -45924.68, -40836.95, -88000.24, -80675.11, -62201.68, -53588.53, -85385.67, 21511.09, 0.000, 0.000, 0.000, 16:10:33.149, 1574777433149
91, -71662.66, -97806.67, -187500.02, -187500.02, -187500.02, -187500.02, -187500.02, -187500.02, 0.000, 0.000, 0.000, 16:10:33.149, 1574777433149
92, -46068.00, -40967.10, -88353.98, -80982.18, -62364.96, -53677.58, -85657.91, 21629.63, 0.000, 0.000, 0.000, 16:10:33.149, 1574777433149
93, -71119.88, -97458.36, -187500.02, -187500.02, -187500.02, -187500.02, -187500.02, -187500.02, 0.000, 0.000, 0.000, 16:10:33.150, 1574777433150
94, -46223.09, -41111.76, -88719.37, -81302.32, -62539.84, -53777.45, -85941.70, 21737.85, 0.010, -0.008, 0.968, 16:10:33.150, 1574777433150
95, -71583.11, -97636.41, -187500.02, -187500.02, -187500.02, -187500.02, -187500.02, -187500.02, 0.000, 0.000, 0.000, 16:10:33.150, 1574777433150
96, -46382.17, -41257.05, -89088.33, -81627.49, -62715.06, -53882.86, -86227.48, 21837.90, 0.000, 0.000, 0.000, 16:10:33.150, 1574777433150
97, -71340.28, -97580.25, -187500.02, -187500.02, -187500.02, -187500.02, -187500.02, -187500.02, 0.000, 0.000, 0.000, 16:10:33.150, 1574777433150
98, -46522.79, -41384.10, -89433.77, -81930.43, -62873.33, -53967.30, -86493.78, 21955.78, 0.000, 0.000, 0.000, 16:10:33.150, 1574777433150
99, -71213.52, -97359.08, -187500.02, -187500.02, -187500.02, -187500.02, -187500.02, -187500.02, 0.000, 0.000, 0.000, 16:10:33.150, 1574777433150
100, -46693.51, -41542.19, -89811.63, -82264.56, -63063.66, -54084.16, -86789.01, 22048.72, 0.000, 0.000, 0.000, 16:10:33.150, 1574777433150
101, -71534.43, -97562.66, -187500.02, -187500.02, -187500.02, -187500.02, -187500.02, -187500.02, 0.000, 0.000, 0.000, 16:10:33.150, 1574777433150
102, -46837.86, -41673.33, -90164.79, -82571.12, -63227.96, -54176.69, -87057.74, 22162.25, 0.000, 0.000, 0.000, 16:10:33.150, 1574777433150
103, -71022.58, -97249.11, -187500.02, -187500.02, -187500.02, -187500.02, -187500.02, -187500.02, 0.000, 0.000, 0.000, 16:10:33.150, 1574777433150
104, -46992.84, -41814.32, -90526.51, -82891.95, -63402.87, -54280.11, -87338.97, 22264.84, 0.008, -0.002, 0.972, 16:10:33.150, 1574777433150
105, -71444.31, -97381.70, -187500.02, -187500.02, -187500.02, -187500.02, -187500.02, -187500.02, 0.000, 0.000, 0.000, 16:10:33.151, 1574777433151
106, -47152.64, -41960.91, -90895.78, -83219.92, -63582.75, -54387.02, -87628.18, 22363.19, 0.000, 0.000, 0.000, 16:10:33.151, 1574777433151
107, -71193.59, -97316.70, -187500.02, -187500.02, -187500.02, -187500.02, -187500.02, -187500.02, 0.000, 0.000, 0.000, 16:10:33.151, 1574777433151
108, -47294.37, -42087.44, -91244.71, -83523.37, -63740.29, -54473.14, -87893.07, 22480.85, 0.000, 0.000, 0.000, 16:10:33.151, 1574777433151
109, -71124.57, -97164.23, -187500.02, -187500.02, -187500.02, -187500.02, -187500.02, -187500.02, 0.000, 0.000, 0.000, 16:10:33.151, 1574777433151
110, -47463.82, -42245.55, -91622.10, -83855.54, -63927.71, -54590.60, -88186.19, 22569.58, 0.000, 0.000, 0.000, 16:10:33.151, 1574777433151
111, -71423.05, -97341.73, -187500.02, -187500.02, -187500.02, -187500.02, -187500.02, -187500.02, 0.000, 0.000, 0.000, 16:10:33.151, 1574777433151
112, -47608.43, -42375.33, -91972.44, -84163.19, -64088.13, -54681.66, -88453.47, 22684.29, 0.000, 0.000, 0.000, 16:10:33.151, 1574777433151
113, -70902.26, -97014.66, -187500.02, -187500.02, -187500.02, -187500.02, -187500.02, -187500.02, 0.000, 0.000, 0.000, 16:10:33.151, 1574777433151
114, -47763.87, -42517.02, -92335.10, -84482.02, -64262.09, -54784.57, -88734.50, 22788.65, 0.004, -0.004, 0.972, 16:10:33.151, 1574777433151
115, -71331.90, -97161.22, -187500.02, -187500.02, -187500.02, -187500.02, -187500.02, -187500.02, 0.000, 0.000, 0.000, 16:10:33.151, 1574777433151
116, -47925.80, -42663.89, -92704.53, -84810.36, -64445.57, -54892.51, -89024.29, 22884.54, 0.000, 0.000, 0.000, 16:10:33.151, 1574777433151
117, -71091.55, -97102.97, -187500.02, -187500.02, -187500.02, -187500.02, -187500.02, -187500.02, 0.000, 0.000, 0.000, 16:10:33.152, 1574777433152
118, -48066.98, -42788.99, -93051.27, -85110.91, -64605.48, -54980.06, -89293.25, 23002.07, 0.000, 0.000, 0.000, 16:10:33.152, 1574777433152
119, -70977.09, -96904.69, -187500.02, -187500.02, -187500.02, -187500.02, -187500.02, -187500.02, 0.000, 0.000, 0.000, 16:10:33.152, 1574777433152
120, -48231.33, -42944.02, -93428.01, -85441.57, -64793.86, -55094.66, -89589.34, 23093.82, 0.000, 0.000, 0.000, 16:10:33.152, 1574777433152
121, -71312.52, -97126.24, -187500.02, -187500.02, -187500.02, -187500.02, -187500.02, -187500.02, 0.000, 0.000, 0.000, 16:10:33.621, 1574777433621
122, -48370.85, -43073.69, -93776.07, -85745.13, -64956.96, -55184.96, -89858.77, 23202.99, 0.000, 0.000, 0.000, 16:10:33.621, 1574777433621
123, -70797.00, -96806.23, -187500.02, -187500.02, -187500.02, -187500.02, -187500.02, -187500.02, 0.000, 0.000, 0.000, 16:10:33.621, 1574777433621
124, -48524.72, -43215.98, -94136.98, -86062.20, -65130.84, -55288.56, -90138.57, 23300.71, 0.006, -0.002, 0.968, 16:10:33.621, 1574777433621
125, -71245.67, -96974.63, -187500.02, -187500.02, -187500.02, -187500.02, -187500.02, -187500.02, 0.000, 0.000, 0.000, 16:10:33.621, 1574777433621
126, -48682.01, -43364.48, -94507.22, -86391.52, -65311.93, -55397.68, -90427.48, 23394.90, 0.000, 0.000, 0.000, 16:10:33.621, 1574777433621
127, -71085.34, -96988.17, -187500.02, -187500.02, -187500.02, -187500.02, -187500.02, -187500.02, 0.000, 0.000, 0.000, 16:10:33.621, 1574777433621
128, -48819.27, -43488.09, -94850.56, -86693.85, -65471.48, -55486.28, -90694.52, 23511.93, 0.000, 0.000, 0.000, 16:10:33.621, 1574777433621
129, -70938.13, -96762.30, -187500.02, -187500.02, -187500.02, -187500.02, -187500.02, -187500.02, 0.000, 0.000, 0.000, 16:10:33.622, 1574777433622
130, -48987.76, -43641.29, -95225.00, -87025.77, -65658.13, -55599.65, -90988.38, 23601.03, 0.000, 0.000, 0.000, 16:10:33.622, 1574777433622
131, -71308.95, -97014.05, -187500.02, -187500.02, -187500.02, -187500.02, -187500.02, -187500.02, 0.000, 0.000, 0.000, 16:10:33.622, 1574777433622
132, -49134.43, -43770.66, -95576.81, -87333.31, -65820.68, -55690.40, -91260.52, 23710.39, 0.000, 0.000, 0.000, 16:10:33.622, 1574777433622
133, -70789.42, -96700.37, -187500.02, -187500.02, -187500.02, -187500.02, -187500.02, -187500.02, 0.012, -0.004, 0.968, 16:10:33.622, 1574777433622
134, -49292.39, -43910.92, -95940.86, -87647.06, -65996.20, -55795.79, -91544.45, 23809.57, 0.000, 0.000, 0.000, 16:10:33.622, 1574777433622
135, -71212.27, -96842.51, -187500.02, -187500.02, -187500.02, -187500.02, -187500.02, -187500.02, 0.000, 0.000, 0.000, 16:10:33.622, 1574777433622
136, -49453.10, -44057.30, -96310.40, -87968.80, -66177.52, -55903.34, -91829.73, 23904.27, 0.000, 0.000, 0.000, 16:10:33.622, 1574777433622
137, -70992.54, -96795.43, -187500.02, -187500.02, -187500.02, -187500.02, -187500.02, -187500.02, 0.000, 0.000, 0.000, 16:10:33.622, 1574777433622
138, -49594.23, -44181.51, -96652.90, -88267.26, -66335.75, -55988.50, -92095.17, 24018.11, 0.000, 0.000, 0.000, 16:10:33.622, 1574777433622
139, -70878.81, -96605.33, -187500.02, -187500.02, -187500.02, -187500.02, -187500.02, -187500.02, 0.000, 0.000, 0.000, 16:10:33.622, 1574777433622
140, -49764.68, -44338.82, -97031.02, -88600.86, -66525.41, -56106.12, -92391.83, 24101.42, 0.000, 0.000, 0.000, 16:10:33.622, 1574777433622
141, -71251.32, -96848.36, -187500.02, -187500.02, -187500.02, -187500.02, -187500.02, -187500.02, 0.000, 0.000, 0.000, 16:10:33.623, 1574777433623
142, -49910.32, -44470.63, -97384.54, -88907.32, -66688.75, -56195.93, -92664.12, 24208.99, 0.000, 0.000, 0.000, 16:10:33.623, 1574777433623
143, -70725.27, -96528.82, -187500.02, -187500.02, -187500.02, -187500.02, -187500.02, -187500.02, 0.004, -0.004, 0.972, 16:10:33.623, 1574777433623
144, -50064.64, -44612.58, -97747.46, -89223.49, -66861.71, -56294.86, -92944.95, 24307.99, 0.000, 0.000, 0.000, 16:10:33.623, 1574777433623
145, -71119.59, -96647.09, -187500.02, -187500.02, -187500.02, -187500.02, -187500.02, -187500.02, 0.000, 0.000, 0.000, 16:10:33.623, 1574777433623
146, -50221.42, -44761.56, -98119.77, -89548.91, -67043.81, -56402.30, -93229.66, 24401.18, 0.000, 0.000, 0.000, 16:10:33.623, 1574777433623
147, -70950.09, -96644.13, -187500.02, -187500.02, -187500.02, -187500.02, -187500.02, -187500.02, 0.000, 0.000, 0.000, 16:10:33.623, 1574777433623
148, -50360.40, -44887.22, -98468.59, -89851.23, -67204.20, -56488.69, -93497.16, 24511.73, 0.000, 0.000, 0.000, 16:10:33.623, 1574777433623
149, -70686.23, -96309.82, -187500.02, -187500.02, -187500.02, -187500.02, -187500.02, -187500.02, 0.000, 0.000, 0.000, 16:10:33.623, 1574777433623
150, -50527.10, -45043.43, -98846.83, -90186.20, -67393.86, -56604.76, -93792.79, 24597.20, 0.000, 0.000, 0.000, 16:10:33.623, 1574777433623
151, -70733.55, -96235.21, -187500.02, -187500.02, -187500.02, -187500.02, -187500.02, -187500.02, 0.000, 0.000, 0.000, 16:10:33.623, 1574777433623
152, -50670.60, -45171.76, -99194.11, -90493.98, -67555.30, -56694.19, -94062.46, 24702.95, 0.000, 0.000, 0.000, 16:10:33.624, 1574777433624
153, -69877.30, -95577.02, -187500.02, -187500.02, -187500.02, -187500.02, -187500.02, -187500.02, 0.004, -0.010, 0.972, 16:10:33.624, 1574777433624
154, -50825.63, -45311.84, -99554.98, -90812.14, -67727.91, -56795.85, -94342.11, 24798.57, 0.000, 0.000, 0.000, 16:10:33.624, 1574777433624
155, -70396.64, -95830.66, -187500.02, -187500.02, -187500.02, -187500.02, -187500.02, -187500.02, 0.000, 0.000, 0.000, 16:10:33.624, 1574777433624
156, -50988.53, -45460.52, -99927.07, -91139.59, -67912.15, -56906.58, -94632.99, 24888.11, 0.000, 0.000, 0.000, 16:10:33.624, 1574777433624
157, -70597.40, -96204.03, -187500.02, -187500.02, -187500.02, -187500.02, -187500.02, -187500.02, 0.000, 0.000, 0.000, 16:10:33.624, 1574777433624
158, -51131.49, -45589.89, -100276.09, -91442.55, -68072.50, -56996.61, -94901.84, 24999.98, 0.000, 0.000, 0.000, 16:10:33.624, 1574777433624
159, -70783.57, -96321.33, -187500.02, -187500.02, -187500.02, -187500.02, -187500.02, -187500.02, 0.000, 0.000, 0.000, 16:10:33.624, 1574777433624
160, -51296.98, -45745.14, -100650.86, -91773.73, -68259.45, -57108.93, -95194.40, 25084.74, 0.000, 0.000, 0.000, 16:10:33.624, 1574777433624
161, -71154.43, -96561.86, -187500.02, -187500.02, -187500.02, -187500.02, -187500.02, -187500.02, 0.000, 0.000, 0.000, 16:10:33.624, 1574777433624
162, -51438.47, -45874.45, -100999.98, -92080.60, -68422.80, -57199.61, -95463.27, 25193.30, 0.000, 0.000, 0.000, 16:10:33.624, 1574777433624
163, -70589.20, -96202.84, -187500.02, -187500.02, -187500.02, -187500.02, -187500.02, -187500.02, 0.006, -0.006, 0.972, 16:10:33.625, 1574777433625
164, -51592.88, -46016.79, -101364.82, -92400.25, -68598.84, -57304.86, -95743.98, 25289.77, 0.000, 0.000, 0.000, 16:10:33.625, 1574777433625
165, -70971.41, -96318.29, -187500.02, -187500.02, -187500.02, -187500.02, -187500.02, -187500.02, 0.000, 0.000, 0.000, 16:10:33.625, 1574777433625
166, -51756.45, -46167.71, -101739.35, -92728.35, -68782.95, -57417.43, -96035.43, 25379.42, 0.000, 0.000, 0.000, 16:10:33.625, 1574777433625
167, -70761.64, -96277.66, -187500.02, -187500.02, -187500.02, -187500.02, -187500.02, -187500.02, 0.000, 0.000, 0.000, 16:10:33.625, 1574777433625
168, -51897.75, -46290.84, -102089.89, -93032.77, -68941.83, -57507.84, -96301.64, 25491.11, 0.000, 0.000, 0.000, 16:10:33.625, 1574777433625
169, -70609.23, -96061.85, -187500.02, -187500.02, -187500.02, -187500.02, -187500.02, -187500.02, 0.000, 0.000, 0.000, 16:10:33.625, 1574777433625
170, -52065.82, -46445.38, -102467.79, -93365.29, -69131.24, -57625.21, -96594.55, 25576.18, 0.000, 0.000, 0.000, 16:10:33.625, 1574777433625
171, -70978.16, -96295.85, -187500.02, -187500.02, -187500.02, -187500.02, -187500.02, -187500.02, 0.000, 0.000, 0.000, 16:10:33.625, 1574777433625
172, -52209.56, -46578.33, -102821.09, -93670.01, -69297.13, -57721.25, -96866.78, 25678.85, 0.010, -0.004, 0.972, 16:10:33.625, 1574777433625
173, -70432.16, -95945.71, -187500.02, -187500.02, -187500.02, -187500.02, -187500.02, -187500.02, 0.000, 0.000, 0.000, 16:10:33.625, 1574777433625
174, -52363.81, -46721.20, -103183.43, -93987.70, -69473.82, -57825.97, -97149.35, 25773.42, 0.000, 0.000, 0.000, 16:10:33.625, 1574777433625
175, -70833.59, -96074.19, -187500.02, -187500.02, -187500.02, -187500.02, -187500.02, -187500.02, 0.000, 0.000, 0.000, 16:10:33.626, 1574777433626
176, -52526.06, -46871.14, -103554.45, -94317.36, -69660.53, -57936.88, -97438.76, 25861.71, 0.000, 0.000, 0.000, 16:10:33.626, 1574777433626
177, -70686.20, -96095.47, -187500.02, -187500.02, -187500.02, -187500.02, -187500.02, -187500.02, 0.000, 0.000, 0.000, 16:10:33.626, 1574777433626
178, -52665.22, -46998.36, -103901.32, -94621.68, -69822.51, -58025.24, -97708.16, 25970.63, 0.000, 0.000, 0.000, 16:10:33.627, 1574777433627
179, -70528.34, -95887.39, -187500.02, -187500.02, -187500.02, -187500.02, -187500.02, -187500.02, 0.000, 0.000, 0.000, 16:10:33.627, 1574777433627
180, -52831.70, -47156.52, -104282.91, -94958.63, -70017.46, -58144.46, -98004.26, 26053.88, 0.000, 0.000, 0.000, 16:10:33.627, 1574777433627
181, -70918.73, -96138.98, -187500.02, -187500.02, -187500.02, -187500.02, -187500.02, -187500.02, 0.000, 0.000, 0.000, 16:10:33.627, 1574777433627
182, -52975.91, -47289.43, -104638.77, -95268.36, -70188.23, -58240.87, -98275.56, 26157.11, 0.012, -0.004, 0.978, 16:10:33.627, 1574777433627
183, -70410.45, -95845.73, -187500.02, -187500.02, -187500.02, -187500.02, -187500.02, -187500.02, 0.000, 0.000, 0.000, 16:10:33.627, 1574777433627
184, -53131.93, -47429.08, -105002.01, -95586.92, -70364.09, -58346.25, -98556.02, 26254.60, 0.000, 0.000, 0.000, 16:10:33.627, 1574777433627
185, -70813.84, -95992.09, -187500.02, -187500.02, -187500.02, -187500.02, -187500.02, -187500.02, 0.000, 0.000, 0.000, 16:10:33.627, 1574777433627
186, -53294.34, -47579.02, -105372.53, -95915.53, -70548.25, -58459.31, -98844.75, 26343.12, 0.000, 0.000, 0.000, 16:10:33.627, 1574777433627
187, -70640.07, -95956.26, -187500.02, -187500.02, -187500.02, -187500.02, -187500.02, -187500.02, 0.000, 0.000, 0.000, 16:10:33.627, 1574777433627
188, -53436.65, -47706.29, -105722.65, -96223.50, -70712.36, -58551.69, -99115.25, 26450.56, 0.000, 0.000, 0.000, 16:10:33.627, 1574777433627
189, -70473.53, -95735.31, -187500.02, -187500.02, -187500.02, -187500.02, -187500.02, -187500.02, 0.000, 0.000, 0.000, 16:10:33.627, 1574777433627
190, -53606.54, -47863.98, -106102.90, -96557.01, -70905.84, -58672.05, -99414.88, 26531.54, 0.000, 0.000, 0.000, 16:10:33.627, 1574777433627
191, -70831.83, -95959.70, -187500.02, -187500.02, -187500.02, -187500.02, -187500.02, -187500.02, 0.000, 0.000, 0.000, 16:10:33.627, 1574777433627
192, -53750.87, -47995.95, -106453.51, -96864.48, -71072.42, -58765.55, -99689.47, 26637.53, 0.010, -0.002, 0.976, 16:10:33.628, 1574777433628
193, -70346.37, -95676.30, -187500.02, -187500.02, -187500.02, -187500.02, -187500.02, -187500.02, 0.000, 0.000, 0.000, 16:10:33.628, 1574777433628
194, -53905.03, -48135.84, -106814.53, -97180.66, -71247.73, -58865.51, -99969.73, 26737.22, 0.000, 0.000, 0.000, 16:10:33.628, 1574777433628
195, -70708.40, -95767.19, -187500.02, -187500.02, -187500.02, -187500.02, -187500.02, -187500.02, 0.000, 0.000, 0.000, 16:10:33.628, 1574777433628
196, -54071.77, -48289.76, -107189.51, -97511.13, -71435.13, -58977.56, -100264.65, 26822.49, 0.000, 0.000, 0.000, 16:10:33.628, 1574777433628
197, -70571.12, -95793.34, -187500.02, -187500.02, -187500.02, -187500.02, -187500.02, -187500.02, 0.000, 0.000, 0.000, 16:10:33.628, 1574777433628
198, -54217.89, -48417.95, -107535.20, -97813.53, -71596.10, -59063.32, -100533.61, 26928.84, 0.000, 0.000, 0.000, 16:10:33.628, 1574777433628
199, -70395.21, -95569.87, -187500.02, -187500.02, -187500.02, -187500.02, -187500.02, -187500.02, 0.000, 0.000, 0.000, 16:10:33.628, 1574777433628
200, -54387.16, -48572.44, -107911.98, -98145.79, -71786.80, -59177.87, -100826.70, 27011.32, 0.000, 0.000, 0.000, 16:10:33.628, 1574777433628
201, -70775.52, -95794.81, -187500.02, -187500.02, -187500.02, -187500.02, -187500.02, -187500.02, 0.000, 0.000, 0.000, 16:10:33.629, 1574777433629
202, -54534.23, -48704.20, -108265.74, -98453.35, -71955.02, -59269.96, -101097.45, 27112.13, 0.010, -0.004, 0.972, 16:10:33.629, 1574777433629
203, -70270.51, -95509.29, -187500.02, -187500.02, -187500.02, -187500.02, -187500.02, -187500.02, 0.000, 0.000, 0.000, 16:10:33.629, 1574777433629
204, -54692.88, -48847.32, -108629.45, -98773.20, -72132.34, -59373.36, -101378.50, 27204.98, 0.000, 0.000, 0.000, 16:10:33.629, 1574777433629
205, -70647.76, -95615.40, -187500.02, -187500.02, -187500.02, -187500.02, -187500.02, -187500.02, 0.000, 0.000, 0.000, 16:10:33.629, 1574777433629
206, -54856.70, -48999.31, -109000.67, -99100.30, -72320.05, -59486.26, -101671.66, 27288.84, 0.000, 0.000, 0.000, 16:10:33.629, 1574777433629
207, -70512.87, -95640.12, -187500.02, -187500.02, -187500.02, -187500.02, -187500.02, -187500.02, 0.000, 0.000, 0.000, 16:10:33.629, 1574777433629
208, -54997.29, -49127.25, -109347.66, -99404.30, -72482.32, -59573.39, -101938.16, 27394.41, 0.000, 0.000, 0.000, 16:10:33.629, 1574777433629
209, -70287.05, -95366.40, -187500.02, -187500.02, -187500.02, -187500.02, -187500.02, -187500.02, 0.000, 0.000, 0.000, 16:10:33.630, 1574777433630
210, -55160.91, -49282.67, -109725.94, -99737.13, -72673.70, -59691.43, -102233.23, 27478.72, 0.000, 0.000, 0.000, 16:10:33.630, 1574777433630
211, -70698.27, -95633.26, -187500.02, -187500.02, -187500.02, -187500.02, -187500.02, -187500.02, 0.008, -0.008, 0.978, 16:10:33.630, 1574777433630
212, -55306.64, -49417.65, -110078.94, -100048.62, -72841.77, -59788.59, -102508.09, 27578.07, 0.000, 0.000, 0.000, 16:10:33.630, 1574777433630
213, -70166.99, -95327.02, -187500.02, -187500.02, -187500.02, -187500.02, -187500.02, -187500.02, 0.000, 0.000, 0.000, 16:10:33.630, 1574777433630
214, -55462.97, -49557.57, -110441.02, -100368.49, -73019.37, -59893.87, -102787.13, 27672.26, 0.000, 0.000, 0.000, 16:10:33.630, 1574777433630
215, -70487.50, -95378.13, -187500.02, -187500.02, -187500.02, -187500.02, -187500.02, -187500.02, 0.000, 0.000, 0.000, 16:10:33.630, 1574777433630
216, -55626.41, -49708.91, -110809.69, -100697.63, -73205.70, -60008.13, -103073.86, 27759.17, 0.000, 0.000, 0.000, 16:10:33.630, 1574777433630
217, -70385.04, -95420.33, -187500.02, -187500.02, -187500.02, -187500.02, -187500.02, -187500.02, 0.000, 0.000, 0.000, 16:10:33.630, 1574777433630
218, -55767.11, -49836.57, -111153.57, -101002.12, -73366.29, -60096.42, -103337.43, 27867.91, 0.000, 0.000, 0.000, 16:10:33.630, 1574777433630
219, -70197.48, -95187.63, -187500.02, -187500.02, -187500.02, -187500.02, -187500.02, -187500.02, 0.000, 0.000, 0.000, 16:10:33.630, 1574777433630
220, -55935.21, -49995.29, -111532.43, -101333.77, -73557.45, -60213.09, -103633.41, 27948.98, 0.000, 0.000, 0.000, 16:10:33.630, 1574777433630
221, -70567.49, -95420.91, -187500.02, -187500.02, -187500.02, -187500.02, -187500.02, -187500.02, 0.006, -0.008, 0.982, 16:10:33.630, 1574777433630
222, -56082.54, -50127.90, -111887.94, -101642.77, -73725.48, -60310.48, -103909.99, 28050.07, 0.000, 0.000, 0.000, 16:10:33.630, 1574777433630
223, -70044.38, -95115.79, -187500.02, -187500.02, -187500.02, -187500.02, -187500.02, -187500.02, 0.000, 0.000, 0.000, 16:10:33.631, 1574777433631
224, -56236.81, -50268.25, -112247.82, -101958.89, -73900.01, -60412.18, -104192.02, 28146.70, 0.000, 0.000, 0.000, 16:10:33.631, 1574777433631
225, -70368.54, -95178.27, -187500.02, -187500.02, -187500.02, -187500.02, -187500.02, -187500.02, 0.000, 0.000, 0.000, 16:10:33.631, 1574777433631
226, -56400.63, -50419.23, -112620.65, -102286.70, -74085.41, -60524.95, -104484.59, 28231.24, 0.000, 0.000, 0.000, 16:10:33.631, 1574777433631
227, -70255.62, -95206.65, -187500.02, -187500.02, -187500.02, -187500.02, -187500.02, -187500.02, 0.000, 0.000, 0.000, 16:10:33.631, 1574777433631
228, -56541.51, -50547.64, -112970.34, -102590.39, -74249.07, -60614.49, -104751.72, 28336.00, 0.000, 0.000, 0.000, 16:10:33.631, 1574777433631
229, -70094.84, -95001.28, -187500.02, -187500.02, -187500.02, -187500.02, -187500.02, -187500.02, 0.000, 0.000, 0.000, 16:10:33.631, 1574777433631
230, -56713.26, -50706.83, -113352.17, -102925.00, -74442.15, -60733.69, -105048.52, 28415.37, 0.000, 0.000, 0.000, 16:10:33.631, 1574777433631
231, -70522.92, -95281.84, -187500.02, -187500.02, -187500.02, -187500.02, -187500.02, -187500.02, 0.008, -0.004, 0.982, 16:10:33.631, 1574777433631
232, -56860.36, -50840.25, -113705.63, -103234.75, -74607.73, -60827.90, -105322.42, 28516.76, 0.000, 0.000, 0.000, 16:10:33.631, 1574777433631
233, -70053.49, -95030.85, -187500.02, -187500.02, -187500.02, -187500.02, -187500.02, -187500.02, 0.000, 0.000, 0.000, 16:10:33.631, 1574777433631
234, -57014.63, -50982.67, -114069.09, -103554.58, -74781.67, -60929.24, -105601.33, 28613.41, 0.000, 0.000, 0.000, 16:10:33.632, 1574777433632
235, -70449.59, -95162.46, -187500.02, -187500.02, -187500.02, -187500.02, -187500.02, -187500.02, 0.000, 0.000, 0.000, 16:10:33.632, 1574777433632
236, -57180.14, -51138.02, -114445.40, -103883.10, -74970.32, -61045.59, -105893.64, 28695.15, 0.000, 0.000, 0.000, 16:10:33.632, 1574777433632
237, -70353.86, -95226.30, -187500.02, -187500.02, -187500.02, -187500.02, -187500.02, -187500.02, 0.000, 0.000, 0.000, 16:10:33.632, 1574777433632
238, -57323.24, -51266.05, -114792.61, -104185.55, -75134.56, -61137.92, -106161.87, 28797.67, 0.000, 0.000, 0.000, 16:10:33.632, 1574777433632
239, -70215.77, -95045.42, -187500.02, -187500.02, -187500.02, -187500.02, -187500.02, -187500.02, 0.000, 0.000, 0.000, 16:10:33.632, 1574777433632
240, -57492.02, -51421.77, -115171.77, -104520.82, -75325.22, -61253.66, -106456.46, 28876.98, 0.000, 0.000, 0.000, 16:10:33.632, 1574777433632
241, -70641.37, -95308.66, -187500.02, -187500.02, -187500.02, -187500.02, -187500.02, -187500.02, 0.004, -0.010, 0.978, 16:10:33.632, 1574777433632
242, -57637.08, -51554.72, -115525.97, -104831.84, -75492.41, -61345.70, -106728.77, 28976.78, 0.000, 0.000, 0.000, 16:10:34.102, 1574777434102
243, -70193.82, -95083.70, -187500.02, -187500.02, -187500.02, -187500.02, -187500.02, -187500.02, 0.000, 0.000, 0.000, 16:10:34.103, 1574777434103
244, -57791.80, -51696.45, -115888.52, -105149.73, -75667.76, -61450.93, -107011.14, 29068.51, 0.000, 0.000, 0.000, 16:10:34.103, 1574777434103
245, -70563.80, -95196.97, -187500.02, -187500.02, -187500.02, -187500.02, -187500.02, -187500.02, 0.000, 0.000, 0.000, 16:10:34.103, 1574777434103
246, -57957.36, -51850.48, -116264.59, -105479.73, -75855.07, -61564.86, -107304.80, 29149.89, 0.000, 0.000, 0.000, 16:10:34.103, 1574777434103
247, -70474.18, -95255.73, -187500.02, -187500.02, -187500.02, -187500.02, -187500.02, -187500.02, 0.000, 0.000, 0.000, 16:10:34.103, 1574777434103
248, -58099.45, -51976.77, -116611.75, -105783.12, -76015.02, -61653.46, -107573.17, 29258.41, 0.000, 0.000, 0.000, 16:10:34.103, 1574777434103
249, -70286.89, -95034.67, -187500.02, -187500.02, -187500.02, -187500.02, -187500.02, -187500.02, 0.000, 0.000, 0.000, 16:10:34.103, 1574777434103
250, -58268.34, -52132.83, -116987.64, -106114.91, -76207.76, -61770.50, -107867.34, 29339.39, 0.002, -0.010, 0.972, 16:10:34.103, 1574777434103
251, -70718.39, -95310.36, -187500.02, -187500.02, -187500.02, -187500.02, -187500.02, -187500.02, 0.000, 0.000, 0.000, 16:10:34.104, 1574777434104
252, -58418.59, -52268.46, -117346.95, -106428.66, -76380.55, -61869.56, -108143.93, 29434.54, 0.000, 0.000, 0.000, 16:10:34.104, 1574777434104
253, -70195.83, -95007.14, -187500.02, -187500.02, -187500.02, -187500.02, -187500.02, -187500.02, 0.000, 0.000, 0.000, 16:10:34.104, 1574777434104
254, -58577.44, -52414.01, -117709.87, -106747.73, -76560.53, -61976.45, -108428.53, 29525.09, 0.000, 0.000, 0.000, 16:10:34.104, 1574777434104
255, -70562.60, -95111.27, -187500.02, -187500.02, -187500.02, -187500.02, -187500.02, -187500.02, 0.000, 0.000, 0.000, 16:10:34.104, 1574777434104
0, -58739.93, -52570.09, -118084.13, -107076.05, -76749.23, -62090.98, -108719.91, 29608.42, 0.000, 0.000, 0.000, 16:10:34.104, 1574777434104
1, -70446.77, -95142.08, -187500.02, -187500.02, -187500.02, -187500.02, -187500.02, -187500.02, 0.000, 0.000, 0.000, 16:10:34.104, 1574777434104
2, -58880.93, -52699.76, -118432.30, -107377.22, -76912.41, -62178.95, -108985.72, 29714.16, 0.000, 0.000, 0.000, 16:10:34.104, 1574777434104
3, -70205.95, -94870.52, -187500.02, -187500.02, -187500.02, -187500.02, -187500.02, -187500.02, 0.000, 0.000, 0.000, 16:10:34.105, 1574777434105
4, -59050.25, -52859.68, -118808.66, -107709.84, -77102.14, -62299.70, -109281.43, 29792.97, 0.004, -0.004, 0.970, 16:10:34.105, 1574777434105
5, -70661.02, -95171.89, -187500.02, -187500.02, -187500.02, -187500.02, -187500.02, -187500.02, 0.000, 0.000, 0.000, 16:10:34.105, 1574777434105
6, -59200.25, -52994.04, -119164.23, -108020.75, -77271.59, -62396.26, -109556.45, 29890.21, 0.000, 0.000, 0.000, 16:10:34.105, 1574777434105
7, -70164.74, -94897.08, -187500.02, -187500.02, -187500.02, -187500.02, -187500.02, -187500.02, 0.000, 0.000, 0.000, 16:10:34.105, 1574777434105
8, -59356.96, -53136.38, -119524.98, -108335.59, -77447.92, -62500.57, -109834.79, 29983.43, 0.000, 0.000, 0.000, 16:10:34.105, 1574777434105
9, -70512.55, -94978.33, -187500.02, -187500.02, -187500.02, -187500.02, -187500.02, -187500.02, 0.000, 0.000, 0.000, 16:10:34.105, 1574777434105
10, -59522.29, -53292.01, -119896.48, -108663.77, -77637.17, -62616.44, -110126.48, 30063.68, 0.000, 0.000, 0.000, 16:10:34.106, 1574777434106
11, -70440.70, -95041.52, -187500.02, -187500.02, -187500.02, -187500.02, -187500.02, -187500.02, 0.000, 0.000, 0.000, 16:10:34.106, 1574777434106
12, -59667.38, -53424.31, -120247.22, -108967.84, -77803.73, -62707.86, -110396.00, 30161.22, 0.000, 0.000, 0.000, 16:10:34.106, 1574777434106
13, -70189.80, -94770.30, -187500.02, -187500.02, -187500.02, -187500.02, -187500.02, -187500.02, 0.000, 0.000, 0.000, 16:10:34.106, 1574777434106
14, -59837.79, -53584.02, -120629.57, -109299.73, -77999.07, -62827.76, -110692.98, 30236.23, 0.008, -0.008, 0.970, 16:10:34.106, 1574777434106
15, -70559.02, -94983.24, -187500.02, -187500.02, -187500.02, -187500.02, -187500.02, -187500.02, 0.000, 0.000, 0.000, 16:10:34.106, 1574777434106
16, -59988.50, -53719.91, -120985.32, -109611.05, -78171.63, -62925.81, -110968.34, 30334.89, 0.000, 0.000, 0.000, 16:10:34.106, 1574777434106
17, -70129.24, -94781.41, -187500.02, -187500.02, -187500.02, -187500.02, -187500.02, -187500.02, 0.000, 0.000, 0.000, 16:10:34.106, 1574777434106
18, -60144.30, -53859.86, -121347.23, -109927.10, -78348.59, -63030.49, -111247.51, 30427.12, 0.000, 0.000, 0.000, 16:10:34.106, 1574777434106
19, -70480.93, -94865.05, -187500.02, -187500.02, -187500.02, -187500.02, -187500.02, -187500.02, 0.000, 0.000, 0.000, 16:10:34.106, 1574777434106
20, -60312.49, -54013.84, -121724.29, -110258.58, -78537.39, -63149.13, -111540.14, 30505.30, 0.000, 0.000, 0.000, 16:10:34.106, 1574777434106
21, -70371.98, -94896.09, -187500.02, -187500.02, -187500.02, -187500.02, -187500.02, -187500.02, 0.000, 0.000, 0.000, 16:10:34.106, 1574777434106
22, -60454.83, -54144.33, -122072.15, -110564.62, -78698.30, -63241.64, -111806.20, 30606.62, 0.000, 0.000, 0.000, 16:10:34.106, 1574777434106
23, -70171.69, -94674.38, -187500.02, -187500.02, -187500.02, -187500.02, -187500.02, -187500.02, 0.000, 0.000, 0.000, 16:10:34.106, 1574777434106
24, -60623.72, -54301.26, -122449.85, -110898.24, -78889.67, -63359.41, -112100.21, 30684.09, 0.008, -0.006, 0.978, 16:10:34.107, 1574777434107
25, -70585.76, -94930.07, -187500.02, -187500.02, -187500.02, -187500.02, -187500.02, -187500.02, 0.000, 0.000, 0.000, 16:10:34.107, 1574777434107
26, -60772.96, -54439.82, -122804.95, -111211.59, -79058.14, -63458.66, -112373.84, 30779.71, 0.000, 0.000, 0.000, 16:10:34.107, 1574777434107
27, -70118.74, -94687.98, -187500.02, -187500.02, -187500.02, -187500.02, -187500.02, -187500.02, 0.000, 0.000, 0.000, 16:10:34.107, 1574777434107
28, -60931.03, -54585.53, -123165.88, -111528.48, -79231.92, -63564.92, -112654.02, 30868.45, 0.000, 0.000, 0.000, 16:10:34.108, 1574777434108
29, -70458.80, -94767.59, -187500.02, -187500.02, -187500.02, -187500.02, -187500.02, -187500.02, 0.000, 0.000, 0.000, 16:10:34.109, 1574777434109
30, -61099.03, -54742.95, -123539.61, -111860.71, -79421.36, -63682.55, -112946.16, 30949.48, 0.000, 0.000, 0.000, 16:10:34.109, 1574777434109
31, -70367.54, -94810.87, -187500.02, -187500.02, -187500.02, -187500.02, -187500.02, -187500.02, 0.000, 0.000, 0.000, 16:10:34.109, 1574777434109
32, -61241.36, -54872.75, -123885.01, -112163.62, -79584.08, -63772.61, -113211.89, 31053.41, 0.000, 0.000, 0.000, 16:10:34.109, 1574777434109
33, -70173.37, -94600.23, -187500.02, -187500.02, -187500.02, -187500.02, -187500.02, -187500.02, 0.012, -0.008, 0.972, 16:10:34.109, 1574777434109
34, -61409.96, -55031.13, -124260.85, -112496.48, -79776.86, -63890.87, -113505.09, 31131.55, 0.000, 0.000, 0.000, 16:10:34.109, 1574777434109
35, -70569.17, -94833.20, -187500.02, -187500.02, -187500.02, -187500.02, -187500.02, -187500.02, 0.000, 0.000, 0.000, 16:10:34.109, 1574777434109
36, -61562.43, -55168.53, -124617.16, -112808.52, -79949.95, -63990.32, -113779.47, 31226.44, 0.000, 0.000, 0.000, 16:10:34.109, 1574777434109
37, -70100.19, -94587.88, -187500.02, -187500.02, -187500.02, -187500.02, -187500.02, -187500.02, 0.000, 0.000, 0.000, 16:10:34.109, 1574777434109
38, -61719.73, -55311.85, -124978.66, -113127.54, -80125.21, -64094.32, -114058.53, 31314.73, 0.000, 0.000, 0.000, 16:10:34.110, 1574777434110
39, -70413.47, -94638.38, -187500.02, -187500.02, -187500.02, -187500.02, -187500.02, -187500.02, 0.000, 0.000, 0.000, 16:10:34.110, 1574777434110
40, -61883.39, -55467.42, -125354.81, -113457.48, -80313.97, -64208.96, -114349.51, 31391.50, 0.000, 0.000, 0.000, 16:10:34.110, 1574777434110
41, -70305.60, -94666.30, -187500.02, -187500.02, -187500.02, -187500.02, -187500.02, -187500.02, 0.000, 0.000, 0.000, 16:10:34.110, 1574777434110
42, -62025.71, -55596.23, -125705.63, -113763.22, -80476.63, -64299.75, -114617.22, 31490.41, 0.000, 0.000, 0.000, 16:10:34.110, 1574777434110
43, -70132.22, -94473.02, -187500.02, -187500.02, -187500.02, -187500.02, -187500.02, -187500.02, 0.008, -0.008, 0.972, 16:10:34.110, 1574777434110
44, -62197.93, -55755.60, -126087.15, -114101.05, -80672.45, -64422.64, -114916.44, 31564.04, 0.000, 0.000, 0.000, 16:10:34.111, 1574777434111
45, -70523.22, -94694.08, -187500.02, -187500.02, -187500.02, -187500.02, -187500.02, -187500.02, 0.000, 0.000, 0.000, 16:10:34.111, 1574777434111
46, -62348.94, -55893.71, -126446.16, -114413.55, -80843.91, -64523.16, -115193.84, 31655.23, 0.000, 0.000, 0.000, 16:10:34.111, 1574777434111
47, -70072.36, -94475.32, -187500.02, -187500.02, -187500.02, -187500.02, -187500.02, -187500.02, 0.000, 0.000, 0.000, 16:10:34.111, 1574777434111
48, -62503.34, -56034.91, -126809.69, -114730.07, -81016.64, -64625.93, -115470.43, 31746.70, 0.000, 0.000, 0.000, 16:10:34.111, 1574777434111
49, -70428.09, -94571.84, -187500.02, -187500.02, -187500.02, -187500.02, -187500.02, -187500.02, 0.000, 0.000, 0.000, 16:10:34.111, 1574777434111
50, -62672.39, -56188.42, -127185.22, -115061.75, -81203.62, -64739.90, -115761.52, 31827.16, 0.000, 0.000, 0.000, 16:10:34.111, 1574777434111
51, -70313.55, -94580.53, -187500.02, -187500.02, -187500.02, -187500.02, -187500.02, -187500.02, 0.000, 0.000, 0.000, 16:10:34.112, 1574777434112
52, -62817.96, -56317.03, -127535.00, -115367.25, -81369.38, -64832.98, -116030.43, 31927.10, 0.000, 0.000, 0.000, 16:10:34.112, 1574777434112
53, -70135.32, -94391.32, -187500.02, -187500.02, -187500.02, -187500.02, -187500.02, -187500.02, 0.006, -0.004, 0.972, 16:10:34.112, 1574777434112
54, -62988.44, -56477.71, -127914.05, -115702.41, -81564.73, -64954.86, -116324.17, 32004.19, 0.000, 0.000, 0.000, 16:10:34.112, 1574777434112
55, -70559.31, -94652.23, -187500.02, -187500.02, -187500.02, -187500.02, -187500.02, -187500.02, 0.000, 0.000, 0.000, 16:10:34.112, 1574777434112
56, -63136.93, -56615.45, -128272.55, -116015.45, -81734.27, -65052.16, -116595.99, 32097.26, 0.000, 0.000, 0.000, 16:10:34.112, 1574777434112
57, -70083.47, -94410.59, -187500.02, -187500.02, -187500.02, -187500.02, -187500.02, -187500.02, 0.000, 0.000, 0.000, 16:10:34.112, 1574777434112
58, -63291.78, -56757.05, -128631.45, -116326.03, -81907.61, -65151.33, -116872.88, 32188.16, 0.000, 0.000, 0.000, 16:10:34.112, 1574777434112
59, -70428.83, -94489.67, -187500.02, -187500.02, -187500.02, -187500.02, -187500.02, -187500.02, 0.000, 0.000, 0.000, 16:10:34.113, 1574777434113
60, -63463.44, -56916.32, -129007.78, -116656.74, -82097.58, -65270.87, -117168.00, 32265.79, 0.000, 0.000, 0.000, 16:10:34.113, 1574777434113
61, -70313.24, -94508.52, -187500.02, -187500.02, -187500.02, -187500.02, -187500.02, -187500.02, 0.000, 0.000, 0.000, 16:10:34.113, 1574777434113
62, -63608.41, -57050.64, -129355.30, -116960.70, -82264.32, -65365.89, -117439.52, 32367.04, 0.000, 0.000, 0.000, 16:10:34.113, 1574777434113
63, -70088.20, -94277.87, -187500.02, -187500.02, -187500.02, -187500.02, -187500.02, -187500.02, 0.012, -0.004, 0.972, 16:10:34.113, 1574777434113
64, -63774.89, -57211.46, -129732.91, -117296.54, -82459.70, -65484.26, -117732.58, 32444.34, 0.000, 0.000, 0.000, 16:10:34.113, 1574777434113
65, -70531.11, -94549.13, -187500.02, -187500.02, -187500.02, -187500.02, -187500.02, -187500.02, 0.000, 0.000, 0.000, 16:10:34.113, 1574777434113
66, -63921.63, -57349.99, -130088.02, -117610.83, -82632.07, -65583.05, -118004.91, 32537.70, 0.000, 0.000, 0.000, 16:10:34.114, 1574777434114
67, -70052.73, -94300.17, -187500.02, -187500.02, -187500.02, -187500.02, -187500.02, -187500.02, 0.000, 0.000, 0.000, 16:10:34.114, 1574777434114
68, -64078.40, -57490.79, -130451.80, -117929.09, -82813.66, -65688.00, -118286.03, 32625.41, 0.000, 0.000, 0.000, 16:10:34.114, 1574777434114
69, -70368.43, -94354.31, -187500.02, -187500.02, -187500.02, -187500.02, -187500.02, -187500.02, 0.000, 0.000, 0.000, 16:10:34.114, 1574777434114
70, -64249.04, -57649.30, -130826.74, -118263.08, -83009.66, -65805.61, -118579.15, 32702.41, 0.000, 0.000, 0.000, 16:10:34.115, 1574777434115
71, -70320.55, -94428.80, -187500.02, -187500.02, -187500.02, -187500.02, -187500.02, -187500.02, 0.000, 0.000, 0.000, 16:10:34.115, 1574777434115
72, -64393.43, -57779.26, -131171.59, -118568.36, -83171.91, -65895.78, -118842.74, 32802.57, 0.000, 0.000, 0.000, 16:10:34.115, 1574777434115
73, -70069.12, -94176.95, -187500.02, -187500.02, -187500.02, -187500.02, -187500.02, -187500.02, 0.012, -0.006, 0.972, 16:10:34.115, 1574777434115
74, -64564.22, -57938.27, -131550.86, -118902.02, -83365.63, -66013.13, -119135.60, 32875.13, 0.000, 0.000, 0.000, 16:10:34.115, 1574777434115
75, -70469.98, -94402.23, -187500.02, -187500.02, -187500.02, -187500.02, -187500.02, -187500.02, 0.000, 0.000, 0.000, 16:10:34.115, 1574777434115
76, -64716.59, -58079.96, -131911.50, -119216.91, -83539.48, -66114.63, -119410.99, 32965.67, 0.000, 0.000, 0.000, 16:10:34.115, 1574777434115
77, -70009.04, -94174.29, -187500.02, -187500.02, -187500.02, -187500.02, -187500.02, -187500.02, 0.000, 0.000, 0.000, 16:10:34.115, 1574777434115
78, -64875.18, -58225.20, -132276.80, -119535.52, -83716.02, -66219.05, -119691.46, 33053.00, 0.000, 0.000, 0.000, 16:10:34.116, 1574777434116
79, -70359.53, -94267.49, -187500.02, -187500.02, -187500.02, -187500.02, -187500.02, -187500.02, 0.000, 0.000, 0.000, 16:10:34.116, 1574777434116
80, -65045.92, -58381.88, -132649.53, -119865.02, -83904.38, -66334.41, -119984.95, 33129.66, 0.000, 0.000, 0.000, 16:10:34.116, 1574777434116
81, -70291.18, -94319.55, -187500.02, -187500.02, -187500.02, -187500.02, -187500.02, -187500.02, 0.000, 0.000, 0.000, 16:10:34.116, 1574777434116
82, -65188.48, -58512.75, -132996.55, -120167.47, -84065.55, -66424.60, -120252.74, 33230.98, 0.010, -0.008, 0.974, 16:10:34.116, 1574777434116
83, -70025.84, -94053.23, -187500.02, -187500.02, -187500.02, -187500.02, -187500.02, -187500.02, 0.000, 0.000, 0.000, 16:10:34.116, 1574777434116
84, -65360.84, -58677.33, -133378.27, -120504.60, -84260.06, -66543.51, -120548.34, 33301.21, 0.000, 0.000, 0.000, 16:10:34.116, 1574777434116
85, -70461.66, -94312.63, -187500.02, -187500.02, -187500.02, -187500.02, -187500.02, -187500.02, 0.000, 0.000, 0.000, 16:10:34.116, 1574777434116
86, -65516.38, -58824.31, -133740.03, -120823.11, -84434.45, -66646.17, -120827.88, 33388.74, 0.000, 0.000, 0.000, 16:10:34.116, 1574777434116
87, -69968.00, -94049.12, -187500.02, -187500.02, -187500.02, -187500.02, -187500.02, -187500.02, 0.000, 0.000, 0.000, 16:10:34.116, 1574777434116
88, -65669.94, -58967.25, -134101.14, -121141.49, -84612.39, -66749.55, -121107.27, 33475.29, 0.000, 0.000, 0.000, 16:10:34.116, 1574777434116
89, -70336.55, -94160.84, -187500.02, -187500.02, -187500.02, -187500.02, -187500.02, -187500.02, 0.000, 0.000, 0.000, 16:10:34.116, 1574777434116
90, -65837.75, -59124.95, -134478.64, -121473.52, -84802.07, -66865.94, -121397.10, 33548.36, 0.000, 0.000, 0.000, 16:10:34.117, 1574777434117
91, -70305.15, -94255.42, -187500.02, -187500.02, -187500.02, -187500.02, -187500.02, -187500.02, 0.000, 0.000, 0.000, 16:10:34.117, 1574777434117
92, -65982.77, -59255.21, -134827.48, -121778.83, -84964.95, -66958.25, -121664.66, 33644.47, 0.014, -0.008, 0.974, 16:10:34.117, 1574777434117
93, -70027.52, -93982.96, -187500.02, -187500.02, -187500.02, -187500.02, -187500.02, -187500.02, 0.000, 0.000, 0.000, 16:10:34.117, 1574777434117
94, -66155.69, -59416.41, -135207.42, -122114.41, -85160.08, -67080.53, -121958.98, 33714.81, 0.000, 0.000, 0.000, 16:10:34.117, 1574777434117
95, -70436.18, -94211.82, -187500.02, -187500.02, -187500.02, -187500.02, -187500.02, -187500.02, 0.000, 0.000, 0.000, 16:10:34.117, 1574777434117
96, -66308.19, -59558.86, -135565.94, -122429.77, -85334.11, -67183.66, -122235.96, 33807.08, 0.000, 0.000, 0.000, 16:10:34.117, 1574777434117
97, -69965.72, -93974.15, -187500.02, -187500.02, -187500.02, -187500.02, -187500.02, -187500.02, 0.000, 0.000, 0.000, 16:10:34.117, 1574777434117
98, -66465.39, -59702.87, -135925.95, -122748.60, -85512.18, -67288.78, -122512.99, 33897.05, 0.000, 0.000, 0.000, 16:10:34.117, 1574777434117
99, -70243.62, -94005.13, -187500.02, -187500.02, -187500.02, -187500.02, -187500.02, -187500.02, 0.000, 0.000, 0.000, 16:10:34.117, 1574777434117
100, -66636.02, -59862.51, -136306.56, -123082.34, -85708.07, -67407.23, -122805.69, 33969.62, 0.000, 0.000, 0.000, 16:10:34.117, 1574777434117
101, -70228.71, -94111.57, -187500.02, -187500.02, -187500.02, -187500.02, -187500.02, -187500.02, 0.000, 0.000, 0.000, 16:10:34.117, 1574777434117
102, -66782.96, -59996.77, -136656.14, -123386.07, -85872.16, -67500.41, -123072.45, 34064.08, 0.008, -0.008, 0.972, 16:10:34.118, 1574777434118
103, -69947.84, -93843.21, -187500.02, -187500.02, -187500.02, -187500.02, -187500.02, -187500.02, 0.000, 0.000, 0.000, 16:10:34.118, 1574777434118
104, -66953.24, -60158.15, -137037.13, -123721.08, -86067.09, -67618.88, -123365.64, 34136.48, 0.000, 0.000, 0.000, 16:10:34.118, 1574777434118
105, -70362.13, -94075.77, -187500.02, -187500.02, -187500.02, -187500.02, -187500.02, -187500.02, 0.000, 0.000, 0.000, 16:10:34.118, 1574777434118
106, -67105.14, -60300.55, -137398.45, -124038.07, -86243.06, -67718.90, -123642.80, 34223.56, 0.000, 0.000, 0.000, 16:10:34.582, 1574777434582
107, -69931.48, -93880.81, -187500.02, -187500.02, -187500.02, -187500.02, -187500.02, -187500.02, 0.000, 0.000, 0.000, 16:10:34.582, 1574777434582
108, -67262.56, -60442.16, -137760.69, -124357.73, -86420.58, -67822.27, -123923.25, 34309.48, 0.000, 0.000, 0.000, 16:10:34.582, 1574777434582
109, -70276.34, -93963.34, -187500.02, -187500.02, -187500.02, -187500.02, -187500.02, -187500.02, 0.000, 0.000, 0.000, 16:10:34.582, 1574777434582
110, -67432.59, -60601.39, -138142.83, -124694.74, -86613.79, -67944.92, -124218.12, 34381.72, 0.000, 0.000, 0.000, 16:10:34.582, 1574777434582
111, -70201.71, -94006.05, -187500.02, -187500.02, -187500.02, -187500.02, -187500.02, -187500.02, 0.000, 0.000, 0.000, 16:10:34.582, 1574777434582
112, -67575.31, -60734.71, -138493.77, -125004.36, -86777.72, -68036.95, -124483.12, 34481.03, 0.010, -0.008, 0.972, 16:10:34.582, 1574777434582
113, -69963.55, -93780.65, -187500.02, -187500.02, -187500.02, -187500.02, -187500.02, -187500.02, 0.000, 0.000, 0.000, 16:10:34.582, 1574777434582
114, -67746.93, -60895.65, -138874.42, -125342.14, -86969.96, -68154.40, -124776.35, 34553.83, 0.000, 0.000, 0.000, 16:10:34.582, 1574777434582
115, -70425.36, -94052.38, -187500.02, -187500.02, -187500.02, -187500.02, -187500.02, -187500.02, 0.000, 0.000, 0.000, 16:10:34.582, 1574777434582
116, -67904.44, -61041.20, -139236.13, -125657.79, -87146.48, -68256.50, -125051.55, 34641.83, 0.000, 0.000, 0.000, 16:10:34.583, 1574777434583
117, -69946.34, -93818.47, -187500.02, -187500.02, -187500.02, -187500.02, -187500.02, -187500.02, 0.000, 0.000, 0.000, 16:10:34.583, 1574777434583
118, -68063.63, -61188.84, -139598.34, -125977.52, -87326.38, -68362.83, -125331.62, 34727.82, 0.000, 0.000, 0.000, 16:10:34.583, 1574777434583
119, -70281.84, -93904.05, -187500.02, -187500.02, -187500.02, -187500.02, -187500.02, -187500.02, 0.000, 0.000, 0.000, 16:10:34.583, 1574777434583
120, -68229.28, -61345.97, -139973.75, -126312.68, -87519.41, -68483.84, -125624.06, 34799.96, 0.000, 0.000, 0.000, 16:10:34.583, 1574777434583
121, -70212.75, -93941.74, -187500.02, -187500.02, -187500.02, -187500.02, -187500.02, -187500.02, 0.012, -0.006, 0.972, 16:10:34.583, 1574777434583
122, -68371.03, -61478.02, -140323.27, -126619.50, -87681.40, -68578.50, -125889.22, 34897.51, 0.000, 0.000, 0.000, 16:10:34.583, 1574777434583
123, -69959.88, -93699.98, -187500.02, -187500.02, -187500.02, -187500.02, -187500.02, -187500.02, 0.000, 0.000, 0.000, 16:10:34.583, 1574777434583
124, -68543.74, -61641.15, -140702.34, -126953.92, -87874.67, -68699.11, -126184.29, 34968.90, 0.000, 0.000, 0.000, 16:10:34.583, 1574777434583
125, -70414.67, -93966.84, -187500.02, -187500.02, -187500.02, -187500.02, -187500.02, -187500.02, 0.000, 0.000, 0.000, 16:10:34.583, 1574777434583
126, -68698.84, -61783.39, -141064.06, -127272.28, -88049.20, -68802.34, -126461.92, 35055.91, 0.000, 0.000, 0.000, 16:10:34.583, 1574777434583
127, -69959.08, -93749.23, -187500.02, -187500.02, -187500.02, -187500.02, -187500.02, -187500.02, 0.000, 0.000, 0.000, 16:10:34.584, 1574777434584
128, -68854.21, -61925.86, -141425.30, -127588.78, -88225.33, -68905.13, -126740.87, 35143.89, 0.000, 0.000, 0.000, 16:10:34.584, 1574777434584
129, -70241.85, -93790.62, -187500.02, -187500.02, -187500.02, -187500.02, -187500.02, -187500.02, 0.000, 0.000, 0.000, 16:10:34.584, 1574777434584
130, -69022.43, -62083.00, -141806.95, -127923.55, -88418.94, -69023.44, -127035.62, 35214.01, 0.000, 0.000, 0.000, 16:10:34.584, 1574777434584
131, -70255.09, -93912.02, -187500.02, -187500.02, -187500.02, -187500.02, -187500.02, -187500.02, 0.016, -0.006, 0.970, 16:10:34.584, 1574777434584
132, -69168.08, -62215.32, -142159.70, -128232.80, -88582.44, -69119.73, -127302.79, 35304.33, 0.000, 0.000, 0.000, 16:10:34.584, 1574777434584
133, -69908.63, -93575.75, -187500.02, -187500.02, -187500.02, -187500.02, -187500.02, -187500.02, 0.000, 0.000, 0.000, 16:10:34.584, 1574777434584
134, -69338.02, -62377.66, -142540.84, -128568.99, -88777.13, -69240.90, -127595.29, 35371.37, 0.000, 0.000, 0.000, 16:10:34.584, 1574777434584
135, -70023.97, -93502.66, -187500.02, -187500.02, -187500.02, -187500.02, -187500.02, -187500.02, 0.000, 0.000, 0.000, 16:10:34.584, 1574777434584
136, -69491.82, -62519.05, -142898.63, -128886.95, -88954.35, -69344.95, -127870.70, 35454.27, 0.000, 0.000, 0.000, 16:10:34.585, 1574777434585
137, -69223.73, -92938.26, -187500.02, -187500.02, -187500.02, -187500.02, -187500.02, -187500.02, 0.000, 0.000, 0.000, 16:10:34.585, 1574777434585
138, -69648.08, -62660.74, -143259.36, -129203.94, -89127.47, -69450.47, -128147.64, 35538.71, 0.000, 0.000, 0.000, 16:10:34.585, 1574777434585
139, -69504.52, -92980.08, -187500.02, -187500.02, -187500.02, -187500.02, -187500.02, -187500.02, 0.000, 0.000, 0.000, 16:10:34.585, 1574777434585
140, -69816.66, -62821.59, -143640.67, -129538.62, -89323.36, -69570.52, -128443.09, 35609.61, 0.000, 0.000, 0.000, 16:10:34.585, 1574777434585
141, -69826.91, -93405.39, -187500.02, -187500.02, -187500.02, -187500.02, -187500.02, -187500.02, 0.010, -0.006, 0.972, 16:10:34.585, 1574777434585
142, -69959.59, -62954.56, -143993.17, -129847.41, -89489.77, -69664.10, -128710.23, 35703.47, 0.000, 0.000, 0.000, 16:10:34.585, 1574777434585
143, -69966.79, -93570.63, -187500.02, -187500.02, -187500.02, -187500.02, -187500.02, -187500.02, 0.000, 0.000, 0.000, 16:10:34.585, 1574777434585
144, -70127.79, -63113.88, -144368.39, -130182.37, -89683.94, -69781.95, -129003.49, 35774.57, 0.000, 0.000, 0.000, 16:10:34.585, 1574777434585
145, -70481.89, -93886.22, -187500.02, -187500.02, -187500.02, -187500.02, -187500.02, -187500.02, 0.000, 0.000, 0.000, 16:10:34.585, 1574777434585
146, -70281.28, -63255.77, -144727.55, -130498.33, -89859.77, -69882.84, -129280.79, 35858.88, 0.000, 0.000, 0.000, 16:10:34.585, 1574777434585
147, -69973.45, -93606.42, -187500.02, -187500.02, -187500.02, -187500.02, -187500.02, -187500.02, 0.000, 0.000, 0.000, 16:10:34.586, 1574777434586
148, -70438.23, -63398.87, -145089.23, -130816.84, -90038.86, -69986.53, -129558.38, 35940.08, 0.000, 0.000, 0.000, 16:10:34.586, 1574777434586
149, -70144.31, -93531.14, -187500.02, -187500.02, -187500.02, -187500.02, -187500.02, -187500.02, 0.000, 0.000, 0.000, 16:10:34.586, 1574777434586
150, -70609.47, -63558.84, -145470.80, -131150.48, -90235.04, -70108.66, -129853.02, 36005.42, 0.000, 0.000, 0.000, 16:10:34.586, 1574777434586
151, -70138.14, -93623.50, -187500.02, -187500.02, -187500.02, -187500.02, -187500.02, -187500.02, 0.010, -0.002, 0.974, 16:10:34.586, 1574777434586
152, -70751.12, -63688.48, -145821.80, -131455.83, -90400.29, -70200.03, -130119.73, 36098.56, 0.000, 0.000, 0.000, 16:10:34.586, 1574777434586
153, -69861.23, -93376.87, -187500.02, -187500.02, -187500.02, -187500.02, -187500.02, -187500.02, 0.000, 0.000, 0.000, 16:10:34.586, 1574777434586
154, -70920.88, -63847.04, -146201.50, -131789.59, -90594.41, -70321.13, -130413.64, 36166.29, 0.000, 0.000, 0.000, 16:10:34.586, 1574777434586
155, -70336.20, -93653.90, -187500.02, -187500.02, -187500.02, -187500.02, -187500.02, -187500.02, 0.000, 0.000, 0.000, 16:10:34.586, 1574777434586
156, -71075.17, -63989.96, -146565.05, -132106.16, -90771.02, -70427.70, -130692.45, 36248.31, 0.000, 0.000, 0.000, 16:10:34.586, 1574777434586
157, -69868.89, -93430.47, -187500.02, -187500.02, -187500.02, -187500.02, -187500.02, -187500.02, 0.000, 0.000, 0.000, 16:10:34.587, 1574777434587
158, -71231.25, -64132.43, -146928.36, -132426.55, -90948.89, -70534.41, -130971.98, 36329.68, 0.000, 0.000, 0.000, 16:10:34.587, 1574777434587
159, -70173.23, -93495.40, -187500.02, -187500.02, -187500.02, -187500.02, -187500.02, -187500.02, 0.000, 0.000, 0.000, 16:10:34.587, 1574777434587
160, -71397.44, -64291.37, -147306.19, -132762.56, -91138.43, -70655.16, -131261.69, 36399.82, 0.008, -0.004, 0.974, 16:10:34.587, 1574777434587
161, -70138.52, -93555.05, -187500.02, -187500.02, -187500.02, -187500.02, -187500.02, -187500.02, 0.000, 0.000, 0.000, 16:10:34.587, 1574777434587
162, -71537.80, -64422.71, -147655.50, -133068.31, -91299.12, -70748.27, -131528.56, 36492.55, 0.000, 0.000, 0.000, 16:10:34.587, 1574777434587
163, -69863.62, -93306.86, -187500.02, -187500.02, -187500.02, -187500.02, -187500.02, -187500.02, 0.000, 0.000, 0.000, 16:10:34.587, 1574777434587
164, -71709.65, -64582.17, -148038.02, -133402.36, -91490.29, -70870.47, -131823.59, 36559.85, 0.000, 0.000, 0.000, 16:10:34.587, 1574777434587
165, -70308.05, -93553.24, -187500.02, -187500.02, -187500.02, -187500.02, -187500.02, -187500.02, 0.000, 0.000, 0.000, 16:10:34.587, 1574777434587
166, -71863.07, -64727.07, -148400.80, -133718.97, -91671.14, -70973.98, -132102.19, 36642.89, 0.000, 0.000, 0.000, 16:10:34.587, 1574777434587
167, -69844.20, -93328.27, -187500.02, -187500.02, -187500.02, -187500.02, -187500.02, -187500.02, 0.000, 0.000, 0.000, 16:10:34.587, 1574777434587
168, -72016.85, -64869.27, -148757.09, -134031.63, -91848.86, -71076.06, -132379.78, 36724.70, 0.000, 0.000, 0.000, 16:10:34.587, 1574777434587
169, -70089.91, -93332.05, -187500.02, -187500.02, -187500.02, -187500.02, -187500.02, -187500.02, 0.000, 0.000, 0.000, 16:10:34.588, 1574777434588
170, -72185.85, -65028.96, -149134.80, -134362.28, -92044.91, -71197.03, -132672.00, 36791.48, 0.008, -0.006, 0.974, 16:10:34.588, 1574777434588
171, -70114.31, -93455.70, -187500.02, -187500.02, -187500.02, -187500.02, -187500.02, -187500.02, 0.000, 0.000, 0.000, 16:10:34.588, 1574777434588
172, -72334.47, -65162.64, -149485.27, -134667.17, -92212.48, -71290.57, -132939.19, 36880.45, 0.000, 0.000, 0.000, 16:10:34.588, 1574777434588
173, -69824.75, -93199.26, -187500.02, -187500.02, -187500.02, -187500.02, -187500.02, -187500.02, 0.000, 0.000, 0.000, 16:10:34.588, 1574777434588
174, -72507.00, -65323.75, -149866.88, -135004.86, -92407.27, -71413.48, -133231.86, 36943.59, 0.000, 0.000, 0.000, 16:10:34.588, 1574777434588
175, -70312.88, -93477.02, -187500.02, -187500.02, -187500.02, -187500.02, -187500.02, -187500.02, 0.000, 0.000, 0.000, 16:10:34.588, 1574777434588
176, -72659.75, -65465.39, -150228.06, -135322.00, -92584.39, -71516.08, -133505.53, 37024.99, 0.000, 0.000, 0.000, 16:10:34.588, 1574777434588
177, -69795.09, -93203.44, -187500.02, -187500.02, -187500.02, -187500.02, -187500.02, -187500.02, 0.000, 0.000, 0.000, 16:10:34.588, 1574777434588
178, -72812.39, -65606.32, -150589.48, -135636.23, -92757.66, -71615.39, -133782.06, 37106.06, 0.000, 0.000, 0.000, 16:10:34.588, 1574777434588
179, -70107.34, -93281.54, -187500.02, -187500.02, -187500.02, -187500.02, -187500.02, -187500.02, 0.000, 0.000, 0.000, 16:10:34.588, 1574777434588
180, -72982.45, -65768.42, -150971.19, -135971.33, -92950.15, -71736.47, -134078.08, 37168.94, 0.008, -0.008, 0.976, 16:10:34.589, 1574777434589
181, -70098.94, -93368.09, -187500.02, -187500.02, -187500.02, -187500.02, -187500.02, -187500.02, 0.000, 0.000, 0.000, 16:10:34.589, 1574777434589
182, -73128.55, -65899.47, -151324.59, -136279.50, -93116.90, -71830.68, -134345.48, 37254.52, 0.000, 0.000, 0.000, 16:10:34.589, 1574777434589
183, -69770.48, -93076.64, -187500.02, -187500.02, -187500.02, -187500.02, -187500.02, -187500.02, 0.000, 0.000, 0.000, 16:10:34.589, 1574777434589
184, -73297.31, -66057.70, -151700.59, -136610.14, -93308.72, -71948.23, -134638.09, 37322.61, 0.000, 0.000, 0.000, 16:10:34.589, 1574777434589
185, -70264.65, -93366.59, -187500.02, -187500.02, -187500.02, -187500.02, -187500.02, -187500.02, 0.000, 0.000, 0.000, 16:10:34.589, 1574777434589
186, -73448.34, -66201.64, -152061.30, -136929.84, -93483.28, -72051.90, -134915.44, 37402.65, 0.000, 0.000, 0.000, 16:10:34.589, 1574777434589
187, -69782.86, -93132.67, -187500.02, -187500.02, -187500.02, -187500.02, -187500.02, -187500.02, 0.000, 0.000, 0.000, 16:10:34.589, 1574777434589
188, -73601.84, -66346.08, -152423.64, -137247.02, -93658.81, -72158.07, -135193.52, 37479.56, 0.000, 0.000, 0.000, 16:10:34.589, 1574777434589
189, -70053.36, -93158.55, -187500.02, -187500.02, -187500.02, -187500.02, -187500.02, -187500.02, 0.000, 0.000, 0.000, 16:10:34.590, 1574777434590
190, -73770.99, -66508.06, -152803.11, -137583.61, -93854.75, -72279.91, -135487.78, 37541.30, 0.006, -0.012, 0.982, 16:10:34.591, 1574777434591
191, -70062.77, -93257.48, -187500.02, -187500.02, -187500.02, -187500.02, -187500.02, -187500.02, 0.000, 0.000, 0.000, 16:10:34.591, 1574777434591
192, -73915.83, -66638.10, -153150.45, -137890.30, -94017.09, -72371.88, -135754.23, 37631.91, 0.000, 0.000, 0.000, 16:10:34.591, 1574777434591
193, -69766.70, -93000.95, -187500.02, -187500.02, -187500.02, -187500.02, -187500.02, -187500.02, 0.000, 0.000, 0.000, 16:10:34.591, 1574777434591
194, -74084.63, -66795.55, -153524.63, -138220.81, -94208.11, -72492.09, -136046.39, 37697.67, 0.000, 0.000, 0.000, 16:10:34.591, 1574777434591
195, -70225.13, -93246.73, -187500.02, -187500.02, -187500.02, -187500.02, -187500.02, -187500.02, 0.000, 0.000, 0.000, 16:10:34.591, 1574777434591
196, -74238.52, -66941.51, -153882.97, -138538.05, -94386.05, -72597.95, -136324.27, 37773.06, 0.000, 0.000, 0.000, 16:10:34.591, 1574777434591
197, -69738.87, -93003.26, -187500.02, -187500.02, -187500.02, -187500.02, -187500.02, -187500.02, 0.000, 0.000, 0.000, 16:10:34.592, 1574777434592
198, -74394.83, -67084.38, -154244.20, -138854.69, -94563.21, -72703.70, -136601.31, 37851.96, 0.000, 0.000, 0.000, 16:10:34.592, 1574777434592
199, -69969.09, -92996.42, -187500.02, -187500.02, -187500.02, -187500.02, -187500.02, -187500.02, 0.006, -0.006, 0.976, 16:10:34.592, 1574777434592
200, -74562.60, -67245.49, -154621.30, -139190.33, -94756.17, -72823.08, -136893.08, 37916.87, 0.000, 0.000, 0.000, 16:10:34.592, 1574777434592
201, -69986.26, -93099.37, -187500.02, -187500.02, -187500.02, -187500.02, -187500.02, -187500.02, 0.000, 0.000, 0.000, 16:10:34.592, 1574777434592
202, -74706.66, -67379.33, -154969.80, -139497.14, -94919.18, -72915.57, -137160.09, 38006.19, 0.000, 0.000, 0.000, 16:10:34.592, 1574777434592
203, -69635.94, -92795.90, -187500.02, -187500.02, -187500.02, -187500.02, -187500.02, -187500.02, 0.000, 0.000, 0.000, 16:10:34.592, 1574777434592
204, -74877.85, -67540.17, -155349.16, -139829.05, -95110.29, -73035.44, -137454.27, 38069.04, 0.000, 0.000, 0.000, 16:10:34.592, 1574777434592
205, -70116.73, -93060.39, -187500.02, -187500.02, -187500.02, -187500.02, -187500.02, -187500.02, 0.000, 0.000, 0.000, 16:10:34.592, 1574777434592
206, -75031.72, -67682.33, -155708.02, -140140.45, -95286.06, -73139.78, -137730.33, 38145.78, 0.000, 0.000, 0.000, 16:10:34.592, 1574777434592
207, -69655.68, -92851.40, -187500.02, -187500.02, -187500.02, -187500.02, -187500.02, -187500.02, 0.000, 0.000, 0.000, 16:10:34.592, 1574777434592
208, -75182.86, -67823.64, -156062.17, -140450.52, -95460.92, -73243.13, -138002.28, 38227.11, 0.000, 0.000, 0.000, 16:10:34.592, 1574777434592
209, -69860.82, -92822.55, -187500.02, -187500.02, -187500.02, -187500.02, -187500.02, -187500.02, 0.012, -0.010, 0.976, 16:10:34.593, 1574777434593
210, -75350.66, -67982.83, -156439.31, -140785.03, -95655.54, -73366.05, -138295.02, 38291.38, 0.000, 0.000, 0.000, 16:10:34.593, 1574777434593
211, -69897.70, -92945.63, -187500.02, -187500.02, -187500.02, -187500.02, -187500.02, -187500.02, 0.000, 0.000, 0.000, 16:10:34.593, 1574777434593
212, -75494.38, -68115.95, -156789.23, -141088.50, -95822.06, -73460.37, -138560.61, 38379.44, 0.000, 0.000, 0.000, 16:10:34.593, 1574777434593
213, -69572.02, -92670.02, -187500.02, -187500.02, -187500.02, -187500.02, -187500.02, -187500.02, 0.000, 0.000, 0.000, 16:10:34.593, 1574777434593
214, -75663.06, -68278.88, -157167.20, -141417.06, -96014.64, -73581.16, -138853.70, 38441.02, 0.000, 0.000, 0.000, 16:10:34.593, 1574777434593
215, -70044.33, -92929.90, -187500.02, -187500.02, -187500.02, -187500.02, -187500.02, -187500.02, 0.000, 0.000, 0.000, 16:10:34.593, 1574777434593
216, -75814.05, -68424.72, -157527.05, -141731.33, -96189.16, -73685.74, -139130.31, 38518.20, 0.000, 0.000, 0.000, 16:10:34.593, 1574777434593
217, -69650.54, -92776.43, -187500.02, -187500.02, -187500.02, -187500.02, -187500.02, -187500.02, 0.000, 0.000, 0.000, 16:10:34.593, 1574777434593
218, -75965.40, -68567.48, -157884.02, -142046.06, -96362.77, -73788.47, -139403.31, 38598.11, 0.000, 0.000, 0.000, 16:10:34.593, 1574777434593
219, -69974.64, -92863.56, -187500.02, -187500.02, -187500.02, -187500.02, -187500.02, -187500.02, 0.008, -0.004, 0.970, 16:10:34.594, 1574777434594
220, -76135.94, -68730.56, -158262.58, -142382.02, -96559.24, -73909.66, -139695.58, 38658.59, 0.000, 0.000, 0.000, 16:10:34.594, 1574777434594
221, -70019.54, -92987.30, -187500.02, -187500.02, -187500.02, -187500.02, -187500.02, -187500.02, 0.000, 0.000, 0.000, 16:10:34.594, 1574777434594
222, -76282.59, -68865.56, -158611.42, -142685.06, -96727.02, -74004.95, -139960.98, 38746.57, 0.000, 0.000, 0.000, 16:10:34.594, 1574777434594
223, -69704.02, -92732.42, -187500.02, -187500.02, -187500.02, -187500.02, -187500.02, -187500.02, 0.000, 0.000, 0.000, 16:10:34.594, 1574777434594
224, -76446.72, -69026.61, -158983.92, -143013.55, -96918.68, -74122.49, -140252.59, 38810.85, 0.000, 0.000, 0.000, 16:10:34.594, 1574777434594
225, -70242.10, -93053.91, -187500.02, -187500.02, -187500.02, -187500.02, -187500.02, -187500.02, 0.000, 0.000, 0.000, 16:10:34.594, 1574777434594
226, -76598.38, -69170.20, -159338.25, -143325.30, -97094.90, -74225.54, -140528.09, 38888.46, 0.000, 0.000, 0.000, 16:10:35.060, 1574777435060
227, -69855.57, -92915.08, -187500.02, -187500.02, -187500.02, -187500.02, -187500.02, -187500.02, 0.000, 0.000, 0.000, 16:10:35.061, 1574777435061
228, -76751.09, -69312.34, -159694.64, -143638.50, -97270.90, -74327.80, -140804.23, 38965.64, 0.000, 0.000, 0.000, 16:10:35.061, 1574777435061
229, -70070.48, -92895.81, -187500.02, -187500.02, -187500.02, -187500.02, -187500.02, -187500.02, 0.006, -0.006, 0.978, 16:10:35.061, 1574777435061
230, -76920.13, -69471.99, -160073.75, -143973.17, -97465.13, -74448.98, -141095.73, 39025.90, 0.000, 0.000, 0.000, 16:10:35.061, 1574777435061
231, -70143.19, -93041.15, -187500.02, -187500.02, -187500.02, -187500.02, -187500.02, -187500.02, 0.000, 0.000, 0.000, 16:10:35.061, 1574777435061
232, -77059.58, -69601.03, -160420.44, -144273.84, -97627.30, -74540.14, -141359.41, 39115.28, 0.000, 0.000, 0.000, 16:10:35.061, 1574777435061
233, -69860.17, -92812.69, -187500.02, -187500.02, -187500.02, -187500.02, -187500.02, -187500.02, 0.000, 0.000, 0.000, 16:10:35.061, 1574777435061
234, -77225.74, -69759.79, -160795.14, -144601.14, -97816.15, -74657.95, -141649.92, 39181.15, 0.000, 0.000, 0.000, 16:10:35.061, 1574777435061
235, -70319.21, -93052.84, -187500.02, -187500.02, -187500.02, -187500.02, -187500.02, -187500.02, 0.000, 0.000, 0.000, 16:10:35.061, 1574777435061
236, -77379.13, -69903.47, -161155.06, -144916.44, -97992.26, -74763.54, -141927.58, 39256.32, 0.000, 0.000, 0.000, 16:10:35.061, 1574777435061
237, -69884.29, -92861.33, -187500.02, -187500.02, -187500.02, -187500.02, -187500.02, -187500.02, 0.000, 0.000, 0.000, 16:10:35.061, 1574777435061
238, -77530.20, -70043.10, -161513.00, -145225.50, -98163.41, -74864.28, -142198.70, 39332.61, 0.006, -0.002, 0.978, 16:10:35.062, 1574777435062
239, -70095.67, -92844.07, -187500.02, -187500.02, -187500.02, -187500.02, -187500.02, -187500.02, 0.000, 0.000, 0.000, 16:10:35.062, 1574777435062
240, -77697.97, -70201.91, -161888.27, -145556.28, -98356.44, -74984.73, -142491.16, 39393.83, 0.000, 0.000, 0.000, 16:10:35.062, 1574777435062
241, -70155.93, -92976.01, -187500.02, -187500.02, -187500.02, -187500.02, -187500.02, -187500.02, 0.000, 0.000, 0.000, 16:10:35.062, 1574777435062
242, -77838.41, -70331.21, -162231.44, -145853.38, -98521.37, -75075.93, -142753.64, 39482.66, 0.000, 0.000, 0.000, 16:10:35.062, 1574777435062
243, -69841.82, -92723.23, -187500.02, -187500.02, -187500.02, -187500.02, -187500.02, -187500.02, 0.000, 0.000, 0.000, 16:10:35.062, 1574777435062
244, -78007.09, -70488.73, -162602.55, -146179.36, -98715.60, -75196.90, -143042.38, 39545.15, 0.000, 0.000, 0.000, 16:10:35.062, 1574777435062
245, -70342.34, -93004.47, -187500.02, -187500.02, -187500.02, -187500.02, -187500.02, -187500.02, 0.000, 0.000, 0.000, 16:10:35.062, 1574777435062
246, -78160.74, -70633.37, -162958.73, -146493.81, -98895.54, -75303.80, -143317.66, 39619.47, 0.000, 0.000, 0.000, 16:10:35.062, 1574777435062
247, -69892.02, -92805.09, -187500.02, -187500.02, -187500.02, -187500.02, -187500.02, -187500.02, 0.000, 0.000, 0.000, 16:10:35.062, 1574777435062
248, -78308.89, -70772.64, -163313.28, -146803.09, -99069.19, -75405.57, -143588.97, 39698.80, 0.012, -0.002, 0.976, 16:10:35.062, 1574777435062
249, -70115.48, -92795.23, -187500.02, -187500.02, -187500.02, -187500.02, -187500.02, -187500.02, 0.000, 0.000, 0.000, 16:10:35.063, 1574777435063
250, -78477.22, -70931.41, -163690.09, -147132.98, -99262.82, -75525.40, -143881.75, 39760.45, 0.000, 0.000, 0.000, 16:10:35.063, 1574777435063
251, -70176.90, -92921.90, -187500.02, -187500.02, -187500.02, -187500.02, -187500.02, -187500.02, 0.000, 0.000, 0.000, 16:10:35.063, 1574777435063
252, -78622.19, -71062.97, -164035.47, -147435.16, -99428.45, -75620.87, -144147.02, 39845.52, 0.000, 0.000, 0.000, 16:10:35.063, 1574777435063
253, -69824.30, -92635.37, -187500.02, -187500.02, -187500.02, -187500.02, -187500.02, -187500.02, 0.000, 0.000, 0.000, 16:10:35.063, 1574777435063
254, -78792.80, -71221.10, -164407.16, -147762.92, -99621.27, -75740.98, -144437.50, 39908.75, 0.000, 0.000, 0.000, 16:10:35.063, 1574777435063
255, -70327.34, -92922.05, -187500.02, -187500.02, -187500.02, -187500.02, -187500.02, -187500.02, 0.000, 0.000, 0.000, 16:10:35.063, 1574777435063
0, -78947.97, -71367.51, -164763.36, -148073.66, -99799.13, -75847.22, -144712.83, 39987.63, 0.000, 0.000, 0.000, 16:10:35.063, 1574777435063
1, -69873.48, -92714.59, -187500.02, -187500.02, -187500.02, -187500.02, -187500.02, -187500.02, 0.000, 0.000, 0.000, 16:10:35.063, 1574777435063
2, -79095.27, -71507.99, -165115.66, -148379.44, -99970.01, -75948.03, -144984.30, 40065.84, 0.008, -0.002, 0.978, 16:10:35.063, 1574777435063
3, -70107.98, -92720.87, -187500.02, -187500.02, -187500.02, -187500.02, -187500.02, -187500.02, 0.000, 0.000, 0.000, 16:10:35.063, 1574777435063
4, -79263.17, -71669.50, -165490.23, -148706.75, -100165.92, -76071.63, -145277.86, 40122.77, 0.000, 0.000, 0.000, 16:10:35.063, 1574777435063
5, -70217.84, -92891.23, -187500.02, -187500.02, -187500.02, -187500.02, -187500.02, -187500.02, 0.000, 0.000, 0.000, 16:10:35.064, 1574777435064
6, -79407.20, -71801.63, -165836.38, -149007.05, -100333.83, -76166.27, -145545.17, 40203.10, 0.000, 0.000, 0.000, 16:10:35.064, 1574777435064
7, -69838.02, -92576.95, -187500.02, -187500.02, -187500.02, -187500.02, -187500.02, -187500.02, 0.000, 0.000, 0.000, 16:10:35.064, 1574777435064
8, -79577.21, -71958.69, -166206.89, -149336.31, -100525.58, -76283.93, -145833.30, 40262.35, 0.000, 0.000, 0.000, 16:10:35.064, 1574777435064
9, -70269.52, -92781.59, -187500.02, -187500.02, -187500.02, -187500.02, -187500.02, -187500.02, 0.000, 0.000, 0.000, 16:10:35.064, 1574777435064
10, -79732.70, -72104.02, -166566.53, -149653.53, -100706.16, -76387.24, -146107.05, 40333.74, 0.000, 0.000, 0.000, 16:10:35.064, 1574777435064
11, -69883.27, -92646.19, -187500.02, -187500.02, -187500.02, -187500.02, -187500.02, -187500.02, 0.000, 0.000, 0.000, 16:10:35.064, 1574777435064
12, -79884.06, -72244.28, -166923.88, -149963.64, -100882.49, -76491.80, -146376.78, 40407.17, 0.012, -0.002, 0.980, 16:10:35.064, 1574777435064
13, -70134.74, -92673.57, -187500.02, -187500.02, -187500.02, -187500.02, -187500.02, -187500.02, 0.000, 0.000, 0.000, 16:10:35.064, 1574777435064
14, -80056.26, -72403.96, -167300.28, -150289.66, -101075.91, -76613.17, -146667.20, 40464.41, 0.000, 0.000, 0.000, 16:10:35.064, 1574777435064
15, -70197.59, -92803.73, -187500.02, -187500.02, -187500.02, -187500.02, -187500.02, -187500.02, 0.000, 0.000, 0.000, 16:10:35.064, 1574777435064
16, -80199.82, -72534.18, -167641.86, -150585.28, -101237.75, -76704.26, -146926.42, 40547.25, 0.000, 0.000, 0.000, 16:10:35.064, 1574777435064
17, -69858.34, -92529.24, -187500.02, -187500.02, -187500.02, -187500.02, -187500.02, -187500.02, 0.000, 0.000, 0.000, 16:10:35.065, 1574777435065
18, -80367.82, -72690.40, -168009.98, -150907.38, -101427.50, -76822.92, -147211.75, 40608.18, 0.000, 0.000, 0.000, 16:10:35.065, 1574777435065
19, -70317.89, -92755.35, -187500.02, -187500.02, -187500.02, -187500.02, -187500.02, -187500.02, 0.000, 0.000, 0.000, 16:10:35.065, 1574777435065
20, -80524.03, -72835.50, -168364.75, -151217.06, -101604.12, -76929.34, -147489.25, 40679.17, 0.000, 0.000, 0.000, 16:10:35.065, 1574777435065
21, -69900.56, -92580.88, -187500.02, -187500.02, -187500.02, -187500.02, -187500.02, -187500.02, 0.000, 0.000, 0.000, 16:10:35.065, 1574777435065
22, -80678.41, -72976.21, -168714.45, -151523.52, -101776.32, -77033.01, -147763.75, 40752.70, 0.012, 0.002, 0.972, 16:10:35.065, 1574777435065
23, -70081.30, -92535.86, -187500.02, -187500.02, -187500.02, -187500.02, -187500.02, -187500.02, 0.000, 0.000, 0.000, 16:10:35.065, 1574777435065
24, -80847.69, -73137.88, -169086.81, -151849.23, -101969.59, -77154.66, -148053.09, 40810.68, 0.000, 0.000, 0.000, 16:10:35.065, 1574777435065
25, -70218.36, -92736.53, -187500.02, -187500.02, -187500.02, -187500.02, -187500.02, -187500.02, 0.000, 0.000, 0.000, 16:10:35.065, 1574777435065
26, -80989.71, -73268.68, -169428.94, -152144.83, -102133.34, -77249.28, -148314.97, 40893.25, 0.000, 0.000, 0.000, 16:10:35.065, 1574777435065
27, -69868.96, -92463.06, -187500.02, -187500.02, -187500.02, -187500.02, -187500.02, -187500.02, 0.000, 0.000, 0.000, 16:10:35.065, 1574777435065
28, -81158.80, -73428.77, -169802.23, -152471.03, -102324.78, -77370.65, -148604.11, 40949.13, 0.000, 0.000, 0.000, 16:10:35.065, 1574777435065
29, -70317.13, -92682.38, -187500.02, -187500.02, -187500.02, -187500.02, -187500.02, -187500.02, 0.000, 0.000, 0.000, 16:10:35.066, 1574777435066
30, -81314.66, -73573.24, -170159.16, -152784.30, -102500.63, -77478.56, -148879.94, 41016.16, 0.000, 0.000, 0.000, 16:10:35.066, 1574777435066
31, -69918.60, -92533.72, -187500.02, -187500.02, -187500.02, -187500.02, -187500.02, -187500.02, 0.010, 0.002, 0.974, 16:10:35.066, 1574777435066
32, -81461.71, -73711.87, -170508.48, -153087.09, -102670.34, -77579.26, -149148.58, 41090.04, 0.000, 0.000, 0.000, 16:10:35.066, 1574777435066
33, -70170.98, -92559.76, -187500.02, -187500.02, -187500.02, -187500.02, -187500.02, -187500.02, 0.000, 0.000, 0.000, 16:10:35.066, 1574777435066
34, -81631.63, -73873.54, -170879.89, -153412.27, -102865.95, -77700.20, -149440.11, 41144.89, 0.000, 0.000, 0.000, 16:10:35.066, 1574777435066
35, -70231.55, -92686.87, -187500.02, -187500.02, -187500.02, -187500.02, -187500.02, -187500.02, 0.000, 0.000, 0.000, 16:10:35.066, 1574777435066
36, -81775.27, -74005.46, -171224.80, -153707.13, -103033.34, -77794.64, -149704.48, 41223.59, 0.000, 0.000, 0.000, 16:10:35.066, 1574777435066
37, -69828.93, -92375.98, -187500.02, -187500.02, -187500.02, -187500.02, -187500.02, -187500.02, 0.000, 0.000, 0.000, 16:10:35.066, 1574777435066
38, -81943.86, -74163.98, -171598.73, -154031.45, -103225.76, -77914.60, -149994.64, 41277.88, 0.000, 0.000, 0.000, 16:10:35.066, 1574777435066
39, -70406.95, -92690.05, -187500.02, -187500.02, -187500.02, -187500.02, -187500.02, -187500.02, 0.000, 0.000, 0.000, 16:10:35.066, 1574777435066
40, -82095.56, -74305.98, -171954.89, -154342.25, -103402.67, -78019.86, -150270.80, 41344.64, 0.000, 0.000, 0.000, 16:10:35.066, 1574777435066
41, -69880.58, -92448.47, -187500.02, -187500.02, -187500.02, -187500.02, -187500.02, -187500.02, 0.016, -0.006, 0.976, 16:10:35.067, 1574777435067
42, -82244.80, -74443.55, -172305.09, -154644.55, -103573.73, -78118.70, -150542.64, 41417.94, 0.000, 0.000, 0.000, 16:10:35.067, 1574777435067
43, -70138.56, -92454.26, -187500.02, -187500.02, -187500.02, -187500.02, -187500.02, -187500.02, 0.000, 0.000, 0.000, 16:10:35.067, 1574777435067
44, -82416.06, -74606.68, -172680.67, -154970.81, -103771.16, -78243.33, -150833.98, 41468.63, 0.000, 0.000, 0.000, 16:10:35.067, 1574777435067
45, -70266.15, -92638.16, -187500.02, -187500.02, -187500.02, -187500.02, -187500.02, -187500.02, 0.000, 0.000, 0.000, 16:10:35.067, 1574777435067
46, -82558.31, -74738.40, -173024.78, -155269.50, -103937.95, -78337.23, -151095.94, 41547.04, 0.000, 0.000, 0.000, 16:10:35.067, 1574777435067
47, -69836.97, -92315.23, -187500.02, -187500.02, -187500.02, -187500.02, -187500.02, -187500.02, 0.000, 0.000, 0.000, 16:10:35.067, 1574777435067
48, -82723.45, -74897.16, -173395.31, -155590.16, -104129.60, -78454.30, -151382.33, 41601.58, 0.000, 0.000, 0.000, 16:10:35.067, 1574777435067
49, -70384.16, -92587.41, -187500.02, -187500.02, -187500.02, -187500.02, -187500.02, -187500.02, 0.000, 0.000, 0.000, 16:10:35.067, 1574777435067
50, -82872.84, -75040.84, -173748.64, -155898.70, -104306.34, -78563.25, -151657.56, 41670.54, 0.000, 0.000, 0.000, 16:10:35.067, 1574777435067
51, -69917.39, -92408.95, -187500.02, -187500.02, -187500.02, -187500.02, -187500.02, -187500.02, 0.010, -0.004, 0.970, 16:10:35.067, 1574777435067
52, -83022.04, -75177.90, -174099.39, -156201.06, -104477.88, -78664.16, -151931.27, 41739.64, 0.000, 0.000, 0.000, 16:10:35.067, 1574777435067
53, -70131.16, -92383.83, -187500.02, -187500.02, -187500.02, -187500.02, -187500.02, -187500.02, 0.000, 0.000, 0.000, 16:10:35.068, 1574777435068
54, -83191.91, -75338.85, -174473.39, -156528.28, -104672.55, -78788.47, -152224.52, 41790.32, 0.000, 0.000, 0.000, 16:10:35.068, 1574777435068
55, -70270.04, -92575.78, -187500.02, -187500.02, -187500.02, -187500.02, -187500.02, -187500.02, 0.000, 0.000, 0.000, 16:10:35.068, 1574777435068
56, -83333.00, -75465.99, -174817.06, -156825.00, -104834.57, -78881.63, -152484.52, 41872.30, 0.000, 0.000, 0.000, 16:10:35.068, 1574777435068
57, -69831.07, -92254.12, -187500.02, -187500.02, -187500.02, -187500.02, -187500.02, -187500.02, 0.000, 0.000, 0.000, 16:10:35.068, 1574777435068
58, -83503.39, -75621.78, -175189.69, -157145.77, -105025.59, -78998.73, -152771.39, 41928.27, 0.000, 0.000, 0.000, 16:10:35.068, 1574777435068
59, -70403.41, -92548.09, -187500.02, -187500.02, -187500.02, -187500.02, -187500.02, -187500.02, 0.000, 0.000, 0.000, 16:10:35.068, 1574777435068
60, -83657.84, -75766.60, -175546.27, -157452.20, -105204.18, -79105.32, -153048.16, 41992.11, 0.000, 0.000, 0.000, 16:10:35.068, 1574777435068
61, -69889.08, -92329.53, -187500.02, -187500.02, -187500.02, -187500.02, -187500.02, -187500.02, 0.006, -0.010, 0.974, 16:10:35.068, 1574777435068
62, -83806.08, -75906.09, -175900.27, -157754.30, -105376.05, -79207.78, -153319.02, 42063.66, 0.000, 0.000, 0.000, 16:10:35.068, 1574777435068
63, -70148.40, -92346.54, -187500.02, -187500.02, -187500.02, -187500.02, -187500.02, -187500.02, 0.000, 0.000, 0.000, 16:10:35.068, 1574777435068
64, -83975.32, -76066.67, -176276.72, -158082.39, -105567.27, -79330.18, -153611.17, 42117.52, 0.000, 0.000, 0.000, 16:10:35.069, 1574777435069
65, -70260.41, -92502.83, -187500.02, -187500.02, -187500.02, -187500.02, -187500.02, -187500.02, 0.000, 0.000, 0.000, 16:10:35.069, 1574777435069
66, -84117.41, -76196.49, -176619.28, -158378.33, -105728.22, -79421.78, -153871.58, 42196.76, 0.000, 0.000, 0.000, 16:10:35.069, 1574777435069
67, -69843.66, -92196.67, -187500.02, -187500.02, -187500.02, -187500.02, -187500.02, -187500.02, 0.000, 0.000, 0.000, 16:10:35.069, 1574777435069
68, -84285.52, -76356.35, -176991.50, -158703.89, -105918.25, -79542.01, -154157.36, 42252.95, 0.000, 0.000, 0.000, 16:10:35.069, 1574777435069
69, -70403.73, -92476.02, -187500.02, -187500.02, -187500.02, -187500.02, -187500.02, -187500.02, 0.000, 0.000, 0.000, 16:10:35.069, 1574777435069
70, -84441.36, -76501.86, -177349.67, -159016.23, -106096.13, -79647.11, -154431.30, 42318.45, 0.004, -0.004, 0.970, 16:10:35.069, 1574777435069
71, -69933.30, -92298.71, -187500.02, -187500.02, -187500.02, -187500.02, -187500.02, -187500.02, 0.000, 0.000, 0.000, 16:10:35.069, 1574777435069
72, -84587.91, -76637.58, -177702.22, -159315.52, -106266.76, -79744.65, -154696.64, 42390.66, 0.000, 0.000, 0.000, 16:10:35.069, 1574777435069
73, -70149.27, -92270.79, -187500.02, -187500.02, -187500.02, -187500.02, -187500.02, -187500.02, 0.000, 0.000, 0.000, 16:10:35.069, 1574777435069
74, -84755.02, -76797.82, -178075.67, -159640.17, -106458.88, -79864.81, -154986.03, 42442.39, 0.000, 0.000, 0.000, 16:10:35.069, 1574777435069
75, -70320.24, -92483.20, -187500.02, -187500.02, -187500.02, -187500.02, -187500.02, -187500.02, 0.000, 0.000, 0.000, 16:10:35.069, 1574777435069
76, -84899.97, -76929.96, -178420.30, -159936.30, -106622.29, -79953.08, -155246.67, 42519.23, 0.000, 0.000, 0.000, 16:10:35.069, 1574777435069
77, -69857.83, -92144.37, -187500.02, -187500.02, -187500.02, -187500.02, -187500.02, -187500.02, 0.000, 0.000, 0.000, 16:10:35.070, 1574777435070
78, -85068.34, -77087.63, -178797.59, -160259.50, -106814.31, -80071.52, -155534.42, 42572.20, 0.000, 0.000, 0.000, 16:10:35.070, 1574777435070
79, -70434.01, -92432.57, -187500.02, -187500.02, -187500.02, -187500.02, -187500.02, -187500.02, 0.000, 0.000, 0.000, 16:10:35.070, 1574777435070
80, -85219.17, -77229.16, -179159.06, -160567.97, -106991.18, -80175.55, -155807.88, 42639.89, 0.006, -0.008, 0.974, 16:10:35.070, 1574777435070
81, -69936.48, -92227.14, -187500.02, -187500.02, -187500.02, -187500.02, -187500.02, -187500.02, 0.000, 0.000, 0.000, 16:10:35.070, 1574777435070
82, -85367.01, -77364.99, -179510.59, -160867.28, -107161.77, -80273.29, -156073.94, 42713.71, 0.000, 0.000, 0.000, 16:10:35.070, 1574777435070
83, -70162.01, -92219.02, -187500.02, -187500.02, -187500.02, -187500.02, -187500.02, -187500.02, 0.000, 0.000, 0.000, 16:10:35.070, 1574777435070
84, -85535.92, -77527.38, -179888.94, -161190.73, -107357.17, -80396.36, -156365.22, 42763.65, 0.000, 0.000, 0.000, 16:10:35.070, 1574777435070
85, -70291.18, -92387.18, -187500.02, -187500.02, -187500.02, -187500.02, -187500.02, -187500.02, 0.000, 0.000, 0.000, 16:10:35.070, 1574777435070
86, -85677.01, -77654.49, -180235.63, -161483.38, -107521.74, -80493.19, -156625.86, 42841.77, 0.000, 0.000, 0.000, 16:10:35.070, 1574777435070
87, -69848.15, -92075.10, -187500.02, -187500.02, -187500.02, -187500.02, -187500.02, -187500.02, 0.000, 0.000, 0.000, 16:10:35.070, 1574777435070
88, -85841.94, -77809.13, -180607.59, -161802.00, -107709.56, -80609.95, -156910.52, 42896.59, 0.000, 0.000, 0.000, 16:10:35.071, 1574777435071
89, -70425.74, -92361.18, -187500.02, -187500.02, -187500.02, -187500.02, -187500.02, -187500.02, 0.000, 0.000, 0.000, 16:10:35.071, 1574777435071
90, -85994.35, -77953.63, -180968.59, -162111.36, -107886.68, -80710.67, -157184.86, 42962.22, 0.010, -0.008, 0.982, 16:10:35.542, 1574777435542
91, -69909.30, -92133.84, -187500.02, -187500.02, -187500.02, -187500.02, -187500.02, -187500.02, 0.000, 0.000, 0.000, 16:10:35.542, 1574777435542
92, -86143.80, -78091.77, -181321.08, -162411.25, -108054.32, -80808.44, -157454.00, 43032.74, 0.000, 0.000, 0.000, 16:10:35.542, 1574777435542
93, -70095.02, -92084.63, -187500.02, -187500.02, -187500.02, -187500.02, -187500.02, -187500.02, 0.000, 0.000, 0.000, 16:10:35.542, 1574777435542
94, -86312.31, -78253.21, -181695.06, -162736.31, -108248.84, -80931.71, -157745.28, 43079.97, 0.000, 0.000, 0.000, 16:10:35.542, 1574777435542
95, -70308.20, -92326.29, -187500.02, -187500.02, -187500.02, -187500.02, -187500.02, -187500.02, 0.000, 0.000, 0.000, 16:10:35.542, 1574777435542
96, -86450.87, -78385.17, -182036.20, -163028.44, -108410.67, -81024.63, -158005.11, 43157.80, 0.000, 0.000, 0.000, 16:10:35.542, 1574777435542
97, -69822.20, -91972.38, -187500.02, -187500.02, -187500.02, -187500.02, -187500.02, -187500.02, 0.000, 0.000, 0.000, 16:10:35.542, 1574777435542
98, -86615.02, -78542.75, -182379.72, -163347.64, -108602.65, -81141.95, -158290.25, 43212.25, 0.000, 0.000, 0.000, 16:10:35.542, 1574777435542
99, -70343.51, -92201.95, -187500.02, -187500.02, -187500.02, -187500.02, -187500.02, -187500.02, 0.000, 0.000, 0.000, 16:10:35.542, 1574777435542
100, -86782.05, -78699.87, -182485.83, -163689.23, -108797.18, -81260.91, -158575.31, 43263.12, 0.008, -0.004, 0.980, 16:10:35.542, 1574777435542
101, -69890.95, -92043.16, -187500.02, -187500.02, -187500.02, -187500.02, -187500.02, -187500.02, 0.000, 0.000, 0.000, 16:10:35.543, 1574777435543
102, -86949.00, -78856.75, -182533.70, -164040.44, -108987.62, -81376.87, -158858.61, 43312.98, 0.000, 0.000, 0.000, 16:10:35.543, 1574777435543
103, -70157.54, -92075.04, -187500.02, -187500.02, -187500.02, -187500.02, -187500.02, -187500.02, 0.000, 0.000, 0.000, 16:10:35.543, 1574777435543
104, -87140.28, -79038.78, -182554.17, -164422.44, -109200.56, -81519.27, -159169.14, 43342.04, 0.000, 0.000, 0.000, 16:10:35.543, 1574777435543
105, -70313.73, -92266.08, -187500.02, -187500.02, -187500.02, -187500.02, -187500.02, -187500.02, 0.000, 0.000, 0.000, 16:10:35.543, 1574777435543
106, -87302.45, -79188.41, -182532.77, -164775.33, -109383.35, -81630.34, -159452.52, 43394.52, 0.000, 0.000, 0.000, 16:10:35.543, 1574777435543
107, -69890.04, -91984.16, -187500.02, -187500.02, -187500.02, -187500.02, -187500.02, -187500.02, 0.000, 0.000, 0.000, 16:10:35.543, 1574777435543
108, -87495.56, -79368.72, -182505.20, -165160.08, -109598.04, -81771.17, -159765.33, 43421.10, 0.000, 0.000, 0.000, 16:10:35.543, 1574777435543
109, -70486.31, -92276.65, -187500.02, -187500.02, -187500.02, -187500.02, -187500.02, -187500.02, 0.004, -0.008, 0.976, 16:10:35.544, 1574777435544
110, -87676.62, -79538.10, -182494.36, -165533.19, -109801.73, -81903.80, -160068.80, 43460.21, 0.000, 0.000, 0.000, 16:10:35.544, 1574777435544
111, -69974.39, -92061.87, -187500.02, -187500.02, -187500.02, -187500.02, -187500.02, -187500.02, 0.000, 0.000, 0.000, 16:10:35.544, 1574777435544
112, -87845.21, -79697.34, -182468.53, -165893.20, -109991.88, -82025.06, -160356.19, 43508.59, 0.000, 0.000, 0.000, 16:10:35.544, 1574777435544
113, -70203.23, -92066.79, -187500.02, -187500.02, -187500.02, -187500.02, -187500.02, -187500.02, 0.000, 0.000, 0.000, 16:10:35.544, 1574777435544
114, -88037.33, -79884.26, -182448.88, -166285.06, -110210.70, -82167.87, -160671.44, 43532.75, 0.000, 0.000, 0.000, 16:10:35.544, 1574777435544
115, -70382.06, -92268.24, -187500.02, -187500.02, -187500.02, -187500.02, -187500.02, -187500.02, 0.000, 0.000, 0.000, 16:10:35.545, 1574777435545
116, -88202.93, -80037.77, -182430.02, -166639.41, -110396.76, -82282.40, -160956.78, 43583.33, 0.000, 0.000, 0.000, 16:10:35.545, 1574777435545
117, -69893.50, -91920.30, -187500.02, -187500.02, -187500.02, -187500.02, -187500.02, -187500.02, 0.000, 0.000, 0.000, 16:10:35.545, 1574777435545
118, -88394.87, -80218.53, -182407.02, -167024.86, -110610.30, -82423.48, -161265.38, 43609.19, 0.000, 0.000, 0.000, 16:10:35.545, 1574777435545
119, -70475.45, -92201.52, -187500.02, -187500.02, -187500.02, -187500.02, -187500.02, -187500.02, 0.002, -0.008, 0.970, 16:10:35.545, 1574777435545
120, -88570.30, -80388.29, -182397.78, -167398.64, -110811.09, -82552.73, -161563.67, 43646.99, 0.000, 0.000, 0.000, 16:10:35.545, 1574777435545
121, -70008.09, -92029.33, -187500.02, -187500.02, -187500.02, -187500.02, -187500.02, -187500.02, 0.000, 0.000, 0.000, 16:10:35.545, 1574777435545
122, -88741.36, -80546.05, -182368.59, -167760.45, -111001.09, -82670.63, -161851.25, 43693.99, 0.000, 0.000, 0.000, 16:10:35.546, 1574777435546
123, -70185.15, -91978.19, -187500.02, -187500.02, -187500.02, -187500.02, -187500.02, -187500.02, 0.000, 0.000, 0.000, 16:10:35.546, 1574777435546
124, -88936.91, -80731.57, -182350.84, -168151.72, -111217.70, -82815.52, -162168.22, 43714.91, 0.000, 0.000, 0.000, 16:10:35.546, 1574777435546
125, -70336.94, -92151.97, -187500.02, -187500.02, -187500.02, -187500.02, -187500.02, -187500.02, 0.000, 0.000, 0.000, 16:10:35.546, 1574777435546
126, -89104.55, -80886.34, -182331.98, -168508.14, -111400.48, -82932.23, -162452.78, 43763.91, 0.000, 0.000, 0.000, 16:10:35.546, 1574777435546
127, -69734.71, -91694.72, -187500.02, -187500.02, -187500.02, -187500.02, -187500.02, -187500.02, 0.000, 0.000, 0.000, 16:10:35.546, 1574777435546
128, -89293.36, -81063.34, -182305.34, -168889.33, -111608.96, -83066.63, -162762.06, 43789.14, 0.000, 0.000, 0.000, 16:10:35.546, 1574777435546
129, -69961.85, -91621.61, -187500.02, -187500.02, -187500.02, -187500.02, -187500.02, -187500.02, 0.004, -0.012, 0.970, 16:10:35.546, 1574777435546
130, -89470.88, -81230.51, -182293.52, -169257.70, -111807.84, -83190.84, -163059.95, 43825.31, 0.000, 0.000, 0.000, 16:10:35.546, 1574777435546
131, -69178.78, -91134.32, -187500.02, -187500.02, -187500.02, -187500.02, -187500.02, -187500.02, 0.000, 0.000, 0.000, 16:10:35.546, 1574777435546
132, -89642.07, -81392.27, -182266.94, -169619.53, -112001.30, -83309.77, -163347.75, 43867.40, 0.000, 0.000, 0.000, 16:10:35.546, 1574777435546
133, -69574.27, -91308.35, -187500.02, -187500.02, -187500.02, -187500.02, -187500.02, -187500.02, 0.000, 0.000, 0.000, 16:10:35.546, 1574777435546
134, -89837.09, -81579.15, -182248.56, -170012.61, -112221.60, -83455.87, -163664.91, 43885.55, 0.000, 0.000, 0.000, 16:10:35.546, 1574777435546
135, -70135.41, -91888.09, -187500.02, -187500.02, -187500.02, -187500.02, -187500.02, -187500.02, 0.000, 0.000, 0.000, 16:10:35.547, 1574777435547
136, -89998.76, -81729.24, -182231.84, -170362.39, -112403.50, -83567.70, -163947.84, 43935.62, 0.000, 0.000, 0.000, 16:10:35.547, 1574777435547
137, -69954.05, -91855.34, -187500.02, -187500.02, -187500.02, -187500.02, -187500.02, -187500.02, 0.000, 0.000, 0.000, 16:10:35.547, 1574777435547
138, -90184.39, -81909.30, -182205.30, -170745.22, -112611.37, -83704.98, -164255.55, 43961.54, 0.000, 0.000, 0.000, 16:10:35.547, 1574777435547
139, -70582.47, -92170.27, -187500.02, -187500.02, -187500.02, -187500.02, -187500.02, -187500.02, 0.004, -0.010, 0.974, 16:10:35.547, 1574777435547
140, -90363.56, -82077.73, -182193.67, -171120.91, -112812.29, -83835.83, -164556.53, 43994.89, 0.000, 0.000, 0.000, 16:10:35.547, 1574777435547
141, -70019.12, -91901.09, -187500.02, -187500.02, -187500.02, -187500.02, -187500.02, -187500.02, 0.000, 0.000, 0.000, 16:10:35.547, 1574777435547
142, -90535.29, -82234.79, -182165.81, -171484.28, -113003.51, -83956.63, -164846.91, 44039.37, 0.000, 0.000, 0.000, 16:10:35.547, 1574777435547
143, -70109.71, -91768.05, -187500.02, -187500.02, -187500.02, -187500.02, -187500.02, -187500.02, 0.000, 0.000, 0.000, 16:10:35.547, 1574777435547
144, -90729.39, -82418.41, -182147.83, -171874.69, -113220.26, -84099.62, -165159.17, 44058.46, 0.000, 0.000, 0.000, 16:10:35.547, 1574777435547
145, -70308.91, -91984.76, -187500.02, -187500.02, -187500.02, -187500.02, -187500.02, -187500.02, 0.000, 0.000, 0.000, 16:10:35.547, 1574777435547
146, -90889.48, -82568.05, -182132.36, -172225.23, -113401.84, -84210.93, -165439.88, 44108.33, 0.000, 0.000, 0.000, 16:10:35.547, 1574777435547
147, -69828.66, -91653.82, -187500.02, -187500.02, -187500.02, -187500.02, -187500.02, -187500.02, 0.000, 0.000, 0.000, 16:10:35.547, 1574777435547
148, -91079.58, -82746.02, -182109.02, -172611.45, -113614.31, -84351.97, -165748.55, 44131.33, 0.006, -0.006, 0.978, 16:10:35.548, 1574777435548
149, -70436.73, -91960.30, -187500.02, -187500.02, -187500.02, -187500.02, -187500.02, -187500.02, 0.000, 0.000, 0.000, 16:10:35.548, 1574777435548
150, -91261.77, -82914.11, -182098.50, -172986.61, -113816.38, -84485.16, -166048.98, 44163.92, 0.000, 0.000, 0.000, 16:10:35.548, 1574777435548
151, -69939.41, -91751.20, -187500.02, -187500.02, -187500.02, -187500.02, -187500.02, -187500.02, 0.000, 0.000, 0.000, 16:10:35.548, 1574777435548
152, -91430.01, -83070.26, -182072.30, -173346.11, -114003.26, -84600.23, -166336.20, 44208.15, 0.000, 0.000, 0.000, 16:10:35.548, 1574777435548
153, -70098.82, -91693.36, -187500.02, -187500.02, -187500.02, -187500.02, -187500.02, -187500.02, 0.000, 0.000, 0.000, 16:10:35.548, 1574777435548
154, -91623.10, -83255.02, -182051.02, -173738.58, -114218.98, -84744.58, -166648.59, 44228.27, 0.000, 0.000, 0.000, 16:10:35.548, 1574777435548
155, -70288.66, -91893.72, -187500.02, -187500.02, -187500.02, -187500.02, -187500.02, -187500.02, 0.000, 0.000, 0.000, 16:10:35.548, 1574777435548
156, -91788.77, -83404.73, -182034.92, -174095.03, -114401.74, -84856.25, -166932.34, 44276.95, 0.000, 0.000, 0.000, 16:10:35.548, 1574777435548
157, -69824.61, -91583.97, -187500.02, -187500.02, -187500.02, -187500.02, -187500.02, -187500.02, 0.000, 0.000, 0.000, 16:10:35.548, 1574777435548
158, -91980.09, -83583.02, -182008.02, -174478.84, -114615.07, -84991.68, -167240.94, 44301.45, 0.006, -0.008, 0.976, 16:10:35.548, 1574777435548
159, -70433.38, -91883.15, -187500.02, -187500.02, -187500.02, -187500.02, -187500.02, -187500.02, 0.000, 0.000, 0.000, 16:10:35.548, 1574777435548
160, -92154.34, -83751.07, -181994.02, -174853.05, -114813.91, -85118.75, -167539.63, 44334.59, 0.000, 0.000, 0.000, 16:10:35.548, 1574777435548
161, -69928.44, -91671.50, -187500.02, -187500.02, -187500.02, -187500.02, -187500.02, -187500.02, 0.000, 0.000, 0.000, 16:10:35.549, 1574777435549
162, -92322.11, -83902.32, -181971.25, -175209.27, -115000.08, -85230.88, -167826.53, 44377.62, 0.000, 0.000, 0.000, 16:10:35.549, 1574777435549
163, -70114.70, -91639.94, -187500.02, -187500.02, -187500.02, -187500.02, -187500.02, -187500.02, 0.000, 0.000, 0.000, 16:10:35.549, 1574777435549
164, -92515.39, -84087.59, -181953.97, -175604.75, -115217.45, -85371.86, -168143.66, 44393.83, 0.000, 0.000, 0.000, 16:10:35.549, 1574777435549
165, -70293.40, -91820.83, -187500.02, -187500.02, -187500.02, -187500.02, -187500.02, -187500.02, 0.000, 0.000, 0.000, 16:10:35.549, 1574777435549
166, -92678.82, -84241.38, -181937.27, -175961.52, -115399.26, -85480.91, -168426.88, 44440.30, 0.000, 0.000, 0.000, 16:10:35.549, 1574777435549
167, -69780.31, -91470.38, -187500.02, -187500.02, -187500.02, -187500.02, -187500.02, -187500.02, 0.000, 0.000, 0.000, 16:10:35.549, 1574777435549
168, -92866.13, -84418.40, -181906.56, -176346.30, -115605.92, -85618.35, -168736.73, 44464.91, 0.004, -0.008, 0.976, 16:10:35.549, 1574777435549
169, -70392.99, -91771.39, -187500.02, -187500.02, -187500.02, -187500.02, -187500.02, -187500.02, 0.000, 0.000, 0.000, 16:10:35.549, 1574777435549
170, -93040.56, -84586.09, -181895.22, -176720.53, -115803.34, -85747.21, -169037.03, 44497.43, 0.000, 0.000, 0.000, 16:10:35.549, 1574777435549
171, -69939.52, -91617.67, -187500.02, -187500.02, -187500.02, -187500.02, -187500.02, -187500.02, 0.000, 0.000, 0.000, 16:10:35.550, 1574777435550
172, -93205.05, -84741.56, -181873.05, -177084.89, -115992.45, -85865.84, -169325.80, 44537.84, 0.000, 0.000, 0.000, 16:10:35.550, 1574777435550
173, -70134.36, -91593.65, -187500.02, -187500.02, -187500.02, -187500.02, -187500.02, -187500.02, 0.000, 0.000, 0.000, 16:10:35.550, 1574777435550
174, -93398.35, -84926.48, -181854.88, -177480.17, -116215.09, -86009.76, -169641.78, 44554.76, 0.000, 0.000, 0.000, 16:10:35.550, 1574777435550
175, -70310.25, -91769.45, -187500.02, -187500.02, -187500.02, -187500.02, -187500.02, -187500.02, 0.000, 0.000, 0.000, 16:10:35.550, 1574777435550
176, -93558.72, -85075.70, -181839.25, -177837.61, -116398.76, -86119.28, -169923.19, 44604.07, 0.000, 0.000, 0.000, 16:10:35.550, 1574777435550
177, -69787.69, -91411.81, -187500.02, -187500.02, -187500.02, -187500.02, -187500.02, -187500.02, 0.000, 0.000, 0.000, 16:10:35.550, 1574777435550
178, -93744.76, -85252.37, -181813.02, -178224.09, -116608.33, -86251.96, -170229.73, 44627.56, 0.004, -0.004, 0.976, 16:10:35.550, 1574777435550
179, -70355.16, -91661.59, -187500.02, -187500.02, -187500.02, -187500.02, -187500.02, -187500.02, 0.000, 0.000, 0.000, 16:10:35.550, 1574777435550
180, -93923.23, -85420.83, -181799.41, -178603.86, -116810.50, -86382.52, -170532.06, 44660.95, 0.000, 0.000, 0.000, 16:10:35.550, 1574777435550
181, -69900.61, -91509.07, -187500.02, -187500.02, -187500.02, -187500.02, -187500.02, -187500.02, 0.000, 0.000, 0.000, 16:10:35.550, 1574777435550
182, -94091.05, -85578.88, -181776.22, -178968.28, -116998.03, -86500.04, -170821.81, 44702.59, 0.000, 0.000, 0.000, 16:10:35.550, 1574777435550
183, -70056.34, -91454.39, -187500.02, -187500.02, -187500.02, -187500.02, -187500.02, -187500.02, 0.000, 0.000, 0.000, 16:10:35.551, 1574777435551
184, -94278.16, -85760.53, -181761.86, -179362.34, -117211.13, -86641.55, -171134.38, 44720.12, 0.000, 0.000, 0.000, 16:10:35.551, 1574777435551
185, -70266.20, -91659.18, -187500.02, -187500.02, -187500.02, -187500.02, -187500.02, -187500.02, 0.000, 0.000, 0.000, 16:10:35.551, 1574777435551
186, -94433.73, -85908.66, -181743.44, -179717.67, -117392.41, -86750.63, -171414.67, 44768.89, 0.000, 0.000, 0.000, 16:10:35.551, 1574777435551
187, -69775.33, -91342.39, -187500.02, -187500.02, -187500.02, -187500.02, -187500.02, -187500.02, 0.006, -0.002, 0.970, 16:10:35.551, 1574777435551
188, -94618.66, -86084.27, -181719.45, -180103.56, -117600.59, -86886.88, -171722.80, 44791.02, 0.000, 0.000, 0.000, 16:10:35.551, 1574777435551
189, -70303.63, -91548.83, -187500.02, -187500.02, -187500.02, -187500.02, -187500.02, -187500.02, 0.000, 0.000, 0.000, 16:10:35.551, 1574777435551
190, -94799.24, -86251.38, -181709.58, -180481.84, -117799.92, -87015.65, -172023.27, 44823.98, 0.000, 0.000, 0.000, 16:10:35.551, 1574777435551
191, -69855.55, -91390.91, -187500.02, -187500.02, -187500.02, -187500.02, -187500.02, -187500.02, 0.000, 0.000, 0.000, 16:10:35.551, 1574777435551
192, -94964.96, -86402.92, -181682.69, -180841.59, -117985.80, -87131.84, -172310.06, 44867.91, 0.000, 0.000, 0.000, 16:10:35.551, 1574777435551
193, -69955.77, -91283.34, -187500.02, -187500.02, -187500.02, -187500.02, -187500.02, -187500.02, 0.000, 0.000, 0.000, 16:10:35.551, 1574777435551
194, -95154.52, -86588.24, -181666.19, -181230.06, -118201.72, -87275.24, -172624.06, 44886.66, 0.000, 0.000, 0.000, 16:10:35.551, 1574777435551
195, -70157.67, -91475.05, -187500.02, -187500.02, -187500.02, -187500.02, -187500.02, -187500.02, 0.000, 0.000, 0.000, 16:10:35.551, 1574777435551
196, -95318.85, -86739.88, -181645.98, -181700.25, -118387.89, -87386.63, -172912.53, 44932.19, 0.000, 0.000, 0.000, 16:10:35.551, 1574777435551
197, -69651.30, -91142.70, -187500.02, -187500.02, -187500.02, -187500.02, -187500.02, -187500.02, 0.008, -0.002, 0.974, 16:10:35.552, 1574777435552
198, -95540.31, -86947.52, -181614.84, -182089.23, -118627.50, -87549.92, -173257.23, 44926.36, 0.000, 0.000, 0.000, 16:10:35.552, 1574777435552
199, -70230.38, -91400.64, -187500.02, -187500.02, -187500.02, -187500.02, -187500.02, -187500.02, 0.000, 0.000, 0.000, 16:10:35.552, 1574777435552
200, -95760.59, -87160.20, -181608.09, -181884.97, -118867.11, -87716.67, -173602.73, 44917.75, 0.000, 0.000, 0.000, 16:10:35.552, 1574777435552
201, -69835.63, -91306.76, -187500.02, -187500.02, -187500.02, -187500.02, -187500.02, -187500.02, 0.000, 0.000, 0.000, 16:10:35.552, 1574777435552
202, -95968.40, -87360.18, -181584.22, -181663.27, -119093.58, -87871.79, -173935.53, 44918.51, 0.000, 0.000, 0.000, 16:10:35.552, 1574777435552
203, -69900.16, -91167.45, -187500.02, -187500.02, -187500.02, -187500.02, -187500.02, -187500.02, 0.000, 0.000, 0.000, 16:10:35.552, 1574777435552
204, -96206.58, -87590.02, -181568.44, -181473.81, -119353.41, -88057.22, -174299.14, 44892.32, 0.000, 0.000, 0.000, 16:10:35.552, 1574777435552
205, -70138.79, -91392.50, -187500.02, -187500.02, -187500.02, -187500.02, -187500.02, -187500.02, 0.000, 0.000, 0.000, 16:10:35.552, 1574777435552
206, -96413.40, -87785.13, -181558.39, -181250.95, -119578.66, -88209.23, -174630.31, 44897.05, 0.000, 0.000, 0.000, 16:10:35.552, 1574777435552
207, -69655.99, -91092.30, -187500.02, -187500.02, -187500.02, -187500.02, -187500.02, -187500.02, 0.010, -0.002, 0.974, 16:10:35.552, 1574777435552
208, -96639.09, -88004.34, -181531.25, -180939.22, -119825.69, -88381.66, -174981.50, 44880.27, 0.000, 0.000, 0.000, 16:10:35.552, 1574777435552
209, -70257.37, -91371.38, -187500.02, -187500.02, -187500.02, -187500.02, -187500.02, -187500.02, 0.000, 0.000, 0.000, 16:10:35.552, 1574777435552
210, -96828.54, -88182.45, -181535.50, -180726.81, -120034.72, -88519.66, -175294.88, 44901.28, 0.000, 0.000, 0.000, 16:10:35.552, 1574777435552
211, -69841.02, -91258.73, -187500.02, -187500.02, -187500.02, -187500.02, -187500.02, -187500.02, 0.000, 0.000, 0.000, 16:10:36.020, 1574777436020
212, -96995.99, -88339.21, -181508.14, -181084.28, -120219.91, -88634.84, -175583.36, 44943.39, 0.000, 0.000, 0.000, 16:10:36.020, 1574777436020
213, -69980.98, -91193.57, -187500.02, -187500.02, -187500.02, -187500.02, -187500.02, -187500.02, 0.000, 0.000, 0.000, 16:10:36.020, 1574777436020
214, -97192.80, -88526.00, -181489.98, -181638.00, -120441.99, -88785.75, -175908.42, 44954.59, 0.000, 0.000, 0.000, 16:10:36.020, 1574777436020
215, -70260.59, -91446.80, -187500.02, -187500.02, -187500.02, -187500.02, -187500.02, -187500.02, 0.000, 0.000, 0.000, 16:10:36.021, 1574777436021
216, -97388.80, -88710.38, -181471.59, -181891.50, -120657.30, -88925.63, -176233.11, 44969.72, 0.000, 0.000, 0.000, 16:10:36.021, 1574777436021
217, -69783.22, -91152.94, -187500.02, -187500.02, -187500.02, -187500.02, -187500.02, -187500.02, 0.008, -0.004, 0.976, 16:10:36.021, 1574777436021
218, -97618.70, -88928.94, -181447.28, -181693.84, -120905.32, -89099.93, -176588.86, 44954.63, 0.000, 0.000, 0.000, 16:10:36.021, 1574777436021
219, -70445.95, -91491.79, -187500.02, -187500.02, -187500.02, -187500.02, -187500.02, -187500.02, 0.000, 0.000, 0.000, 16:10:36.021, 1574777436021
220, -97843.66, -89142.29, -181438.30, -181490.38, -121148.62, -89270.30, -176937.16, 44942.00, 0.000, 0.000, 0.000, 16:10:36.021, 1574777436021
221, -70001.37, -91336.84, -187500.02, -187500.02, -187500.02, -187500.02, -187500.02, -187500.02, 0.000, 0.000, 0.000, 16:10:36.022, 1574777436022
222, -98051.73, -89344.37, -181416.19, -181272.17, -121378.04, -89426.89, -177275.88, 44942.70, 0.000, 0.000, 0.000, 16:10:36.022, 1574777436022
223, -70140.60, -91283.83, -187500.02, -187500.02, -187500.02, -187500.02, -187500.02, -187500.02, 0.000, 0.000, 0.000, 16:10:36.022, 1574777436022
224, -98284.87, -89574.92, -181401.23, -181083.56, -121635.10, -89609.75, -177641.06, 44921.91, 0.000, 0.000, 0.000, 16:10:36.022, 1574777436022
225, -70428.73, -91549.52, -187500.02, -187500.02, -187500.02, -187500.02, -187500.02, -187500.02, 0.000, 0.000, 0.000, 16:10:36.022, 1574777436022
226, -98480.27, -89759.80, -181390.81, -180658.53, -121847.89, -89753.09, -177965.77, 44936.08, 0.000, 0.000, 0.000, 16:10:36.022, 1574777436022
227, -69918.53, -91222.56, -187500.02, -187500.02, -187500.02, -187500.02, -187500.02, -187500.02, 0.006, -0.004, 0.976, 16:10:36.022, 1574777436022
228, -98672.60, -89941.77, -181376.38, -180704.22, -122058.73, -89893.62, -178282.09, 44955.35, 0.000, 0.000, 0.000, 16:10:36.022, 1574777436022
229, -70475.67, -91453.75, -187500.02, -187500.02, -187500.02, -187500.02, -187500.02, -187500.02, 0.000, 0.000, 0.000, 16:10:36.022, 1574777436022
230, -98852.35, -90110.41, -181363.97, -181087.34, -122259.86, -90024.46, -178587.77, 44986.97, 0.000, 0.000, 0.000, 16:10:36.022, 1574777436022
231, -70035.79, -91307.45, -187500.02, -187500.02, -187500.02, -187500.02, -187500.02, -187500.02, 0.000, 0.000, 0.000, 16:10:36.022, 1574777436022
232, -99027.48, -90272.63, -181332.98, -181676.11, -122452.66, -90148.07, -178887.95, 45023.21, 0.000, 0.000, 0.000, 16:10:36.022, 1574777436022
233, -70158.68, -91240.82, -187500.02, -187500.02, -187500.02, -187500.02, -187500.02, -187500.02, 0.000, 0.000, 0.000, 16:10:36.022, 1574777436022
234, -99260.31, -90498.86, -181316.03, -181728.75, -122705.75, -90327.38, -179249.89, 45002.93, 0.000, 0.000, 0.000, 16:10:36.022, 1574777436022
235, -70443.04, -91497.27, -187500.02, -187500.02, -187500.02, -187500.02, -187500.02, -187500.02, 0.000, 0.000, 0.000, 16:10:36.023, 1574777436023
236, -99464.70, -90693.90, -181300.73, -181508.52, -122929.72, -90477.00, -179585.80, 45006.98, 0.006, -0.004, 0.978, 16:10:36.023, 1574777436023
237, -69862.27, -91105.53, -187500.02, -187500.02, -187500.02, -187500.02, -187500.02, -187500.02, 0.000, 0.000, 0.000, 16:10:36.023, 1574777436023
238, -99689.34, -90914.60, -181281.05, -181313.64, -123180.17, -90654.05, -179944.09, 44989.19, 0.000, 0.000, 0.000, 16:10:36.023, 1574777436023
239, -70508.13, -91428.76, -187500.02, -187500.02, -187500.02, -187500.02, -187500.02, -187500.02, 0.000, 0.000, 0.000, 16:10:36.023, 1574777436023
240, -99907.34, -91123.27, -181272.78, -181109.56, -123423.24, -90819.67, -180294.22, 44977.79, 0.000, 0.000, 0.000, 16:10:36.023, 1574777436023
241, -70049.07, -91255.82, -187500.02, -187500.02, -187500.02, -187500.02, -187500.02, -187500.02, 0.000, 0.000, 0.000, 16:10:36.023, 1574777436023
242, -100115.98, -91317.55, -181246.31, -180889.64, -123649.51, -90971.75, -180630.41, 44980.85, 0.000, 0.000, 0.000, 16:10:36.023, 1574777436023
243, -70154.99, -91174.20, -187500.02, -187500.02, -187500.02, -187500.02, -187500.02, -187500.02, 0.000, 0.000, 0.000, 16:10:36.023, 1574777436023
244, -100347.33, -91540.83, -181237.30, -180505.27, -123902.20, -91151.13, -180991.36, 44961.79, 0.000, 0.000, 0.000, 16:10:36.023, 1574777436023
245, -70450.84, -91437.90, -187500.02, -187500.02, -187500.02, -187500.02, -187500.02, -187500.02, 0.000, 0.000, 0.000, 16:10:36.023, 1574777436023
246, -100514.49, -91697.42, -181229.97, -180509.19, -124088.48, -91266.23, -181285.67, 45003.45, 0.006, -0.006, 0.980, 16:10:36.024, 1574777436024
247, -69885.77, -91067.22, -187500.02, -187500.02, -187500.02, -187500.02, -187500.02, -187500.02, 0.000, 0.000, 0.000, 16:10:36.024, 1574777436024
248, -100698.41, -91875.57, -181199.78, -180902.34, -124296.55, -91404.02, -181585.00, 45027.14, 0.000, 0.000, 0.000, 16:10:36.024, 1574777436024
249, -70472.79, -91326.95, -187500.02, -187500.02, -187500.02, -187500.02, -187500.02, -187500.02, 0.000, 0.000, 0.000, 16:10:36.024, 1574777436024
250, -100914.03, -92087.46, -181184.08, -181545.47, -124541.30, -91575.97, -181570.86, 44996.96, 0.000, 0.000, 0.000, 16:10:36.024, 1574777436024
251, -70076.36, -91217.20, -187500.02, -187500.02, -187500.02, -187500.02, -187500.02, -187500.02, 0.000, 0.000, 0.000, 16:10:36.024, 1574777436024
252, -101146.70, -92307.94, -181160.84, -181571.86, -124793.80, -91754.27, -181629.91, 44957.54, 0.000, 0.000, 0.000, 16:10:36.024, 1574777436024
253, -70170.28, -91124.98, -187500.02, -187500.02, -187500.02, -187500.02, -187500.02, -187500.02, 0.000, 0.000, 0.000, 16:10:36.024, 1574777436024
254, -101426.91, -92579.34, -181153.42, -181419.58, -125096.63, -91984.00, -181536.02, 44862.99, 0.000, 0.000, 0.000, 16:10:36.024, 1574777436024
255, -70442.13, -91357.45, -187500.02, -187500.02, -187500.02, -187500.02, -187500.02, -187500.02, 0.000, 0.000, 0.000, 16:10:36.024, 1574777436024
0, -101660.54, -92798.96, -181139.98, -181219.78, -125347.20, -92163.80, -181590.23, 44826.67, 0.010, -0.004, 0.980, 16:10:36.024, 1574777436024
1, -69966.48, -91082.10, -187500.02, -187500.02, -187500.02, -187500.02, -187500.02, -187500.02, 0.000, 0.000, 0.000, 16:10:36.024, 1574777436024
2, -101925.49, -93052.37, -181125.05, -181053.53, -125635.30, -92375.15, -181510.48, 44751.77, 0.000, 0.000, 0.000, 16:10:36.024, 1574777436024
3, -70511.98, -91302.88, -187500.02, -187500.02, -187500.02, -187500.02, -187500.02, -187500.02, 0.000, 0.000, 0.000, 16:10:36.024, 1574777436024
4, -102179.50, -93296.31, -181114.48, -180881.06, -125914.01, -92575.83, -181561.36, 44687.02, 0.000, 0.000, 0.000, 16:10:36.024, 1574777436024
5, -70097.59, -91169.95, -187500.02, -187500.02, -187500.02, -187500.02, -187500.02, -187500.02, 0.000, 0.000, 0.000, 16:10:36.024, 1574777436024
6, -102419.38, -93527.52, -181093.36, -180687.73, -126177.91, -92761.66, -181513.66, 44635.36, 0.000, 0.000, 0.000, 16:10:36.024, 1574777436024
7, -70228.53, -91114.58, -187500.02, -187500.02, -187500.02, -187500.02, -187500.02, -187500.02, 0.000, 0.000, 0.000, 16:10:36.025, 1574777436025
8, -102676.45, -93777.12, -181091.48, -180301.55, -126460.13, -92968.91, -181491.89, 44562.89, 0.000, 0.000, 0.000, 16:10:36.025, 1574777436025
9, -70460.32, -91309.78, -187500.02, -187500.02, -187500.02, -187500.02, -187500.02, -187500.02, 0.000, 0.000, 0.000, 16:10:36.025, 1574777436025
10, -102858.74, -93949.41, -181079.39, -180488.16, -126665.41, -93101.31, -181504.19, 44570.65, 0.010, -0.002, 0.970, 16:10:36.025, 1574777436025
11, -69896.30, -90954.16, -187500.02, -187500.02, -187500.02, -187500.02, -187500.02, -187500.02, 0.000, 0.000, 0.000, 16:10:36.025, 1574777436025
12, -103076.01, -94157.08, -181055.72, -180978.77, -126906.41, -93271.32, -181434.36, 44540.95, 0.000, 0.000, 0.000, 16:10:36.025, 1574777436025
13, -70526.01, -91254.44, -187500.02, -187500.02, -187500.02, -187500.02, -187500.02, -187500.02, 0.000, 0.000, 0.000, 16:10:36.025, 1574777436025
14, -103307.28, -94378.78, -181041.56, -181511.98, -127162.52, -93452.08, -181485.55, 44498.61, 0.000, 0.000, 0.000, 16:10:36.025, 1574777436025
15, -70112.28, -91120.21, -187500.02, -187500.02, -187500.02, -187500.02, -187500.02, -187500.02, 0.000, 0.000, 0.000, 16:10:36.025, 1574777436025
16, -103547.38, -94607.98, -181026.66, -181346.67, -127423.42, -93636.30, -181430.22, 44448.30, 0.000, 0.000, 0.000, 16:10:36.025, 1574777436025
17, -70208.16, -91035.50, -187500.02, -187500.02, -187500.02, -187500.02, -187500.02, -187500.02, 0.000, 0.000, 0.000, 16:10:36.025, 1574777436025
18, -103819.00, -94871.98, -181012.89, -181188.28, -127716.50, -93853.97, -181455.44, 44365.26, 0.000, 0.000, 0.000, 16:10:36.025, 1574777436025
19, -70480.68, -91264.59, -187500.02, -187500.02, -187500.02, -187500.02, -187500.02, -187500.02, 0.008, -0.002, 0.976, 16:10:36.025, 1574777436025
20, -104056.51, -95101.30, -181002.00, -180994.08, -127973.66, -94038.03, -181407.75, 44318.81, 0.000, 0.000, 0.000, 16:10:36.026, 1574777436026
21, -69942.05, -90929.84, -187500.02, -187500.02, -187500.02, -187500.02, -187500.02, -187500.02, 0.000, 0.000, 0.000, 16:10:36.026, 1574777436026
22, -104318.60, -95355.55, -180981.06, -180829.34, -128260.14, -94249.73, -181408.67, 44245.19, 0.000, 0.000, 0.000, 16:10:36.026, 1574777436026
23, -70532.29, -91187.58, -187500.02, -187500.02, -187500.02, -187500.02, -187500.02, -187500.02, 0.000, 0.000, 0.000, 16:10:36.026, 1574777436026
24, -104567.38, -95596.82, -180977.08, -180652.56, -128532.56, -94449.95, -181404.94, 44185.35, 0.000, 0.000, 0.000, 16:10:36.026, 1574777436026
25, -70129.47, -91066.50, -187500.02, -187500.02, -187500.02, -187500.02, -187500.02, -187500.02, 0.000, 0.000, 0.000, 16:10:36.026, 1574777436026
26, -104804.47, -95822.35, -180956.09, -180320.44, -128791.35, -94637.33, -181335.30, 44133.50, 0.000, 0.000, 0.000, 16:10:36.026, 1574777436026
27, -70193.55, -90962.88, -187500.02, -187500.02, -187500.02, -187500.02, -187500.02, -187500.02, 0.000, 0.000, 0.000, 16:10:36.026, 1574777436026
28, -105029.46, -96041.53, -180952.36, -180242.97, -129044.44, -94817.20, -181393.23, 44100.44, 0.000, 0.000, 0.000, 16:10:36.026, 1574777436026
29, -70472.43, -91186.35, -187500.02, -187500.02, -187500.02, -187500.02, -187500.02, -187500.02, 0.008, -0.004, 0.976, 16:10:36.026, 1574777436026
30, -105218.91, -96219.83, -180938.95, -180639.08, -129257.16, -94955.17, -181330.06, 44102.92, 0.000, 0.000, 0.000, 16:10:36.026, 1574777436026
31, -69946.83, -90868.48, -187500.02, -187500.02, -187500.02, -187500.02, -187500.02, -187500.02, 0.000, 0.000, 0.000, 16:10:36.026, 1574777436026
32, -105449.13, -96434.92, -180908.13, -181289.77, -129507.66, -95130.97, -181331.34, 44067.94, 0.000, 0.000, 0.000, 16:10:36.027, 1574777436027
33, -70550.48, -91143.23, -187500.02, -187500.02, -187500.02, -187500.02, -187500.02, -187500.02, 0.000, 0.000, 0.000, 16:10:36.027, 1574777436027
34, -105695.72, -96671.45, -180903.38, -181323.11, -129777.15, -95326.07, -181314.73, 44012.15, 0.000, 0.000, 0.000, 16:10:36.027, 1574777436027
35, -70137.27, -91013.17, -187500.02, -187500.02, -187500.02, -187500.02, -187500.02, -187500.02, 0.000, 0.000, 0.000, 16:10:36.027, 1574777436027
36, -105939.48, -96903.30, -180883.47, -181133.50, -130040.16, -95517.36, -181282.86, 43959.98, 0.000, 0.000, 0.000, 16:10:36.027, 1574777436027
37, -70166.26, -90872.45, -187500.02, -187500.02, -187500.02, -187500.02, -187500.02, -187500.02, 0.000, 0.000, 0.000, 16:10:36.027, 1574777436027
38, -106208.94, -97162.91, -180869.70, -180974.17, -130331.36, -95734.02, -181335.09, 43884.36, 0.000, 0.000, 0.000, 16:10:36.027, 1574777436027
39, -70495.01, -91145.07, -187500.02, -187500.02, -187500.02, -187500.02, -187500.02, -187500.02, 0.008, -0.002, 0.978, 16:10:36.027, 1574777436027
40, -106447.85, -97389.56, -180861.56, -180781.91, -130588.07, -95917.16, -181255.05, 43839.55, 0.000, 0.000, 0.000, 16:10:36.028, 1574777436028
41, -69936.23, -90797.56, -187500.02, -187500.02, -187500.02, -187500.02, -187500.02, -187500.02, 0.000, 0.000, 0.000, 16:10:36.028, 1574777436028
42, -106705.15, -97636.57, -180839.69, -180612.69, -130865.95, -96121.77, -181305.67, 43780.74, 0.000, 0.000, 0.000, 16:10:36.028, 1574777436028
43, -70519.30, -91045.91, -187500.02, -187500.02, -187500.02, -187500.02, -187500.02, -187500.02, 0.000, 0.000, 0.000, 16:10:36.028, 1574777436028
44, -106963.27, -97882.42, -180833.14, -180431.67, -131147.09, -96328.02, -181224.55, 43715.56, 0.000, 0.000, 0.000, 16:10:36.028, 1574777436028
45, -70148.60, -90950.41, -187500.02, -187500.02, -187500.02, -187500.02, -187500.02, -187500.02, 0.000, 0.000, 0.000, 16:10:36.028, 1574777436028
46, -107184.48, -98093.09, -180820.44, -180021.80, -131388.88, -96493.86, -181237.89, 43688.32, 0.000, 0.000, 0.000, 16:10:36.028, 1574777436028
47, -70187.38, -90821.68, -187500.02, -187500.02, -187500.02, -187500.02, -187500.02, -187500.02, 0.000, 0.000, 0.000, 16:10:36.028, 1574777436028
48, -107400.33, -98303.41, -180811.33, -180329.91, -131629.27, -96659.69, -181231.38, 43668.07, 0.000, 0.000, 0.000, 16:10:36.028, 1574777436028
49, -70471.80, -91039.63, -187500.02, -187500.02, -187500.02, -187500.02, -187500.02, -187500.02, 0.008, -0.004, 0.972, 16:10:36.028, 1574777436028
50, -107591.19, -98486.19, -180797.02, -180821.58, -131840.55, -96800.28, -181166.92, 43668.24, 0.000, 0.000, 0.000, 16:10:36.028, 1574777436028
51, -69905.05, -90691.55, -187500.02, -187500.02, -187500.02, -187500.02, -187500.02, -187500.02, 0.000, 0.000, 0.000, 16:10:36.029, 1574777436029
52, -107831.98, -98717.13, -180769.19, -181287.92, -132102.11, -96990.74, -181249.16, 43624.55, 0.000, 0.000, 0.000, 16:10:36.029, 1574777436029
53, -70478.31, -90929.64, -187500.02, -187500.02, -187500.02, -187500.02, -187500.02, -187500.02, 0.000, 0.000, 0.000, 16:10:36.029, 1574777436029
54, -108093.21, -98971.91, -180762.11, -181134.86, -132387.67, -97202.28, -181143.72, 43549.24, 0.000, 0.000, 0.000, 16:10:36.029, 1574777436029
