%OpenBCI Raw EEG Data
%Number of channels = 8
%Sample Rate = 250.0 Hz
%First Column = SampleIndex
%Last Column = Timestamp 
%Other Columns = EEG data in microvolts followed by Accel Data (in G) interleaved with Aux Data
0, -93750.01, -93750.01, -93750.01, -93750.01, -93750.01, -93750.01, -93750.01, -81041.03, -0.004, -0.026, 0.976, 16:14:48.376, 1578579288376
1, -93750.01, -93750.01, -93750.01, -93750.01, -93750.01, -93750.01, -93750.01, -93750.01, 0.000, 0.000, 0.000, 16:14:48.392, 1578579288392
2, -187500.02, -187500.02, -187500.02, -187500.02, -187500.02, -187500.02, -187500.02, -159211.31, 0.000, 0.000, 0.000, 16:14:48.873, 1578579288873
3, -187500.02, -187500.02, -187500.02, -187500.02, -187500.02, -187500.02, -187500.02, -187500.02, 0.000, 0.000, 0.000, 16:14:48.873, 1578579288873
4, -187500.02, -187500.02, -187500.02, -187500.02, -187500.02, -187500.02, -187500.02, -159192.38, 0.000, 0.000, 0.000, 16:14:48.873, 1578579288873
5, -187500.02, -187500.02, -187500.02, -187500.02, -187500.02, -187500.02, -187500.02, -187500.02, 0.000, 0.000, 0.000, 16:14:48.873, 1578579288873
6, -187500.02, -187500.02, -187500.02, -187500.02, -187500.02, -187500.02, -187500.02, -159178.50, 0.000, 0.000, 0.000, 16:14:48.873, 1578579288873
7, -187500.02, -187500.02, -187500.02, -187500.02, -187500.02, -187500.02, -187500.02, -187500.02, -0.004, -0.022, 0.974, 16:14:48.873, 1578579288873
8, -187500.02, -187500.02, -187500.02, -187500.02, -187500.02, -187500.02, -187500.02, -159165.72, 0.000, 0.000, 0.000, 16:14:48.873, 1578579288873
9, -187500.02, -187500.02, -187500.02, -187500.02, -187500.02, -187500.02, -187500.02, -187500.02, 0.000, 0.000, 0.000, 16:14:48.873, 1578579288873
10, -187500.02, -187500.02, -187500.02, -187500.02, -187500.02, -187500.02, -187500.02, -159150.38, 0.000, 0.000, 0.000, 16:14:48.873, 1578579288873
11, -187500.02, -187500.02, -187500.02, -187500.02, -187500.02, -187500.02, -187500.02, -187500.02, 0.000, 0.000, 0.000, 16:14:48.873, 1578579288873
12, -187500.02, -187500.02, -187500.02, -187500.02, -187500.02, -187500.02, -187500.02, -159130.36, 0.000, 0.000, 0.000, 16:14:48.873, 1578579288873
13, -187500.02, -187500.02, -187500.02, -187500.02, -187500.02, -187500.02, -187500.02, -187500.02, 0.000, 0.000, 0.000, 16:14:48.873, 1578579288873
14, -187500.02, -187500.02, -187500.02, -187500.02, -187500.02, -187500.02, -187500.02, -159114.36, 0.000, 0.000, 0.000, 16:14:48.873, 1578579288873
15, -187500.02, -187500.02, -187500.02, -187500.02, -187500.02, -187500.02, -187500.02, -187500.02, 0.000, 0.000, 0.000, 16:14:48.873, 1578579288873
16, -187500.02, -187500.02, -187500.02, -187500.02, -187500.02, -187500.02, -187500.02, -159098.28, 0.000, 0.000, 0.000, 16:14:48.873, 1578579288873
17, -187500.02, -187500.02, -187500.02, -187500.02, -187500.02, -187500.02, -187500.02, -187500.02, -0.004, -0.018, 0.978, 16:14:48.873, 1578579288873
18, -187500.02, -187500.02, -187500.02, -187500.02, -187500.02, -187500.02, -187500.02, -159083.13, 0.000, 0.000, 0.000, 16:14:48.873, 1578579288873
19, -187500.02, -187500.02, -187500.02, -187500.02, -187500.02, -187500.02, -187500.02, -187500.02, 0.000, 0.000, 0.000, 16:14:48.873, 1578579288873
20, -187500.02, -187500.02, -187500.02, -187500.02, -187500.02, -187500.02, -187500.02, -159068.02, 0.000, 0.000, 0.000, 16:14:48.873, 1578579288873
21, -187500.02, -187500.02, -187500.02, -187500.02, -187500.02, -187500.02, -187500.02, -187500.02, 0.000, 0.000, 0.000, 16:14:48.874, 1578579288874
22, -187500.02, -187500.02, -187500.02, -187500.02, -187500.02, -187500.02, -187500.02, -159054.38, 0.000, 0.000, 0.000, 16:14:48.874, 1578579288874
23, -187500.02, -187500.02, -187500.02, -187500.02, -187500.02, -187500.02, -187500.02, -187500.02, 0.000, 0.000, 0.000, 16:14:48.874, 1578579288874
24, -187500.02, -187500.02, -187500.02, -187500.02, -187500.02, -187500.02, -187500.02, -159037.86, 0.000, 0.000, 0.000, 16:14:48.874, 1578579288874
25, -187500.02, -187500.02, -187500.02, -187500.02, -187500.02, -187500.02, -187500.02, -187500.02, 0.000, 0.000, 0.000, 16:14:48.874, 1578579288874
26, -187500.02, -187500.02, -187500.02, -187500.02, -187500.02, -187500.02, -187500.02, -159020.83, 0.000, 0.000, 0.000, 16:14:48.874, 1578579288874
27, -187500.02, -187500.02, -187500.02, -187500.02, -187500.02, -187500.02, -187500.02, -187500.02, -0.002, -0.022, 0.980, 16:14:48.874, 1578579288874
28, -187500.02, -187500.02, -187500.02, -187500.02, -187500.02, -187500.02, -187500.02, -159004.83, 0.000, 0.000, 0.000, 16:14:48.874, 1578579288874
29, -187500.02, -187500.02, -187500.02, -187500.02, -187500.02, -187500.02, -187500.02, -187500.02, 0.000, 0.000, 0.000, 16:14:48.874, 1578579288874
30, -187500.02, -187500.02, -187500.02, -187500.02, -187500.02, -187500.02, -187500.02, -158985.47, 0.000, 0.000, 0.000, 16:14:48.874, 1578579288874
31, -187500.02, -187500.02, -187500.02, -187500.02, -187500.02, -187500.02, -187500.02, -187500.02, 0.000, 0.000, 0.000, 16:14:48.874, 1578579288874
32, -187500.02, -187500.02, -187500.02, -187500.02, -187500.02, -187500.02, -187500.02, -158971.45, 0.000, 0.000, 0.000, 16:14:48.874, 1578579288874
33, -187500.02, -187500.02, -187500.02, -187500.02, -187500.02, -187500.02, -187500.02, -187500.02, 0.000, 0.000, 0.000, 16:14:48.874, 1578579288874
34, -187500.02, -187500.02, -187500.02, -187500.02, -187500.02, -187500.02, -187500.02, -158957.23, 0.000, 0.000, 0.000, 16:14:48.874, 1578579288874
35, -187500.02, -187500.02, -187500.02, -187500.02, -187500.02, -187500.02, -187500.02, -187500.02, 0.000, 0.000, 0.000, 16:14:48.874, 1578579288874
36, -187500.02, -187500.02, -187500.02, -187500.02, -187500.02, -187500.02, -187500.02, -158941.23, 0.000, 0.000, 0.000, 16:14:48.874, 1578579288874
37, -187500.02, -187500.02, -187500.02, -187500.02, -187500.02, -187500.02, -187500.02, -187500.02, -0.006, -0.024, 0.978, 16:14:48.874, 1578579288874
38, -187500.02, -187500.02, -187500.02, -187500.02, -187500.02, -187500.02, -187500.02, -158926.06, 0.000, 0.000, 0.000, 16:14:48.874, 1578579288874
39, -187500.02, -187500.02, -187500.02, -187500.02, -187500.02, -187500.02, -187500.02, -187500.02, 0.000, 0.000, 0.000, 16:14:48.874, 1578579288874
40, -187500.02, -187500.02, -187500.02, -187500.02, -187500.02, -187500.02, -187500.02, -158909.00, 0.000, 0.000, 0.000, 16:14:48.874, 1578579288874
41, -187500.02, -187500.02, -187500.02, -187500.02, -187500.02, -187500.02, -187500.02, -187500.02, 0.000, 0.000, 0.000, 16:14:48.874, 1578579288874
42, -187500.02, -187500.02, -187500.02, -187500.02, -187500.02, -187500.02, -187500.02, -158894.91, 0.000, 0.000, 0.000, 16:14:48.874, 1578579288874
43, -187500.02, -187500.02, -187500.02, -187500.02, -187500.02, -187500.02, -187500.02, -187500.02, 0.000, 0.000, 0.000, 16:14:48.874, 1578579288874
44, -187500.02, -187500.02, -187500.02, -187500.02, -187500.02, -187500.02, -187500.02, -158879.19, 0.000, 0.000, 0.000, 16:14:48.875, 1578579288875
45, -187500.02, -187500.02, -187500.02, -187500.02, -187500.02, -187500.02, -187500.02, -187500.02, 0.000, 0.000, 0.000, 16:14:48.875, 1578579288875
46, -187500.02, -187500.02, -187500.02, -187500.02, -187500.02, -187500.02, -187500.02, -158861.20, 0.000, 0.000, 0.000, 16:14:48.875, 1578579288875
47, -187500.02, -187500.02, -187500.02, -187500.02, -187500.02, -187500.02, -187500.02, -187500.02, -0.004, -0.024, 0.982, 16:14:48.875, 1578579288875
48, -187500.02, -187500.02, -187500.02, -187500.02, -187500.02, -187500.02, -187500.02, -158850.11, 0.000, 0.000, 0.000, 16:14:48.875, 1578579288875
49, -187500.02, -187500.02, -187500.02, -187500.02, -187500.02, -187500.02, -187500.02, -187500.02, 0.000, 0.000, 0.000, 16:14:48.875, 1578579288875
50, -187500.02, -187500.02, -187500.02, -187500.02, -187500.02, -187500.02, -187500.02, -158835.06, 0.000, 0.000, 0.000, 16:14:48.875, 1578579288875
51, -187500.02, -187500.02, -187500.02, -187500.02, -187500.02, -187500.02, -187500.02, -187500.02, 0.000, 0.000, 0.000, 16:14:48.876, 1578579288876
52, -187500.02, -187500.02, -187500.02, -187500.02, -187500.02, -187500.02, -187500.02, -158817.63, 0.000, 0.000, 0.000, 16:14:48.876, 1578579288876
53, -187500.02, -187500.02, -187500.02, -187500.02, -187500.02, -187500.02, -187500.02, -187500.02, 0.000, 0.000, 0.000, 16:14:48.876, 1578579288876
54, -187500.02, -187500.02, -187500.02, -187500.02, -187500.02, -187500.02, -187500.02, -158802.39, 0.000, 0.000, 0.000, 16:14:48.876, 1578579288876
55, -187500.02, -187500.02, -187500.02, -187500.02, -187500.02, -187500.02, -187500.02, -187500.02, 0.000, 0.000, 0.000, 16:14:48.876, 1578579288876
56, -187500.02, -187500.02, -187500.02, -187500.02, -187500.02, -187500.02, -187500.02, -158787.69, -0.004, -0.016, 0.984, 16:14:48.876, 1578579288876
57, -187500.02, -187500.02, -187500.02, -187500.02, -187500.02, -187500.02, -187500.02, -187500.02, 0.000, 0.000, 0.000, 16:14:48.876, 1578579288876
58, -187500.02, -187500.02, -187500.02, -187500.02, -187500.02, -187500.02, -187500.02, -158772.19, 0.000, 0.000, 0.000, 16:14:48.876, 1578579288876
59, -187500.02, -187500.02, -187500.02, -187500.02, -187500.02, -187500.02, -187500.02, -187500.02, 0.000, 0.000, 0.000, 16:14:48.876, 1578579288876
60, -187500.02, -187500.02, -187500.02, -187500.02, -187500.02, -187500.02, -187500.02, -158755.30, 0.000, 0.000, 0.000, 16:14:48.876, 1578579288876
61, -187500.02, -187500.02, -187500.02, -187500.02, -187500.02, -187500.02, -187500.02, -187500.02, 0.000, 0.000, 0.000, 16:14:48.876, 1578579288876
62, -187500.02, -187500.02, -187500.02, -187500.02, -187500.02, -187500.02, -187500.02, -158739.95, 0.000, 0.000, 0.000, 16:14:48.876, 1578579288876
63, -187500.02, -187500.02, -187500.02, -187500.02, -187500.02, -187500.02, -187500.02, -187500.02, 0.000, 0.000, 0.000, 16:14:48.876, 1578579288876
64, -187500.02, -187500.02, -187500.02, -187500.02, -187500.02, -187500.02, -187500.02, -158720.77, 0.000, 0.000, 0.000, 16:14:48.876, 1578579288876
65, -187500.02, -187500.02, -187500.02, -187500.02, -187500.02, -187500.02, -187500.02, -187500.02, 0.000, 0.000, 0.000, 16:14:48.876, 1578579288876
66, -187500.02, -187500.02, -187500.02, -187500.02, -187500.02, -187500.02, -187500.02, -158707.48, -0.002, -0.016, 0.980, 16:14:48.876, 1578579288876
67, -187500.02, -187500.02, -187500.02, -187500.02, -187500.02, -187500.02, -187500.02, -187500.02, 0.000, 0.000, 0.000, 16:14:48.876, 1578579288876
68, -187500.02, -187500.02, -187500.02, -187500.02, -187500.02, -187500.02, -187500.02, -158693.92, 0.000, 0.000, 0.000, 16:14:48.876, 1578579288876
69, -187500.02, -187500.02, -187500.02, -187500.02, -187500.02, -187500.02, -187500.02, -187500.02, 0.000, 0.000, 0.000, 16:14:48.876, 1578579288876
70, -187500.02, -187500.02, -187500.02, -187500.02, -187500.02, -187500.02, -187500.02, -158679.50, 0.000, 0.000, 0.000, 16:14:48.876, 1578579288876
71, -187500.02, -187500.02, -187500.02, -187500.02, -187500.02, -187500.02, -187500.02, -187500.02, 0.000, 0.000, 0.000, 16:14:48.877, 1578579288877
72, -187500.02, -187500.02, -187500.02, -187500.02, -187500.02, -187500.02, -187500.02, -158666.28, 0.000, 0.000, 0.000, 16:14:48.877, 1578579288877
73, -187500.02, -187500.02, -187500.02, -187500.02, -187500.02, -187500.02, -187500.02, -187500.02, 0.000, 0.000, 0.000, 16:14:48.877, 1578579288877
74, -187500.02, -187500.02, -187500.02, -187500.02, -187500.02, -187500.02, -187500.02, -158648.86, 0.000, 0.000, 0.000, 16:14:48.877, 1578579288877
75, -187500.02, -187500.02, -187500.02, -187500.02, -187500.02, -187500.02, -187500.02, -187500.02, 0.000, 0.000, 0.000, 16:14:48.877, 1578579288877
76, -187500.02, -187500.02, -187500.02, -187500.02, -187500.02, -187500.02, -187500.02, -158631.69, -0.002, -0.016, 0.976, 16:14:48.877, 1578579288877
77, -187500.02, -187500.02, -187500.02, -187500.02, -187500.02, -187500.02, -187500.02, -187500.02, 0.000, 0.000, 0.000, 16:14:48.877, 1578579288877
78, -187500.02, -187500.02, -187500.02, -187500.02, -187500.02, -187500.02, -187500.02, -158614.61, 0.000, 0.000, 0.000, 16:14:48.877, 1578579288877
79, -187500.02, -187500.02, -187500.02, -187500.02, -187500.02, -187500.02, -187500.02, -187500.02, 0.000, 0.000, 0.000, 16:14:48.877, 1578579288877
80, -187500.02, -187500.02, -187500.02, -187500.02, -187500.02, -187500.02, -187500.02, -158599.86, 0.000, 0.000, 0.000, 16:14:48.877, 1578579288877
81, -187500.02, -187500.02, -187500.02, -187500.02, -187500.02, -187500.02, -187500.02, -187500.02, 0.000, 0.000, 0.000, 16:14:48.877, 1578579288877
82, -187500.02, -187500.02, -187500.02, -187500.02, -187500.02, -187500.02, -187500.02, -158582.92, 0.000, 0.000, 0.000, 16:14:48.877, 1578579288877
83, -187500.02, -187500.02, -187500.02, -187500.02, -187500.02, -187500.02, -187500.02, -187500.02, 0.000, 0.000, 0.000, 16:14:48.877, 1578579288877
84, -187500.02, -187500.02, -187500.02, -187500.02, -187500.02, -187500.02, -187500.02, -158566.59, 0.000, 0.000, 0.000, 16:14:48.877, 1578579288877
85, -187500.02, -187500.02, -187500.02, -187500.02, -187500.02, -187500.02, -187500.02, -187500.02, 0.000, 0.000, 0.000, 16:14:48.877, 1578579288877
86, -187500.02, -187500.02, -187500.02, -187500.02, -187500.02, -187500.02, -187500.02, -158551.36, -0.002, -0.012, 0.974, 16:14:48.878, 1578579288878
87, -187500.02, -187500.02, -187500.02, -187500.02, -187500.02, -187500.02, -187500.02, -187500.02, 0.000, 0.000, 0.000, 16:14:48.878, 1578579288878
88, -187500.02, -187500.02, -187500.02, -187500.02, -187500.02, -187500.02, -187500.02, -158540.03, 0.000, 0.000, 0.000, 16:14:48.878, 1578579288878
89, -187500.02, -187500.02, -187500.02, -187500.02, -187500.02, -187500.02, -187500.02, -187500.02, 0.000, 0.000, 0.000, 16:14:48.878, 1578579288878
90, -187500.02, -187500.02, -187500.02, -187500.02, -187500.02, -187500.02, -187500.02, -158525.20, 0.000, 0.000, 0.000, 16:14:48.878, 1578579288878
91, -187500.02, -187500.02, -187500.02, -187500.02, -187500.02, -187500.02, -187500.02, -187500.02, 0.000, 0.000, 0.000, 16:14:48.878, 1578579288878
92, -187500.02, -187500.02, -187500.02, -187500.02, -187500.02, -187500.02, -187500.02, -158510.91, 0.000, 0.000, 0.000, 16:14:48.878, 1578579288878
93, -187500.02, -187500.02, -187500.02, -187500.02, -187500.02, -187500.02, -187500.02, -187500.02, 0.000, 0.000, 0.000, 16:14:48.878, 1578579288878
94, -187500.02, -187500.02, -187500.02, -187500.02, -187500.02, -187500.02, -187500.02, -158495.05, 0.000, 0.000, 0.000, 16:14:48.878, 1578579288878
95, -187500.02, -187500.02, -187500.02, -187500.02, -187500.02, -187500.02, -187500.02, -187500.02, -0.004, -0.016, 0.974, 16:14:48.878, 1578579288878
96, -187500.02, -187500.02, -187500.02, -187500.02, -187500.02, -187500.02, -187500.02, -158481.16, 0.000, 0.000, 0.000, 16:14:48.878, 1578579288878
97, -187500.02, -187500.02, -187500.02, -187500.02, -187500.02, -187500.02, -187500.02, -187500.02, 0.000, 0.000, 0.000, 16:14:48.878, 1578579288878
98, -187500.02, -187500.02, -187500.02, -187500.02, -187500.02, -187500.02, -187500.02, -158465.23, 0.000, 0.000, 0.000, 16:14:48.878, 1578579288878
99, -187500.02, -187500.02, -187500.02, -187500.02, -187500.02, -187500.02, -187500.02, -187500.02, 0.000, 0.000, 0.000, 16:14:48.878, 1578579288878
100, -187500.02, -187500.02, -187500.02, -187500.02, -187500.02, -187500.02, -187500.02, -158449.67, 0.000, 0.000, 0.000, 16:14:48.878, 1578579288878
101, -187500.02, -187500.02, -187500.02, -187500.02, -187500.02, -187500.02, -187500.02, -187500.02, 0.000, 0.000, 0.000, 16:14:48.878, 1578579288878
102, -187500.02, -187500.02, -187500.02, -187500.02, -187500.02, -187500.02, -187500.02, -158437.42, 0.000, 0.000, 0.000, 16:14:48.878, 1578579288878
103, -187500.02, -187500.02, -187500.02, -187500.02, -187500.02, -187500.02, -187500.02, -187500.02, 0.000, 0.000, 0.000, 16:14:48.878, 1578579288878
104, -187500.02, -187500.02, -187500.02, -187500.02, -187500.02, -187500.02, -187500.02, -158421.89, 0.000, 0.000, 0.000, 16:14:48.878, 1578579288878
105, -187500.02, -187500.02, -187500.02, -187500.02, -187500.02, -187500.02, -187500.02, -187500.02, -0.004, -0.014, 0.964, 16:14:48.878, 1578579288878
106, -187500.02, -187500.02, -187500.02, -187500.02, -187500.02, -187500.02, -187500.02, -158407.52, 0.000, 0.000, 0.000, 16:14:48.878, 1578579288878
107, -187500.02, -187500.02, -187500.02, -187500.02, -187500.02, -187500.02, -187500.02, -187500.02, 0.000, 0.000, 0.000, 16:14:48.878, 1578579288878
108, -187500.02, -187500.02, -187500.02, -187500.02, -187500.02, -187500.02, -187500.02, -158392.39, 0.000, 0.000, 0.000, 16:14:48.878, 1578579288878
109, -187500.02, -187500.02, -187500.02, -187500.02, -187500.02, -187500.02, -187500.02, -187500.02, 0.000, 0.000, 0.000, 16:14:48.879, 1578579288879
110, -187500.02, -187500.02, -187500.02, -187500.02, -187500.02, -187500.02, -187500.02, -158375.67, 0.000, 0.000, 0.000, 16:14:48.879, 1578579288879
111, -187500.02, -187500.02, -187500.02, -187500.02, -187500.02, -187500.02, -187500.02, -187500.02, 0.000, 0.000, 0.000, 16:14:48.879, 1578579288879
112, -187500.02, -187500.02, -187500.02, -187500.02, -187500.02, -187500.02, -187500.02, -158360.14, 0.000, 0.000, 0.000, 16:14:48.879, 1578579288879
113, -187500.02, -187500.02, -187500.02, -187500.02, -187500.02, -187500.02, -187500.02, -187500.02, 0.000, 0.000, 0.000, 16:14:48.879, 1578579288879
114, -187500.02, -187500.02, -187500.02, -187500.02, -187500.02, -187500.02, -187500.02, -158347.53, 0.000, 0.000, 0.000, 16:14:48.879, 1578579288879
115, -187500.02, -187500.02, -187500.02, -187500.02, -187500.02, -187500.02, -187500.02, -187500.02, -0.006, -0.018, 0.966, 16:14:48.879, 1578579288879
116, -187500.02, -187500.02, -187500.02, -187500.02, -187500.02, -187500.02, -187500.02, -158332.95, 0.000, 0.000, 0.000, 16:14:48.879, 1578579288879
117, -187500.02, -187500.02, -187500.02, -187500.02, -187500.02, -187500.02, -187500.02, -187500.02, 0.000, 0.000, 0.000, 16:14:48.879, 1578579288879
118, -187500.02, -187500.02, -187500.02, -187500.02, -187500.02, -187500.02, -187500.02, -158318.41, 0.000, 0.000, 0.000, 16:14:48.879, 1578579288879
119, -187500.02, -187500.02, -187500.02, -187500.02, -187500.02, -187500.02, -187500.02, -187500.02, 0.000, 0.000, 0.000, 16:14:48.879, 1578579288879
120, -187500.02, -187500.02, -187500.02, -187500.02, -187500.02, -187500.02, -187500.02, -158309.48, 0.000, 0.000, 0.000, 16:14:48.879, 1578579288879
121, -187500.02, -187500.02, -187500.02, -187500.02, -187500.02, -187500.02, -187500.02, -187500.02, 0.000, 0.000, 0.000, 16:14:48.879, 1578579288879
122, -187500.02, -187500.02, -187500.02, -187500.02, -187500.02, -187500.02, -187500.02, -158293.86, 0.000, 0.000, 0.000, 16:14:49.353, 1578579289353
123, -187500.02, -187500.02, -187500.02, -187500.02, -187500.02, -187500.02, -187500.02, -187500.02, 0.000, 0.000, 0.000, 16:14:49.353, 1578579289353
124, -187500.02, -187500.02, -187500.02, -187500.02, -187500.02, -187500.02, -187500.02, -158277.86, 0.000, 0.000, 0.000, 16:14:49.354, 1578579289354
125, -187500.02, -187500.02, -187500.02, -187500.02, -187500.02, -187500.02, -187500.02, -187500.02, 0.000, -0.026, 0.978, 16:14:49.354, 1578579289354
126, -187500.02, -187500.02, -187500.02, -187500.02, -187500.02, -187500.02, -187500.02, -158262.44, 0.000, 0.000, 0.000, 16:14:49.354, 1578579289354
127, -187500.02, -187500.02, -187500.02, -187500.02, -187500.02, -187500.02, -187500.02, -187500.02, 0.000, 0.000, 0.000, 16:14:49.354, 1578579289354
128, -187500.02, -187500.02, -187500.02, -187500.02, -187500.02, -187500.02, -187500.02, -158247.31, 0.000, 0.000, 0.000, 16:14:49.354, 1578579289354
129, -187500.02, -187500.02, -187500.02, -187500.02, -187500.02, -187500.02, -187500.02, -187500.02, 0.000, 0.000, 0.000, 16:14:49.354, 1578579289354
130, -187500.02, -187500.02, -187500.02, -187500.02, -187500.02, -187500.02, -187500.02, -158235.19, 0.000, 0.000, 0.000, 16:14:49.354, 1578579289354
131, -187500.02, -187500.02, -187500.02, -187500.02, -187500.02, -187500.02, -187500.02, -187500.02, 0.000, 0.000, 0.000, 16:14:49.354, 1578579289354
132, -187500.02, -187500.02, -187500.02, -187500.02, -187500.02, -187500.02, -187500.02, -158222.25, 0.000, 0.000, 0.000, 16:14:49.354, 1578579289354
133, -187500.02, -187500.02, -187500.02, -187500.02, -187500.02, -187500.02, -187500.02, -187500.02, 0.000, 0.000, 0.000, 16:14:49.354, 1578579289354
134, -187500.02, -187500.02, -187500.02, -187500.02, -187500.02, -187500.02, -187500.02, -158209.20, -0.004, -0.024, 0.956, 16:14:49.354, 1578579289354
135, -187500.02, -187500.02, -187500.02, -187500.02, -187500.02, -187500.02, -187500.02, -187500.02, 0.000, 0.000, 0.000, 16:14:49.354, 1578579289354
136, -187500.02, -187500.02, -187500.02, -187500.02, -187500.02, -187500.02, -187500.02, -158193.23, 0.000, 0.000, 0.000, 16:14:49.354, 1578579289354
137, -187500.02, -187500.02, -187500.02, -187500.02, -187500.02, -187500.02, -187500.02, -187500.02, 0.000, 0.000, 0.000, 16:14:49.354, 1578579289354
138, -187500.02, -187500.02, -187500.02, -187500.02, -187500.02, -187500.02, -187500.02, -158179.98, 0.000, 0.000, 0.000, 16:14:49.354, 1578579289354
139, -187500.02, -187500.02, -187500.02, -187500.02, -187500.02, -187500.02, -187500.02, -187500.02, 0.000, 0.000, 0.000, 16:14:49.354, 1578579289354
140, -187500.02, -187500.02, -187500.02, -187500.02, -187500.02, -187500.02, -187500.02, -158165.67, 0.000, 0.000, 0.000, 16:14:49.354, 1578579289354
141, -187500.02, -187500.02, -187500.02, -187500.02, -187500.02, -187500.02, -187500.02, -187500.02, 0.000, 0.000, 0.000, 16:14:49.354, 1578579289354
142, -187500.02, -187500.02, -187500.02, -187500.02, -187500.02, -187500.02, -187500.02, -158148.52, 0.000, 0.000, 0.000, 16:14:49.354, 1578579289354
143, -187500.02, -187500.02, -187500.02, -187500.02, -187500.02, -187500.02, -187500.02, -187500.02, 0.000, 0.000, 0.000, 16:14:49.354, 1578579289354
144, -187500.02, -187500.02, -187500.02, -187500.02, -187500.02, -187500.02, -187500.02, -158133.11, 0.002, -0.022, 0.968, 16:14:49.354, 1578579289354
145, -187500.02, -187500.02, -187500.02, -187500.02, -187500.02, -187500.02, -187500.02, -187500.02, 0.000, 0.000, 0.000, 16:14:49.354, 1578579289354
146, -187500.02, -187500.02, -187500.02, -187500.02, -187500.02, -187500.02, -187500.02, -158119.98, 0.000, 0.000, 0.000, 16:14:49.354, 1578579289354
147, -187500.02, -187500.02, -187500.02, -187500.02, -187500.02, -187500.02, -187500.02, -187500.02, 0.000, 0.000, 0.000, 16:14:49.355, 1578579289355
148, -187500.02, -187500.02, -187500.02, -187500.02, -187500.02, -187500.02, -187500.02, -158104.08, 0.000, 0.000, 0.000, 16:14:49.355, 1578579289355
149, -187500.02, -187500.02, -187500.02, -187500.02, -187500.02, -187500.02, -187500.02, -187500.02, 0.000, 0.000, 0.000, 16:14:49.355, 1578579289355
150, -187500.02, -187500.02, -187500.02, -187500.02, -187500.02, -187500.02, -187500.02, -158092.39, 0.000, 0.000, 0.000, 16:14:49.355, 1578579289355
151, -187500.02, -187500.02, -187500.02, -187500.02, -187500.02, -187500.02, -187500.02, -187500.02, 0.000, 0.000, 0.000, 16:14:49.355, 1578579289355
152, -187500.02, -187500.02, -187500.02, -187500.02, -187500.02, -187500.02, -187500.02, -158080.11, 0.000, 0.000, 0.000, 16:14:49.355, 1578579289355
153, -187500.02, -187500.02, -187500.02, -187500.02, -187500.02, -187500.02, -187500.02, -187500.02, 0.000, 0.000, 0.000, 16:14:49.355, 1578579289355
154, -187500.02, -187500.02, -187500.02, -187500.02, -187500.02, -187500.02, -187500.02, -158067.31, 0.000, -0.020, 0.970, 16:14:49.355, 1578579289355
155, -187500.02, -187500.02, -187500.02, -187500.02, -187500.02, -187500.02, -187500.02, -187500.02, 0.000, 0.000, 0.000, 16:14:49.355, 1578579289355
156, -187500.02, -187500.02, -187500.02, -187500.02, -187500.02, -187500.02, -187500.02, -158054.44, 0.000, 0.000, 0.000, 16:14:49.355, 1578579289355
157, -187500.02, -187500.02, -187500.02, -187500.02, -187500.02, -187500.02, -187500.02, -187500.02, 0.000, 0.000, 0.000, 16:14:49.355, 1578579289355
158, -187500.02, -187500.02, -187500.02, -187500.02, -187500.02, -187500.02, -187500.02, -158037.98, 0.000, 0.000, 0.000, 16:14:49.355, 1578579289355
159, -187500.02, -187500.02, -187500.02, -187500.02, -187500.02, -187500.02, -187500.02, -187500.02, 0.000, 0.000, 0.000, 16:14:49.355, 1578579289355
160, -187500.02, -187500.02, -187500.02, -187500.02, -187500.02, -187500.02, -187500.02, -158025.22, 0.000, 0.000, 0.000, 16:14:49.355, 1578579289355
161, -187500.02, -187500.02, -187500.02, -187500.02, -187500.02, -187500.02, -187500.02, -187500.02, 0.000, 0.000, 0.000, 16:14:49.355, 1578579289355
162, -187500.02, -187500.02, -187500.02, -187500.02, -187500.02, -187500.02, -187500.02, -158011.09, 0.000, 0.000, 0.000, 16:14:49.355, 1578579289355
163, -187500.02, -187500.02, -187500.02, -187500.02, -187500.02, -187500.02, -187500.02, -187500.02, 0.000, 0.000, 0.000, 16:14:49.355, 1578579289355
164, -187500.02, -187500.02, -187500.02, -187500.02, -187500.02, -187500.02, -187500.02, -157997.02, -0.004, -0.020, 0.974, 16:14:49.355, 1578579289355
165, -187500.02, -187500.02, -187500.02, -187500.02, -187500.02, -187500.02, -187500.02, -187500.02, 0.000, 0.000, 0.000, 16:14:49.355, 1578579289355
166, -187500.02, -187500.02, -187500.02, -187500.02, -187500.02, -187500.02, -187500.02, -157983.33, 0.000, 0.000, 0.000, 16:14:49.355, 1578579289355
167, -187500.02, -187500.02, -187500.02, -187500.02, -187500.02, -187500.02, -187500.02, -187500.02, 0.000, 0.000, 0.000, 16:14:49.355, 1578579289355
168, -187500.02, -187500.02, -187500.02, -187500.02, -187500.02, -187500.02, -187500.02, -157972.64, 0.000, 0.000, 0.000, 16:14:49.355, 1578579289355
169, -187500.02, -187500.02, -187500.02, -187500.02, -187500.02, -187500.02, -187500.02, -187500.02, 0.000, 0.000, 0.000, 16:14:49.355, 1578579289355
170, -187500.02, -187500.02, -187500.02, -187500.02, -187500.02, -187500.02, -187500.02, -157955.03, 0.000, 0.000, 0.000, 16:14:49.356, 1578579289356
171, -187500.02, -187500.02, -187500.02, -187500.02, -187500.02, -187500.02, -187500.02, -187500.02, 0.000, 0.000, 0.000, 16:14:49.356, 1578579289356
172, -187500.02, -187500.02, -187500.02, -187500.02, -187500.02, -187500.02, -187500.02, -157940.19, 0.000, 0.000, 0.000, 16:14:49.356, 1578579289356
173, -187500.02, -187500.02, -187500.02, -187500.02, -187500.02, -187500.02, -187500.02, -187500.02, -0.004, -0.024, 0.974, 16:14:49.356, 1578579289356
174, -187500.02, -187500.02, -187500.02, -187500.02, -187500.02, -187500.02, -187500.02, -157925.59, 0.000, 0.000, 0.000, 16:14:49.356, 1578579289356
175, -187500.02, -187500.02, -187500.02, -187500.02, -187500.02, -187500.02, -187500.02, -187500.02, 0.000, 0.000, 0.000, 16:14:49.356, 1578579289356
176, -187500.02, -187500.02, -187500.02, -187500.02, -187500.02, -187500.02, -187500.02, -157911.41, 0.000, 0.000, 0.000, 16:14:49.356, 1578579289356
177, -187500.02, -187500.02, -187500.02, -187500.02, -187500.02, -187500.02, -187500.02, -187500.02, 0.000, 0.000, 0.000, 16:14:49.356, 1578579289356
178, -187500.02, -187500.02, -187500.02, -187500.02, -187500.02, -187500.02, -187500.02, -157898.59, 0.000, 0.000, 0.000, 16:14:49.356, 1578579289356
179, -187500.02, -187500.02, -187500.02, -187500.02, -187500.02, -187500.02, -187500.02, -187500.02, 0.000, 0.000, 0.000, 16:14:49.356, 1578579289356
180, -187500.02, -187500.02, -187500.02, -187500.02, -187500.02, -187500.02, -187500.02, -157888.83, 0.000, 0.000, 0.000, 16:14:49.356, 1578579289356
181, -187500.02, -187500.02, -187500.02, -187500.02, -187500.02, -187500.02, -187500.02, -187500.02, 0.000, 0.000, 0.000, 16:14:49.356, 1578579289356
182, -187500.02, -187500.02, -187500.02, -187500.02, -187500.02, -187500.02, -187500.02, -157877.72, 0.000, 0.000, 0.000, 16:14:49.356, 1578579289356
183, -187500.02, -187500.02, -187500.02, -187500.02, -187500.02, -187500.02, -187500.02, -187500.02, -0.008, -0.026, 0.974, 16:14:49.356, 1578579289356
184, -187500.02, -187500.02, -187500.02, -187500.02, -187500.02, -187500.02, -187500.02, -157862.75, 0.000, 0.000, 0.000, 16:14:49.356, 1578579289356
185, -187500.02, -187500.02, -187500.02, -187500.02, -187500.02, -187500.02, -187500.02, -187500.02, 0.000, 0.000, 0.000, 16:14:49.356, 1578579289356
186, -187500.02, -187500.02, -187500.02, -187500.02, -187500.02, -187500.02, -187500.02, -157846.67, 0.000, 0.000, 0.000, 16:14:49.356, 1578579289356
187, -187500.02, -187500.02, -187500.02, -187500.02, -187500.02, -187500.02, -187500.02, -187500.02, 0.000, 0.000, 0.000, 16:14:49.356, 1578579289356
188, -187500.02, -187500.02, -187500.02, -187500.02, -187500.02, -187500.02, -187500.02, -157835.47, 0.000, 0.000, 0.000, 16:14:49.356, 1578579289356
189, -187500.02, -187500.02, -187500.02, -187500.02, -187500.02, -187500.02, -187500.02, -187500.02, 0.000, 0.000, 0.000, 16:14:49.356, 1578579289356
190, -187500.02, -187500.02, -187500.02, -187500.02, -187500.02, -187500.02, -187500.02, -157819.27, 0.000, 0.000, 0.000, 16:14:49.356, 1578579289356
191, -187500.02, -187500.02, -187500.02, -187500.02, -187500.02, -187500.02, -187500.02, -187500.02, 0.000, 0.000, 0.000, 16:14:49.357, 1578579289357
192, -187500.02, -187500.02, -187500.02, -187500.02, -187500.02, -187500.02, -187500.02, -157809.41, 0.000, 0.000, 0.000, 16:14:49.357, 1578579289357
193, -187500.02, -187500.02, -187500.02, -187500.02, -187500.02, -187500.02, -187500.02, -187500.02, -0.014, -0.022, 0.974, 16:14:49.357, 1578579289357
194, -187500.02, -187500.02, -187500.02, -187500.02, -187500.02, -187500.02, -187500.02, -157795.39, 0.000, 0.000, 0.000, 16:14:49.357, 1578579289357
195, -187500.02, -187500.02, -187500.02, -187500.02, -187500.02, -187500.02, -187500.02, -187500.02, 0.000, 0.000, 0.000, 16:14:49.357, 1578579289357
196, -187500.02, -187500.02, -187500.02, -187500.02, -187500.02, -187500.02, -187500.02, -157782.13, 0.000, 0.000, 0.000, 16:14:49.357, 1578579289357
197, -187500.02, -187500.02, -187500.02, -187500.02, -187500.02, -187500.02, -187500.02, -187500.02, 0.000, 0.000, 0.000, 16:14:49.357, 1578579289357
198, -187500.02, -187500.02, -187500.02, -187500.02, -187500.02, -187500.02, -187500.02, -157769.27, 0.000, 0.000, 0.000, 16:14:49.357, 1578579289357
199, -187500.02, -187500.02, -187500.02, -187500.02, -187500.02, -187500.02, -187500.02, -187500.02, 0.000, 0.000, 0.000, 16:14:49.357, 1578579289357
200, -187500.02, -187500.02, -187500.02, -187500.02, -187500.02, -187500.02, -187500.02, -157753.83, 0.000, 0.000, 0.000, 16:14:49.357, 1578579289357
201, -187500.02, -187500.02, -187500.02, -187500.02, -187500.02, -187500.02, -187500.02, -187500.02, 0.000, 0.000, 0.000, 16:14:49.357, 1578579289357
202, -187500.02, -187500.02, -187500.02, -187500.02, -187500.02, -187500.02, -187500.02, -157738.83, 0.000, 0.000, 0.000, 16:14:49.357, 1578579289357
203, -187500.02, -187500.02, -187500.02, -187500.02, -187500.02, -187500.02, -187500.02, -187500.02, -0.052, -0.050, 0.972, 16:14:49.357, 1578579289357
204, -187500.02, -187500.02, -187500.02, -187500.02, -187500.02, -187500.02, -187500.02, -157726.05, 0.000, 0.000, 0.000, 16:14:49.357, 1578579289357
205, -187500.02, -187500.02, -187500.02, -187500.02, -187500.02, -187500.02, -187500.02, -187500.02, 0.000, 0.000, 0.000, 16:14:49.357, 1578579289357
206, -187500.02, -187500.02, -187500.02, -187500.02, -187500.02, -187500.02, -187500.02, -157715.06, 0.000, 0.000, 0.000, 16:14:49.357, 1578579289357
207, -187500.02, -187500.02, -187500.02, -187500.02, -187500.02, -187500.02, -187500.02, -187500.02, 0.000, 0.000, 0.000, 16:14:49.357, 1578579289357
208, -187500.02, -187500.02, -187500.02, -187500.02, -187500.02, -187500.02, -187500.02, -157703.52, 0.000, 0.000, 0.000, 16:14:49.358, 1578579289358
209, -187500.02, -187500.02, -187500.02, -187500.02, -187500.02, -187500.02, -187500.02, -187500.02, 0.000, 0.000, 0.000, 16:14:49.358, 1578579289358
210, -187500.02, -187500.02, -187500.02, -187500.02, -187500.02, -187500.02, -187500.02, -157689.34, 0.000, 0.000, 0.000, 16:14:49.358, 1578579289358
211, -187500.02, -187500.02, -187500.02, -187500.02, -187500.02, -187500.02, -187500.02, -187500.02, 0.000, 0.000, 0.000, 16:14:49.358, 1578579289358
212, -187500.02, -187500.02, -187500.02, -187500.02, -187500.02, -187500.02, -187500.02, -157677.06, -0.022, -0.022, 0.892, 16:14:49.358, 1578579289358
213, -187500.02, -187500.02, -187500.02, -187500.02, -187500.02, -187500.02, -187500.02, -187500.02, 0.000, 0.000, 0.000, 16:14:49.358, 1578579289358
214, -187500.02, -187500.02, -187500.02, -187500.02, -187500.02, -187500.02, -187500.02, -157663.66, 0.000, 0.000, 0.000, 16:14:49.358, 1578579289358
215, -187500.02, -187500.02, -187500.02, -187500.02, -187500.02, -187500.02, -187500.02, -187500.02, 0.000, 0.000, 0.000, 16:14:49.358, 1578579289358
216, -187500.02, -187500.02, -187500.02, -187500.02, -187500.02, -187500.02, -187500.02, -157650.09, 0.000, 0.000, 0.000, 16:14:49.358, 1578579289358
217, -187500.02, -187500.02, -187500.02, -187500.02, -187500.02, -187500.02, -187500.02, -187500.02, 0.000, 0.000, 0.000, 16:14:49.358, 1578579289358
218, -187500.02, -187500.02, -187500.02, -187500.02, -187500.02, -187500.02, -187500.02, -157638.56, 0.000, 0.000, 0.000, 16:14:49.358, 1578579289358
219, -187500.02, -187500.02, -187500.02, -187500.02, -187500.02, -187500.02, -187500.02, -187500.02, 0.000, 0.000, 0.000, 16:14:49.358, 1578579289358
220, -187500.02, -187500.02, -187500.02, -187500.02, -187500.02, -187500.02, -187500.02, -157622.75, 0.000, 0.000, 0.000, 16:14:49.358, 1578579289358
221, -187500.02, -187500.02, -187500.02, -187500.02, -187500.02, -187500.02, -187500.02, -187500.02, 0.000, 0.000, 0.000, 16:14:49.358, 1578579289358
222, -187500.02, -187500.02, -187500.02, -187500.02, -187500.02, -187500.02, -187500.02, -157610.17, 0.002, 0.004, 0.930, 16:14:49.358, 1578579289358
223, -187500.02, -187500.02, -187500.02, -187500.02, -187500.02, -187500.02, -187500.02, -187500.02, 0.000, 0.000, 0.000, 16:14:49.358, 1578579289358
224, -187500.02, -187500.02, -187500.02, -187500.02, -187500.02, -187500.02, -187500.02, -157598.20, 0.000, 0.000, 0.000, 16:14:49.358, 1578579289358
225, -187500.02, -187500.02, -187500.02, -187500.02, -187500.02, -187500.02, -187500.02, -187500.02, 0.000, 0.000, 0.000, 16:14:49.358, 1578579289358
226, -187500.02, -187500.02, -187500.02, -187500.02, -187500.02, -187500.02, -187500.02, -157585.36, 0.000, 0.000, 0.000, 16:14:49.358, 1578579289358
227, -187500.02, -187500.02, -187500.02, -187500.02, -187500.02, -187500.02, -187500.02, -187500.02, 0.000, 0.000, 0.000, 16:14:49.358, 1578579289358
228, -187500.02, -187500.02, -187500.02, -187500.02, -187500.02, -187500.02, -187500.02, -157569.75, 0.000, 0.000, 0.000, 16:14:49.359, 1578579289359
229, -187500.02, -187500.02, -187500.02, -187500.02, -187500.02, -187500.02, -187500.02, -187500.02, 0.000, 0.000, 0.000, 16:14:49.359, 1578579289359
230, -187500.02, -187500.02, -187500.02, -187500.02, -187500.02, -187500.02, -187500.02, -157554.41, 0.000, 0.000, 0.000, 16:14:49.359, 1578579289359
231, -187500.02, -187500.02, -187500.02, -187500.02, -187500.02, -187500.02, -187500.02, -187500.02, 0.000, 0.000, 0.000, 16:14:49.359, 1578579289359
232, -187500.02, -187500.02, -187500.02, -187500.02, -187500.02, -187500.02, -187500.02, -157543.94, 0.004, -0.012, 0.946, 16:14:49.359, 1578579289359
233, -187500.02, -187500.02, -187500.02, -187500.02, -187500.02, -187500.02, -187500.02, -187500.02, 0.000, 0.000, 0.000, 16:14:49.359, 1578579289359
234, -187500.02, -187500.02, -187500.02, -187500.02, -187500.02, -187500.02, -187500.02, -157533.22, 0.000, 0.000, 0.000, 16:14:49.359, 1578579289359
235, -187500.02, -187500.02, -187500.02, -187500.02, -187500.02, -187500.02, -187500.02, -187500.02, 0.000, 0.000, 0.000, 16:14:49.359, 1578579289359
236, -187500.02, -187500.02, -187500.02, -187500.02, -187500.02, -187500.02, -187500.02, -157519.72, 0.000, 0.000, 0.000, 16:14:49.359, 1578579289359
237, -187500.02, -187500.02, -187500.02, -187500.02, -187500.02, -187500.02, -187500.02, -187500.02, 0.000, 0.000, 0.000, 16:14:49.359, 1578579289359
238, -187500.02, -187500.02, -187500.02, -187500.02, -187500.02, -187500.02, -187500.02, -157507.80, 0.000, 0.000, 0.000, 16:14:49.359, 1578579289359
239, -187500.02, -187500.02, -187500.02, -187500.02, -187500.02, -187500.02, -187500.02, -187500.02, 0.000, 0.000, 0.000, 16:14:49.359, 1578579289359
240, -187500.02, -187500.02, -187500.02, -187500.02, -187500.02, -187500.02, -187500.02, -157492.23, 0.000, 0.000, 0.000, 16:14:49.359, 1578579289359
241, -187500.02, -187500.02, -187500.02, -187500.02, -187500.02, -187500.02, -187500.02, -187500.02, 0.000, 0.000, 0.000, 16:14:49.359, 1578579289359
242, -187500.02, -187500.02, -187500.02, -187500.02, -187500.02, -187500.02, -187500.02, -157482.86, -0.004, -0.014, 0.962, 16:14:49.359, 1578579289359
243, -187500.02, -187500.02, -187500.02, -187500.02, -187500.02, -187500.02, -187500.02, -187500.02, 0.000, 0.000, 0.000, 16:14:49.834, 1578579289834
244, -187500.02, -187500.02, -187500.02, -187500.02, -187500.02, -187500.02, -187500.02, -157473.31, 0.000, 0.000, 0.000, 16:14:49.834, 1578579289834
245, -187500.02, -187500.02, -187500.02, -187500.02, -187500.02, -187500.02, -187500.02, -187500.02, 0.000, 0.000, 0.000, 16:14:49.835, 1578579289835
246, -187500.02, -187500.02, -187500.02, -187500.02, -187500.02, -187500.02, -187500.02, -157461.55, 0.000, 0.000, 0.000, 16:14:49.835, 1578579289835
247, -187500.02, -187500.02, -187500.02, -187500.02, -187500.02, -187500.02, -187500.02, -187500.02, 0.000, 0.000, 0.000, 16:14:49.835, 1578579289835
248, -187500.02, -187500.02, -187500.02, -187500.02, -187500.02, -187500.02, -187500.02, -157449.69, 0.000, 0.000, 0.000, 16:14:49.835, 1578579289835
249, -187500.02, -187500.02, -187500.02, -187500.02, -187500.02, -187500.02, -187500.02, -187500.02, 0.000, 0.000, 0.000, 16:14:49.835, 1578579289835
250, -187500.02, -187500.02, -187500.02, -187500.02, -187500.02, -187500.02, -187500.02, -157437.55, 0.000, 0.000, 0.000, 16:14:49.835, 1578579289835
251, -187500.02, -187500.02, -187500.02, -187500.02, -187500.02, -187500.02, -187500.02, -187500.02, 0.000, 0.000, 0.000, 16:14:49.835, 1578579289835
252, -187500.02, -187500.02, -187500.02, -187500.02, -187500.02, -187500.02, -187500.02, -157424.03, -0.008, -0.020, 0.976, 16:14:49.835, 1578579289835
253, -187500.02, -187500.02, -187500.02, -187500.02, -187500.02, -187500.02, -187500.02, -187500.02, 0.000, 0.000, 0.000, 16:14:49.835, 1578579289835
254, -187500.02, -187500.02, -187500.02, -187500.02, -187500.02, -187500.02, -187500.02, -157411.59, 0.000, 0.000, 0.000, 16:14:49.835, 1578579289835
255, -187500.02, -187500.02, -187500.02, -187500.02, -187500.02, -187500.02, -187500.02, -187500.02, 0.000, 0.000, 0.000, 16:14:49.835, 1578579289835
0, -187500.02, -187500.02, -187500.02, -187500.02, -187500.02, -187500.02, -187500.02, -157396.98, 0.000, 0.000, 0.000, 16:14:49.835, 1578579289835
1, -187500.02, -187500.02, -187500.02, -187500.02, -187500.02, -187500.02, -187500.02, -187500.02, 0.000, 0.000, 0.000, 16:14:49.835, 1578579289835
2, -187500.02, -187500.02, -187500.02, -187500.02, -187500.02, -187500.02, -187500.02, -157381.88, 0.000, 0.000, 0.000, 16:14:49.835, 1578579289835
3, -187500.02, -187500.02, -187500.02, -187500.02, -187500.02, -187500.02, -187500.02, -187500.02, 0.000, 0.000, 0.000, 16:14:49.835, 1578579289835
4, -187500.02, -187500.02, -187500.02, -187500.02, -187500.02, -187500.02, -187500.02, -157372.09, 0.000, 0.000, 0.000, 16:14:49.835, 1578579289835
5, -187500.02, -187500.02, -187500.02, -187500.02, -187500.02, -187500.02, -187500.02, -187500.02, -0.006, -0.024, 0.978, 16:14:49.835, 1578579289835
6, -187500.02, -187500.02, -187500.02, -187500.02, -187500.02, -187500.02, -187500.02, -157359.25, 0.000, 0.000, 0.000, 16:14:49.835, 1578579289835
7, -187500.02, -187500.02, -187500.02, -187500.02, -187500.02, -187500.02, -187500.02, -187500.02, 0.000, 0.000, 0.000, 16:14:49.835, 1578579289835
8, -187500.02, -187500.02, -187500.02, -187500.02, -187500.02, -187500.02, -187500.02, -157347.00, 0.000, 0.000, 0.000, 16:14:49.835, 1578579289835
9, -187500.02, -187500.02, -187500.02, -187500.02, -187500.02, -187500.02, -187500.02, -187500.02, 0.000, 0.000, 0.000, 16:14:49.835, 1578579289835
10, -187500.02, -187500.02, -187500.02, -187500.02, -187500.02, -187500.02, -187500.02, -157334.64, 0.000, 0.000, 0.000, 16:14:49.835, 1578579289835
11, -187500.02, -187500.02, -187500.02, -187500.02, -187500.02, -187500.02, -187500.02, -187500.02, 0.000, 0.000, 0.000, 16:14:49.836, 1578579289836
12, -187500.02, -187500.02, -187500.02, -187500.02, -187500.02, -187500.02, -187500.02, -157320.56, 0.000, 0.000, 0.000, 16:14:49.836, 1578579289836
13, -187500.02, -187500.02, -187500.02, -187500.02, -187500.02, -187500.02, -187500.02, -187500.02, 0.000, 0.000, 0.000, 16:14:49.836, 1578579289836
14, -187500.02, -187500.02, -187500.02, -187500.02, -187500.02, -187500.02, -187500.02, -157311.14, 0.000, 0.000, 0.000, 16:14:49.836, 1578579289836
15, -187500.02, -187500.02, -187500.02, -187500.02, -187500.02, -187500.02, -187500.02, -187500.02, -0.008, -0.020, 0.980, 16:14:49.836, 1578579289836
16, -187500.02, -187500.02, -187500.02, -187500.02, -187500.02, -187500.02, -187500.02, -157298.67, 0.000, 0.000, 0.000, 16:14:49.836, 1578579289836
17, -187500.02, -187500.02, -187500.02, -187500.02, -187500.02, -187500.02, -187500.02, -187500.02, 0.000, 0.000, 0.000, 16:14:49.836, 1578579289836
18, -187500.02, -187500.02, -187500.02, -187500.02, -187500.02, -187500.02, -187500.02, -157285.53, 0.000, 0.000, 0.000, 16:14:49.836, 1578579289836
19, -187500.02, -187500.02, -187500.02, -187500.02, -187500.02, -187500.02, -187500.02, -187500.02, 0.000, 0.000, 0.000, 16:14:49.836, 1578579289836
20, -187500.02, -187500.02, -187500.02, -187500.02, -187500.02, -187500.02, -187500.02, -157273.22, 0.000, 0.000, 0.000, 16:14:49.836, 1578579289836
21, -187500.02, -187500.02, -187500.02, -187500.02, -187500.02, -187500.02, -187500.02, -187500.02, 0.000, 0.000, 0.000, 16:14:49.836, 1578579289836
22, -187500.02, -187500.02, -187500.02, -187500.02, -187500.02, -187500.02, -187500.02, -157262.08, 0.000, 0.000, 0.000, 16:14:49.836, 1578579289836
23, -187500.02, -187500.02, -187500.02, -187500.02, -187500.02, -187500.02, -187500.02, -187500.02, 0.000, 0.000, 0.000, 16:14:49.836, 1578579289836
24, -187500.02, -187500.02, -187500.02, -187500.02, -187500.02, -187500.02, -187500.02, -157247.59, 0.000, 0.000, 0.000, 16:14:49.836, 1578579289836
25, -187500.02, -187500.02, -187500.02, -187500.02, -187500.02, -187500.02, -187500.02, -187500.02, -0.006, -0.024, 0.980, 16:14:49.836, 1578579289836
26, -187500.02, -187500.02, -187500.02, -187500.02, -187500.02, -187500.02, -187500.02, -157235.53, 0.000, 0.000, 0.000, 16:14:49.836, 1578579289836
27, -187500.02, -187500.02, -187500.02, -187500.02, -187500.02, -187500.02, -187500.02, -187500.02, 0.000, 0.000, 0.000, 16:14:49.836, 1578579289836
28, -187500.02, -187500.02, -187500.02, -187500.02, -187500.02, -187500.02, -187500.02, -157224.02, 0.000, 0.000, 0.000, 16:14:49.836, 1578579289836
29, -187500.02, -187500.02, -187500.02, -187500.02, -187500.02, -187500.02, -187500.02, -187500.02, 0.000, 0.000, 0.000, 16:14:49.836, 1578579289836
30, -187500.02, -187500.02, -187500.02, -187500.02, -187500.02, -187500.02, -187500.02, -157212.48, 0.000, 0.000, 0.000, 16:14:49.836, 1578579289836
31, -187500.02, -187500.02, -187500.02, -187500.02, -187500.02, -187500.02, -187500.02, -187500.02, 0.000, 0.000, 0.000, 16:14:49.837, 1578579289837
32, -187500.02, -187500.02, -187500.02, -187500.02, -187500.02, -187500.02, -187500.02, -157199.28, 0.000, 0.000, 0.000, 16:14:49.837, 1578579289837
33, -187500.02, -187500.02, -187500.02, -187500.02, -187500.02, -187500.02, -187500.02, -187500.02, 0.000, 0.000, 0.000, 16:14:49.837, 1578579289837
34, -187500.02, -187500.02, -187500.02, -187500.02, -187500.02, -187500.02, -187500.02, -157187.39, 0.000, 0.000, 0.000, 16:14:49.837, 1578579289837
35, -187500.02, -187500.02, -187500.02, -187500.02, -187500.02, -187500.02, -187500.02, -187500.02, -0.004, -0.020, 0.976, 16:14:49.837, 1578579289837
36, -187500.02, -187500.02, -187500.02, -187500.02, -187500.02, -187500.02, -187500.02, -157174.73, 0.000, 0.000, 0.000, 16:14:49.837, 1578579289837
37, -187500.02, -187500.02, -187500.02, -187500.02, -187500.02, -187500.02, -187500.02, -187500.02, 0.000, 0.000, 0.000, 16:14:49.837, 1578579289837
38, -187500.02, -187500.02, -187500.02, -187500.02, -187500.02, -187500.02, -187500.02, -157165.45, 0.000, 0.000, 0.000, 16:14:49.837, 1578579289837
39, -187500.02, -187500.02, -187500.02, -187500.02, -187500.02, -187500.02, -187500.02, -187500.02, 0.000, 0.000, 0.000, 16:14:49.837, 1578579289837
40, -187500.02, -187500.02, -187500.02, -187500.02, -187500.02, -187500.02, -187500.02, -157153.34, 0.000, 0.000, 0.000, 16:14:49.837, 1578579289837
41, -187500.02, -187500.02, -187500.02, -187500.02, -187500.02, -187500.02, -187500.02, -187500.02, 0.000, 0.000, 0.000, 16:14:49.837, 1578579289837
42, -187500.02, -187500.02, -187500.02, -187500.02, -187500.02, -187500.02, -187500.02, -157141.78, 0.000, 0.000, 0.000, 16:14:49.837, 1578579289837
43, -187500.02, -187500.02, -187500.02, -187500.02, -187500.02, -187500.02, -187500.02, -187500.02, 0.000, 0.000, 0.000, 16:14:49.837, 1578579289837
44, -187500.02, -187500.02, -187500.02, -187500.02, -187500.02, -187500.02, -187500.02, -157127.78, -0.004, -0.020, 0.972, 16:14:49.837, 1578579289837
45, -187500.02, -187500.02, -187500.02, -187500.02, -187500.02, -187500.02, -187500.02, -187500.02, 0.000, 0.000, 0.000, 16:14:49.837, 1578579289837
46, -187500.02, -187500.02, -187500.02, -187500.02, -187500.02, -187500.02, -187500.02, -157116.80, 0.000, 0.000, 0.000, 16:14:49.837, 1578579289837
47, -187500.02, -187500.02, -187500.02, -187500.02, -187500.02, -187500.02, -187500.02, -187500.02, 0.000, 0.000, 0.000, 16:14:49.837, 1578579289837
48, -187500.02, -187500.02, -187500.02, -187500.02, -187500.02, -187500.02, -187500.02, -157106.94, 0.000, 0.000, 0.000, 16:14:49.837, 1578579289837
49, -187500.02, -187500.02, -187500.02, -187500.02, -187500.02, -187500.02, -187500.02, -187500.02, 0.000, 0.000, 0.000, 16:14:49.837, 1578579289837
50, -187500.02, -187500.02, -187500.02, -187500.02, -187500.02, -187500.02, -187500.02, -157096.64, 0.000, 0.000, 0.000, 16:14:49.837, 1578579289837
51, -187500.02, -187500.02, -187500.02, -187500.02, -187500.02, -187500.02, -187500.02, -187500.02, 0.000, 0.000, 0.000, 16:14:49.838, 1578579289838
52, -187500.02, -187500.02, -187500.02, -187500.02, -187500.02, -187500.02, -187500.02, -157085.53, 0.000, 0.000, 0.000, 16:14:49.838, 1578579289838
53, -187500.02, -187500.02, -187500.02, -187500.02, -187500.02, -187500.02, -187500.02, -187500.02, 0.000, 0.000, 0.000, 16:14:49.838, 1578579289838
54, -187500.02, -187500.02, -187500.02, -187500.02, -187500.02, -187500.02, -187500.02, -157073.89, -0.004, -0.022, 0.974, 16:14:49.838, 1578579289838
55, -187500.02, -187500.02, -187500.02, -187500.02, -187500.02, -187500.02, -187500.02, -187500.02, 0.000, 0.000, 0.000, 16:14:49.838, 1578579289838
56, -187500.02, -187500.02, -187500.02, -187500.02, -187500.02, -187500.02, -187500.02, -157064.45, 0.000, 0.000, 0.000, 16:14:49.838, 1578579289838
57, -187500.02, -187500.02, -187500.02, -187500.02, -187500.02, -187500.02, -187500.02, -187500.02, 0.000, 0.000, 0.000, 16:14:49.838, 1578579289838
58, -187500.02, -187500.02, -187500.02, -187500.02, -187500.02, -187500.02, -187500.02, -157051.33, 0.000, 0.000, 0.000, 16:14:49.838, 1578579289838
59, -187500.02, -187500.02, -187500.02, -187500.02, -187500.02, -187500.02, -187500.02, -187500.02, 0.000, 0.000, 0.000, 16:14:49.838, 1578579289838
60, -187500.02, -187500.02, -187500.02, -187500.02, -187500.02, -187500.02, -187500.02, -157037.88, 0.000, 0.000, 0.000, 16:14:49.838, 1578579289838
61, -187500.02, -187500.02, -187500.02, -187500.02, -187500.02, -187500.02, -187500.02, -187500.02, 0.000, 0.000, 0.000, 16:14:49.838, 1578579289838
62, -187500.02, -187500.02, -187500.02, -187500.02, -187500.02, -187500.02, -187500.02, -157027.14, 0.000, 0.000, 0.000, 16:14:49.838, 1578579289838
63, -187500.02, -187500.02, -187500.02, -187500.02, -187500.02, -187500.02, -187500.02, -187500.02, 0.000, 0.000, 0.000, 16:14:49.838, 1578579289838
64, -187500.02, -187500.02, -187500.02, -187500.02, -187500.02, -187500.02, -187500.02, -157014.86, -0.002, -0.022, 0.978, 16:14:49.838, 1578579289838
65, -187500.02, -187500.02, -187500.02, -187500.02, -187500.02, -187500.02, -187500.02, -187500.02, 0.000, 0.000, 0.000, 16:14:49.838, 1578579289838
66, -187500.02, -187500.02, -187500.02, -187500.02, -187500.02, -187500.02, -187500.02, -157004.75, 0.000, 0.000, 0.000, 16:14:49.838, 1578579289838
67, -187500.02, -187500.02, -187500.02, -187500.02, -187500.02, -187500.02, -187500.02, -187500.02, 0.000, 0.000, 0.000, 16:14:49.838, 1578579289838
68, -187500.02, -187500.02, -187500.02, -187500.02, -187500.02, -187500.02, -187500.02, -156991.83, 0.000, 0.000, 0.000, 16:14:49.838, 1578579289838
69, -187500.02, -187500.02, -187500.02, -187500.02, -187500.02, -187500.02, -187500.02, -187500.02, 0.000, 0.000, 0.000, 16:14:49.839, 1578579289839
70, -187500.02, -187500.02, -187500.02, -187500.02, -187500.02, -187500.02, -187500.02, -156977.56, 0.000, 0.000, 0.000, 16:14:49.839, 1578579289839
71, -187500.02, -187500.02, -187500.02, -187500.02, -187500.02, -187500.02, -187500.02, -187500.02, 0.000, 0.000, 0.000, 16:14:49.839, 1578579289839
72, -187500.02, -187500.02, -187500.02, -187500.02, -187500.02, -187500.02, -187500.02, -156964.77, 0.000, 0.000, 0.000, 16:14:49.839, 1578579289839
73, -187500.02, -187500.02, -187500.02, -187500.02, -187500.02, -187500.02, -187500.02, -187500.02, 0.000, 0.000, 0.000, 16:14:49.839, 1578579289839
74, -187500.02, -187500.02, -187500.02, -187500.02, -187500.02, -187500.02, -187500.02, -156953.03, -0.002, -0.024, 0.978, 16:14:49.839, 1578579289839
75, -187500.02, -187500.02, -187500.02, -187500.02, -187500.02, -187500.02, -187500.02, -187500.02, 0.000, 0.000, 0.000, 16:14:49.839, 1578579289839
76, -187500.02, -187500.02, -187500.02, -187500.02, -187500.02, -187500.02, -187500.02, -156941.22, 0.000, 0.000, 0.000, 16:14:49.839, 1578579289839
77, -187500.02, -187500.02, -187500.02, -187500.02, -187500.02, -187500.02, -187500.02, -187500.02, 0.000, 0.000, 0.000, 16:14:49.839, 1578579289839
78, -187500.02, -187500.02, -187500.02, -187500.02, -187500.02, -187500.02, -187500.02, -156927.59, 0.000, 0.000, 0.000, 16:14:49.839, 1578579289839
79, -187500.02, -187500.02, -187500.02, -187500.02, -187500.02, -187500.02, -187500.02, -187500.02, 0.000, 0.000, 0.000, 16:14:49.839, 1578579289839
80, -187500.02, -187500.02, -187500.02, -187500.02, -187500.02, -187500.02, -187500.02, -156918.83, 0.000, 0.000, 0.000, 16:14:49.839, 1578579289839
81, -187500.02, -187500.02, -187500.02, -187500.02, -187500.02, -187500.02, -187500.02, -187500.02, 0.000, 0.000, 0.000, 16:14:49.839, 1578579289839
82, -187500.02, -187500.02, -187500.02, -187500.02, -187500.02, -187500.02, -187500.02, -156909.89, 0.000, 0.000, 0.000, 16:14:49.839, 1578579289839
83, -187500.02, -187500.02, -187500.02, -187500.02, -187500.02, -187500.02, -187500.02, -187500.02, -0.004, -0.022, 0.976, 16:14:49.839, 1578579289839
84, -187500.02, -187500.02, -187500.02, -187500.02, -187500.02, -187500.02, -187500.02, -156893.92, 0.000, 0.000, 0.000, 16:14:49.839, 1578579289839
85, -187500.02, -187500.02, -187500.02, -187500.02, -187500.02, -187500.02, -187500.02, -187500.02, 0.000, 0.000, 0.000, 16:14:49.839, 1578579289839
86, -187500.02, -187500.02, -187500.02, -187500.02, -187500.02, -187500.02, -187500.02, -156882.59, 0.000, 0.000, 0.000, 16:14:49.839, 1578579289839
87, -187500.02, -187500.02, -187500.02, -187500.02, -187500.02, -187500.02, -187500.02, -187500.02, 0.000, 0.000, 0.000, 16:14:49.840, 1578579289840
88, -187500.02, -187500.02, -187500.02, -187500.02, -187500.02, -187500.02, -187500.02, -156871.58, 0.000, 0.000, 0.000, 16:14:49.840, 1578579289840
89, -187500.02, -187500.02, -187500.02, -187500.02, -187500.02, -187500.02, -187500.02, -187500.02, 0.000, 0.000, 0.000, 16:14:49.840, 1578579289840
90, -187500.02, -187500.02, -187500.02, -187500.02, -187500.02, -187500.02, -187500.02, -156861.78, 0.000, 0.000, 0.000, 16:14:49.840, 1578579289840
91, -187500.02, -187500.02, -187500.02, -187500.02, -187500.02, -187500.02, -187500.02, -187500.02, 0.000, 0.000, 0.000, 16:14:49.840, 1578579289840
92, -187500.02, -187500.02, -187500.02, -187500.02, -187500.02, -187500.02, -187500.02, -156845.89, 0.000, 0.000, 0.000, 16:14:49.840, 1578579289840
93, -187500.02, -187500.02, -187500.02, -187500.02, -187500.02, -187500.02, -187500.02, -187500.02, -0.008, -0.022, 0.972, 16:14:49.840, 1578579289840
94, -187500.02, -187500.02, -187500.02, -187500.02, -187500.02, -187500.02, -187500.02, -156833.20, 0.000, 0.000, 0.000, 16:14:49.840, 1578579289840
95, -187500.02, -187500.02, -187500.02, -187500.02, -187500.02, -187500.02, -187500.02, -187500.02, 0.000, 0.000, 0.000, 16:14:49.840, 1578579289840
96, -187500.02, -187500.02, -187500.02, -187500.02, -187500.02, -187500.02, -187500.02, -156820.95, 0.000, 0.000, 0.000, 16:14:49.840, 1578579289840
97, -187500.02, -187500.02, -187500.02, -187500.02, -187500.02, -187500.02, -187500.02, -187500.02, 0.000, 0.000, 0.000, 16:14:49.840, 1578579289840
98, -187500.02, -187500.02, -187500.02, -187500.02, -187500.02, -187500.02, -187500.02, -156807.45, 0.000, 0.000, 0.000, 16:14:49.840, 1578579289840
99, -187500.02, -187500.02, -187500.02, -187500.02, -187500.02, -187500.02, -187500.02, -187500.02, 0.000, 0.000, 0.000, 16:14:49.840, 1578579289840
100, -187500.02, -187500.02, -187500.02, -187500.02, -187500.02, -187500.02, -187500.02, -156796.77, 0.000, 0.000, 0.000, 16:14:49.840, 1578579289840
101, -187500.02, -187500.02, -187500.02, -187500.02, -187500.02, -187500.02, -187500.02, -187500.02, 0.000, 0.000, 0.000, 16:14:49.840, 1578579289840
102, -187500.02, -187500.02, -187500.02, -187500.02, -187500.02, -187500.02, -187500.02, -156787.47, 0.000, 0.000, 0.000, 16:14:49.840, 1578579289840
103, -187500.02, -187500.02, -187500.02, -187500.02, -187500.02, -187500.02, -187500.02, -187500.02, -0.006, -0.020, 0.976, 16:14:49.840, 1578579289840
104, -187500.02, -187500.02, -187500.02, -187500.02, -187500.02, -187500.02, -187500.02, -156775.78, 0.000, 0.000, 0.000, 16:14:49.840, 1578579289840
105, -187500.02, -187500.02, -187500.02, -187500.02, -187500.02, -187500.02, -187500.02, -187500.02, 0.000, 0.000, 0.000, 16:14:49.840, 1578579289840
106, -187500.02, -187500.02, -187500.02, -187500.02, -187500.02, -187500.02, -187500.02, -156762.50, 0.000, 0.000, 0.000, 16:14:49.840, 1578579289840
107, -187500.02, -187500.02, -187500.02, -187500.02, -187500.02, -187500.02, -187500.02, -187500.02, 0.000, 0.000, 0.000, 16:14:50.314, 1578579290314
108, -187500.02, -187500.02, -187500.02, -187500.02, -187500.02, -187500.02, -187500.02, -156751.38, 0.000, 0.000, 0.000, 16:14:50.314, 1578579290314
109, -187500.02, -187500.02, -187500.02, -187500.02, -187500.02, -187500.02, -187500.02, -187500.02, 0.000, 0.000, 0.000, 16:14:50.315, 1578579290315
110, -187500.02, -187500.02, -187500.02, -187500.02, -187500.02, -187500.02, -187500.02, -156738.70, 0.000, 0.000, 0.000, 16:14:50.315, 1578579290315
111, -187500.02, -187500.02, -187500.02, -187500.02, -187500.02, -187500.02, -187500.02, -187500.02, 0.000, 0.000, 0.000, 16:14:50.315, 1578579290315
112, -187500.02, -187500.02, -187500.02, -187500.02, -187500.02, -187500.02, -187500.02, -156727.41, 0.000, 0.000, 0.000, 16:14:50.315, 1578579290315
113, -187500.02, -187500.02, -187500.02, -187500.02, -187500.02, -187500.02, -187500.02, -187500.02, -0.004, -0.020, 0.978, 16:14:50.315, 1578579290315
114, -187500.02, -187500.02, -187500.02, -187500.02, -187500.02, -187500.02, -187500.02, -156715.41, 0.000, 0.000, 0.000, 16:14:50.315, 1578579290315
115, -187500.02, -187500.02, -187500.02, -187500.02, -187500.02, -187500.02, -187500.02, -187500.02, 0.000, 0.000, 0.000, 16:14:50.315, 1578579290315
116, -187500.02, -187500.02, -187500.02, -187500.02, -187500.02, -187500.02, -187500.02, -156703.47, 0.000, 0.000, 0.000, 16:14:50.315, 1578579290315
117, -187500.02, -187500.02, -187500.02, -187500.02, -187500.02, -187500.02, -187500.02, -187500.02, 0.000, 0.000, 0.000, 16:14:50.315, 1578579290315
118, -187500.02, -187500.02, -187500.02, -187500.02, -187500.02, -187500.02, -187500.02, -156694.94, 0.000, 0.000, 0.000, 16:14:50.315, 1578579290315
119, -187500.02, -187500.02, -187500.02, -187500.02, -187500.02, -187500.02, -187500.02, -187500.02, 0.000, 0.000, 0.000, 16:14:50.315, 1578579290315
120, -187500.02, -187500.02, -187500.02, -187500.02, -187500.02, -187500.02, -187500.02, -156681.91, 0.000, 0.000, 0.000, 16:14:50.315, 1578579290315
121, -187500.02, -187500.02, -187500.02, -187500.02, -187500.02, -187500.02, -187500.02, -187500.02, 0.000, 0.000, 0.000, 16:14:50.315, 1578579290315
122, -187500.02, -187500.02, -187500.02, -187500.02, -187500.02, -187500.02, -187500.02, -156670.20, -0.004, -0.026, 0.978, 16:14:50.315, 1578579290315
123, -187500.02, -187500.02, -187500.02, -187500.02, -187500.02, -187500.02, -187500.02, -187500.02, 0.000, 0.000, 0.000, 16:14:50.315, 1578579290315
124, -187500.02, -187500.02, -187500.02, -187500.02, -187500.02, -187500.02, -187500.02, -156660.22, 0.000, 0.000, 0.000, 16:14:50.316, 1578579290316
125, -187500.02, -187500.02, -187500.02, -187500.02, -187500.02, -187500.02, -187500.02, -187500.02, 0.000, 0.000, 0.000, 16:14:50.316, 1578579290316
126, -187500.02, -187500.02, -187500.02, -187500.02, -187500.02, -187500.02, -187500.02, -156651.50, 0.000, 0.000, 0.000, 16:14:50.316, 1578579290316
127, -187500.02, -187500.02, -187500.02, -187500.02, -187500.02, -187500.02, -187500.02, -187500.02, 0.000, 0.000, 0.000, 16:14:50.316, 1578579290316
128, -187500.02, -187500.02, -187500.02, -187500.02, -187500.02, -187500.02, -187500.02, -156638.06, 0.000, 0.000, 0.000, 16:14:50.316, 1578579290316
129, -187500.02, -187500.02, -187500.02, -187500.02, -187500.02, -187500.02, -187500.02, -187500.02, 0.000, 0.000, 0.000, 16:14:50.316, 1578579290316
130, -187500.02, -187500.02, -187500.02, -187500.02, -187500.02, -187500.02, -187500.02, -156626.61, 0.000, 0.000, 0.000, 16:14:50.316, 1578579290316
131, -187500.02, -187500.02, -187500.02, -187500.02, -187500.02, -187500.02, -187500.02, -187500.02, 0.000, 0.000, 0.000, 16:14:50.316, 1578579290316
132, -187500.02, -187500.02, -187500.02, -187500.02, -187500.02, -187500.02, -187500.02, -156613.58, -0.006, -0.020, 0.980, 16:14:50.316, 1578579290316
133, -187500.02, -187500.02, -187500.02, -187500.02, -187500.02, -187500.02, -187500.02, -187500.02, 0.000, 0.000, 0.000, 16:14:50.316, 1578579290316
134, -187500.02, -187500.02, -187500.02, -187500.02, -187500.02, -187500.02, -187500.02, -156603.30, 0.000, 0.000, 0.000, 16:14:50.316, 1578579290316
135, -187500.02, -187500.02, -187500.02, -187500.02, -187500.02, -187500.02, -187500.02, -187500.02, 0.000, 0.000, 0.000, 16:14:50.316, 1578579290316
136, -187500.02, -187500.02, -187500.02, -187500.02, -187500.02, -187500.02, -187500.02, -156587.98, 0.000, 0.000, 0.000, 16:14:50.316, 1578579290316
137, -187500.02, -187500.02, -187500.02, -187500.02, -187500.02, -187500.02, -187500.02, -187500.02, 0.000, 0.000, 0.000, 16:14:50.317, 1578579290317
138, -187500.02, -187500.02, -187500.02, -187500.02, -187500.02, -187500.02, -187500.02, -156576.84, 0.000, 0.000, 0.000, 16:14:50.317, 1578579290317
139, -187500.02, -187500.02, -187500.02, -187500.02, -187500.02, -187500.02, -187500.02, -187500.02, 0.000, 0.000, 0.000, 16:14:50.317, 1578579290317
140, -187500.02, -187500.02, -187500.02, -187500.02, -187500.02, -187500.02, -187500.02, -156566.50, 0.000, 0.000, 0.000, 16:14:50.317, 1578579290317
141, -187500.02, -187500.02, -187500.02, -187500.02, -187500.02, -187500.02, -187500.02, -187500.02, 0.000, 0.000, 0.000, 16:14:50.317, 1578579290317
142, -187500.02, -187500.02, -187500.02, -187500.02, -187500.02, -187500.02, -187500.02, -156554.47, -0.006, -0.022, 0.980, 16:14:50.317, 1578579290317
143, -187500.02, -187500.02, -187500.02, -187500.02, -187500.02, -187500.02, -187500.02, -187500.02, 0.000, 0.000, 0.000, 16:14:50.317, 1578579290317
144, -187500.02, -187500.02, -187500.02, -187500.02, -187500.02, -187500.02, -187500.02, -156542.25, 0.000, 0.000, 0.000, 16:14:50.317, 1578579290317
145, -187500.02, -187500.02, -187500.02, -187500.02, -187500.02, -187500.02, -187500.02, -187500.02, 0.000, 0.000, 0.000, 16:14:50.317, 1578579290317
146, -187500.02, -187500.02, -187500.02, -187500.02, -187500.02, -187500.02, -187500.02, -156531.25, 0.000, 0.000, 0.000, 16:14:50.317, 1578579290317
147, -187500.02, -187500.02, -187500.02, -187500.02, -187500.02, -187500.02, -187500.02, -187500.02, 0.000, 0.000, 0.000, 16:14:50.317, 1578579290317
148, -187500.02, -187500.02, -187500.02, -187500.02, -187500.02, -187500.02, -187500.02, -156518.06, 0.000, 0.000, 0.000, 16:14:50.317, 1578579290317
149, -187500.02, -187500.02, -187500.02, -187500.02, -187500.02, -187500.02, -187500.02, -187500.02, 0.000, 0.000, 0.000, 16:14:50.317, 1578579290317
150, -187500.02, -187500.02, -187500.02, -187500.02, -187500.02, -187500.02, -187500.02, -156506.59, 0.000, 0.000, 0.000, 16:14:50.317, 1578579290317
151, -187500.02, -187500.02, -187500.02, -187500.02, -187500.02, -187500.02, -187500.02, -187500.02, 0.000, 0.000, 0.000, 16:14:50.317, 1578579290317
152, -187500.02, -187500.02, -187500.02, -187500.02, -187500.02, -187500.02, -187500.02, -156498.89, -0.006, -0.018, 0.976, 16:14:50.317, 1578579290317
153, -187500.02, -187500.02, -187500.02, -187500.02, -187500.02, -187500.02, -187500.02, -187500.02, 0.000, 0.000, 0.000, 16:14:50.318, 1578579290318
154, -187500.02, -187500.02, -187500.02, -187500.02, -187500.02, -187500.02, -187500.02, -156485.20, 0.000, 0.000, 0.000, 16:14:50.318, 1578579290318
155, -187500.02, -187500.02, -187500.02, -187500.02, -187500.02, -187500.02, -187500.02, -187500.02, 0.000, 0.000, 0.000, 16:14:50.318, 1578579290318
156, -187500.02, -187500.02, -187500.02, -187500.02, -187500.02, -187500.02, -187500.02, -156471.89, 0.000, 0.000, 0.000, 16:14:50.318, 1578579290318
157, -187500.02, -187500.02, -187500.02, -187500.02, -187500.02, -187500.02, -187500.02, -187500.02, 0.000, 0.000, 0.000, 16:14:50.318, 1578579290318
158, -187500.02, -187500.02, -187500.02, -187500.02, -187500.02, -187500.02, -187500.02, -156460.59, 0.000, 0.000, 0.000, 16:14:50.318, 1578579290318
159, -187500.02, -187500.02, -187500.02, -187500.02, -187500.02, -187500.02, -187500.02, -187500.02, 0.000, 0.000, 0.000, 16:14:50.318, 1578579290318
160, -187500.02, -187500.02, -187500.02, -187500.02, -187500.02, -187500.02, -187500.02, -156449.67, 0.000, 0.000, 0.000, 16:14:50.318, 1578579290318
161, -187500.02, -187500.02, -187500.02, -187500.02, -187500.02, -187500.02, -187500.02, -187500.02, -0.006, -0.020, 0.976, 16:14:50.318, 1578579290318
162, -187500.02, -187500.02, -187500.02, -187500.02, -187500.02, -187500.02, -187500.02, -156436.28, 0.000, 0.000, 0.000, 16:14:50.318, 1578579290318
163, -187500.02, -187500.02, -187500.02, -187500.02, -187500.02, -187500.02, -187500.02, -187500.02, 0.000, 0.000, 0.000, 16:14:50.318, 1578579290318
164, -187500.02, -187500.02, -187500.02, -187500.02, -187500.02, -187500.02, -187500.02, -156424.31, 0.000, 0.000, 0.000, 16:14:50.318, 1578579290318
165, -187500.02, -187500.02, -187500.02, -187500.02, -187500.02, -187500.02, -187500.02, -187500.02, 0.000, 0.000, 0.000, 16:14:50.318, 1578579290318
166, -187500.02, -187500.02, -187500.02, -187500.02, -187500.02, -187500.02, -187500.02, -156414.38, 0.000, 0.000, 0.000, 16:14:50.318, 1578579290318
167, -187500.02, -187500.02, -187500.02, -187500.02, -187500.02, -187500.02, -187500.02, -187500.02, 0.000, 0.000, 0.000, 16:14:50.318, 1578579290318
168, -187500.02, -187500.02, -187500.02, -187500.02, -187500.02, -187500.02, -187500.02, -156402.86, 0.000, 0.000, 0.000, 16:14:50.318, 1578579290318
169, -187500.02, -187500.02, -187500.02, -187500.02, -187500.02, -187500.02, -187500.02, -187500.02, 0.000, 0.000, 0.000, 16:14:50.318, 1578579290318
170, -187500.02, -187500.02, -187500.02, -187500.02, -187500.02, -187500.02, -187500.02, -156393.39, 0.000, 0.000, 0.000, 16:14:50.318, 1578579290318
171, -187500.02, -187500.02, -187500.02, -187500.02, -187500.02, -187500.02, -187500.02, -187500.02, -0.006, -0.022, 0.980, 16:14:50.318, 1578579290318
172, -187500.02, -187500.02, -187500.02, -187500.02, -187500.02, -187500.02, -187500.02, -156381.50, 0.000, 0.000, 0.000, 16:14:50.318, 1578579290318
173, -187500.02, -187500.02, -187500.02, -187500.02, -187500.02, -187500.02, -187500.02, -187500.02, 0.000, 0.000, 0.000, 16:14:50.319, 1578579290319
174, -187500.02, -187500.02, -187500.02, -187500.02, -187500.02, -187500.02, -187500.02, -156367.95, 0.000, 0.000, 0.000, 16:14:50.319, 1578579290319
175, -187500.02, -187500.02, -187500.02, -187500.02, -187500.02, -187500.02, -187500.02, -187500.02, 0.000, 0.000, 0.000, 16:14:50.319, 1578579290319
176, -187500.02, -187500.02, -187500.02, -187500.02, -187500.02, -187500.02, -187500.02, -156358.53, 0.000, 0.000, 0.000, 16:14:50.319, 1578579290319
177, -187500.02, -187500.02, -187500.02, -187500.02, -187500.02, -187500.02, -187500.02, -187500.02, 0.000, 0.000, 0.000, 16:14:50.319, 1578579290319
178, -187500.02, -187500.02, -187500.02, -187500.02, -187500.02, -187500.02, -187500.02, -156347.61, 0.000, 0.000, 0.000, 16:14:50.319, 1578579290319
179, -187500.02, -187500.02, -187500.02, -187500.02, -187500.02, -187500.02, -187500.02, -187500.02, 0.000, 0.000, 0.000, 16:14:50.319, 1578579290319
180, -187500.02, -187500.02, -187500.02, -187500.02, -187500.02, -187500.02, -187500.02, -156334.48, 0.000, 0.000, 0.000, 16:14:50.319, 1578579290319
181, -187500.02, -187500.02, -187500.02, -187500.02, -187500.02, -187500.02, -187500.02, -187500.02, -0.006, -0.022, 0.982, 16:14:50.319, 1578579290319
182, -187500.02, -187500.02, -187500.02, -187500.02, -187500.02, -187500.02, -187500.02, -156326.03, 0.000, 0.000, 0.000, 16:14:50.319, 1578579290319
183, -187500.02, -187500.02, -187500.02, -187500.02, -187500.02, -187500.02, -187500.02, -187500.02, 0.000, 0.000, 0.000, 16:14:50.319, 1578579290319
184, -187500.02, -187500.02, -187500.02, -187500.02, -187500.02, -187500.02, -187500.02, -156314.39, 0.000, 0.000, 0.000, 16:14:50.319, 1578579290319
185, -187500.02, -187500.02, -187500.02, -187500.02, -187500.02, -187500.02, -187500.02, -187500.02, 0.000, 0.000, 0.000, 16:14:50.319, 1578579290319
186, -187500.02, -187500.02, -187500.02, -187500.02, -187500.02, -187500.02, -187500.02, -156300.88, 0.000, 0.000, 0.000, 16:14:50.319, 1578579290319
187, -187500.02, -187500.02, -187500.02, -187500.02, -187500.02, -187500.02, -187500.02, -187500.02, 0.000, 0.000, 0.000, 16:14:50.319, 1578579290319
188, -187500.02, -187500.02, -187500.02, -187500.02, -187500.02, -187500.02, -187500.02, -156286.05, 0.000, 0.000, 0.000, 16:14:50.319, 1578579290319
189, -187500.02, -187500.02, -187500.02, -187500.02, -187500.02, -187500.02, -187500.02, -187500.02, 0.000, 0.000, 0.000, 16:14:50.319, 1578579290319
190, -187500.02, -187500.02, -187500.02, -187500.02, -187500.02, -187500.02, -187500.02, -156277.09, 0.000, 0.000, 0.000, 16:14:50.319, 1578579290319
191, -187500.02, -187500.02, -187500.02, -187500.02, -187500.02, -187500.02, -187500.02, -187500.02, -0.006, -0.018, 0.978, 16:14:50.319, 1578579290319
192, -187500.02, -187500.02, -187500.02, -187500.02, -187500.02, -187500.02, -187500.02, -156265.69, 0.000, 0.000, 0.000, 16:14:50.319, 1578579290319
193, -187500.02, -187500.02, -187500.02, -187500.02, -187500.02, -187500.02, -187500.02, -187500.02, 0.000, 0.000, 0.000, 16:14:50.319, 1578579290319
194, -187500.02, -187500.02, -187500.02, -187500.02, -187500.02, -187500.02, -187500.02, -156252.02, 0.000, 0.000, 0.000, 16:14:50.320, 1578579290320
195, -187500.02, -187500.02, -187500.02, -187500.02, -187500.02, -187500.02, -187500.02, -187500.02, 0.000, 0.000, 0.000, 16:14:50.320, 1578579290320
196, -187500.02, -187500.02, -187500.02, -187500.02, -187500.02, -187500.02, -187500.02, -156242.23, 0.000, 0.000, 0.000, 16:14:50.320, 1578579290320
197, -187500.02, -187500.02, -187500.02, -187500.02, -187500.02, -187500.02, -187500.02, -187500.02, 0.000, 0.000, 0.000, 16:14:50.320, 1578579290320
198, -187500.02, -187500.02, -187500.02, -187500.02, -187500.02, -187500.02, -187500.02, -156229.41, 0.000, 0.000, 0.000, 16:14:50.320, 1578579290320
199, -187500.02, -187500.02, -187500.02, -187500.02, -187500.02, -187500.02, -187500.02, -187500.02, 0.000, 0.000, 0.000, 16:14:50.320, 1578579290320
200, -187500.02, -187500.02, -187500.02, -187500.02, -187500.02, -187500.02, -187500.02, -156214.91, 0.000, 0.000, 0.000, 16:14:50.320, 1578579290320
201, -187500.02, -187500.02, -187500.02, -187500.02, -187500.02, -187500.02, -187500.02, -187500.02, -0.006, -0.014, 0.980, 16:14:50.320, 1578579290320
202, -187500.02, -187500.02, -187500.02, -187500.02, -187500.02, -187500.02, -187500.02, -156205.00, 0.000, 0.000, 0.000, 16:14:50.320, 1578579290320
203, -187500.02, -187500.02, -187500.02, -187500.02, -187500.02, -187500.02, -187500.02, -187500.02, 0.000, 0.000, 0.000, 16:14:50.320, 1578579290320
204, -187500.02, -187500.02, -187500.02, -187500.02, -187500.02, -187500.02, -187500.02, -156192.59, 0.000, 0.000, 0.000, 16:14:50.320, 1578579290320
205, -187500.02, -187500.02, -187500.02, -187500.02, -187500.02, -187500.02, -187500.02, -187500.02, 0.000, 0.000, 0.000, 16:14:50.320, 1578579290320
206, -187500.02, -187500.02, -187500.02, -187500.02, -187500.02, -187500.02, -187500.02, -156185.25, 0.000, 0.000, 0.000, 16:14:50.320, 1578579290320
207, -187500.02, -187500.02, -187500.02, -187500.02, -187500.02, -187500.02, -187500.02, -187500.02, 0.000, 0.000, 0.000, 16:14:50.320, 1578579290320
208, -187500.02, -187500.02, -187500.02, -187500.02, -187500.02, -187500.02, -187500.02, -156174.27, 0.000, 0.000, 0.000, 16:14:50.320, 1578579290320
209, -187500.02, -187500.02, -187500.02, -187500.02, -187500.02, -187500.02, -187500.02, -187500.02, 0.000, 0.000, 0.000, 16:14:50.320, 1578579290320
210, -187500.02, -187500.02, -187500.02, -187500.02, -187500.02, -187500.02, -187500.02, -156162.67, -0.004, -0.014, 0.978, 16:14:50.320, 1578579290320
211, -187500.02, -187500.02, -187500.02, -187500.02, -187500.02, -187500.02, -187500.02, -187500.02, 0.000, 0.000, 0.000, 16:14:50.320, 1578579290320
212, -187500.02, -187500.02, -187500.02, -187500.02, -187500.02, -187500.02, -187500.02, -156151.83, 0.000, 0.000, 0.000, 16:14:50.320, 1578579290320
213, -187500.02, -187500.02, -187500.02, -187500.02, -187500.02, -187500.02, -187500.02, -187500.02, 0.000, 0.000, 0.000, 16:14:50.320, 1578579290320
214, -187500.02, -187500.02, -187500.02, -187500.02, -187500.02, -187500.02, -187500.02, -156140.83, 0.000, 0.000, 0.000, 16:14:50.321, 1578579290321
215, -187500.02, -187500.02, -187500.02, -187500.02, -187500.02, -187500.02, -187500.02, -187500.02, 0.000, 0.000, 0.000, 16:14:50.321, 1578579290321
216, -187500.02, -187500.02, -187500.02, -187500.02, -187500.02, -187500.02, -187500.02, -156128.16, 0.000, 0.000, 0.000, 16:14:50.321, 1578579290321
217, -187500.02, -187500.02, -187500.02, -187500.02, -187500.02, -187500.02, -187500.02, -187500.02, 0.000, 0.000, 0.000, 16:14:50.321, 1578579290321
218, -187500.02, -187500.02, -187500.02, -187500.02, -187500.02, -187500.02, -187500.02, -156117.94, 0.000, 0.000, 0.000, 16:14:50.321, 1578579290321
219, -187500.02, -187500.02, -187500.02, -187500.02, -187500.02, -187500.02, -187500.02, -187500.02, 0.000, 0.000, 0.000, 16:14:50.321, 1578579290321
220, -187500.02, -187500.02, -187500.02, -187500.02, -187500.02, -187500.02, -187500.02, -156111.08, -0.008, -0.016, 0.980, 16:14:50.321, 1578579290321
221, -187500.02, -187500.02, -187500.02, -187500.02, -187500.02, -187500.02, -187500.02, -187500.02, 0.000, 0.000, 0.000, 16:14:50.321, 1578579290321
222, -187500.02, -187500.02, -187500.02, -187500.02, -187500.02, -187500.02, -187500.02, -156099.80, 0.000, 0.000, 0.000, 16:14:50.321, 1578579290321
223, -187500.02, -187500.02, -187500.02, -187500.02, -187500.02, -187500.02, -187500.02, -187500.02, 0.000, 0.000, 0.000, 16:14:50.321, 1578579290321
224, -187500.02, -187500.02, -187500.02, -187500.02, -187500.02, -187500.02, -187500.02, -156088.17, 0.000, 0.000, 0.000, 16:14:50.321, 1578579290321
225, -187500.02, -187500.02, -187500.02, -187500.02, -187500.02, -187500.02, -187500.02, -187500.02, 0.000, 0.000, 0.000, 16:14:50.321, 1578579290321
226, -187500.02, -187500.02, -187500.02, -187500.02, -187500.02, -187500.02, -187500.02, -156074.94, 0.000, 0.000, 0.000, 16:14:50.321, 1578579290321
227, -187500.02, -187500.02, -187500.02, -187500.02, -187500.02, -187500.02, -187500.02, -187500.02, 0.000, 0.000, 0.000, 16:14:50.794, 1578579290794
228, -187500.02, -187500.02, -187500.02, -187500.02, -187500.02, -187500.02, -187500.02, -156062.91, 0.000, 0.000, 0.000, 16:14:50.794, 1578579290794
229, -187500.02, -187500.02, -187500.02, -187500.02, -187500.02, -187500.02, -187500.02, -187500.02, 0.000, 0.000, 0.000, 16:14:50.794, 1578579290794
230, -187500.02, -187500.02, -187500.02, -187500.02, -187500.02, -187500.02, -187500.02, -156051.63, -0.006, -0.024, 0.980, 16:14:50.794, 1578579290794
231, -187500.02, -187500.02, -187500.02, -187500.02, -187500.02, -187500.02, -187500.02, -187500.02, 0.000, 0.000, 0.000, 16:14:50.794, 1578579290794
232, -187500.02, -187500.02, -187500.02, -187500.02, -187500.02, -187500.02, -187500.02, -156039.00, 0.000, 0.000, 0.000, 16:14:50.794, 1578579290794
233, -187500.02, -187500.02, -187500.02, -187500.02, -187500.02, -187500.02, -187500.02, -187500.02, 0.000, 0.000, 0.000, 16:14:50.794, 1578579290794
234, -187500.02, -187500.02, -187500.02, -187500.02, -187500.02, -187500.02, -187500.02, -156027.13, 0.000, 0.000, 0.000, 16:14:50.794, 1578579290794
235, -187500.02, -187500.02, -187500.02, -187500.02, -187500.02, -187500.02, -187500.02, -187500.02, 0.000, 0.000, 0.000, 16:14:50.794, 1578579290794
236, -187500.02, -187500.02, -187500.02, -187500.02, -187500.02, -187500.02, -187500.02, -156013.83, 0.000, 0.000, 0.000, 16:14:50.794, 1578579290794
237, -187500.02, -187500.02, -187500.02, -187500.02, -187500.02, -187500.02, -187500.02, -187500.02, 0.000, 0.000, 0.000, 16:14:50.794, 1578579290794
238, -187500.02, -187500.02, -187500.02, -187500.02, -187500.02, -187500.02, -187500.02, -156005.88, 0.000, 0.000, 0.000, 16:14:50.795, 1578579290795
239, -187500.02, -187500.02, -187500.02, -187500.02, -187500.02, -187500.02, -187500.02, -187500.02, 0.000, 0.000, 0.000, 16:14:50.795, 1578579290795
240, -187500.02, -187500.02, -187500.02, -187500.02, -187500.02, -187500.02, -187500.02, -155997.33, -0.006, -0.028, 0.980, 16:14:50.795, 1578579290795
241, -187500.02, -187500.02, -187500.02, -187500.02, -187500.02, -187500.02, -187500.02, -187500.02, 0.000, 0.000, 0.000, 16:14:50.795, 1578579290795
242, -187500.02, -187500.02, -187500.02, -187500.02, -187500.02, -187500.02, -187500.02, -155986.00, 0.000, 0.000, 0.000, 16:14:50.795, 1578579290795
243, -187500.02, -187500.02, -187500.02, -187500.02, -187500.02, -187500.02, -187500.02, -187500.02, 0.000, 0.000, 0.000, 16:14:50.795, 1578579290795
244, -187500.02, -187500.02, -187500.02, -187500.02, -187500.02, -187500.02, -187500.02, -155974.41, 0.000, 0.000, 0.000, 16:14:50.795, 1578579290795
245, -187500.02, -187500.02, -187500.02, -187500.02, -187500.02, -187500.02, -187500.02, -187500.02, 0.000, 0.000, 0.000, 16:14:50.795, 1578579290795
246, -187500.02, -187500.02, -187500.02, -187500.02, -187500.02, -187500.02, -187500.02, -155962.52, 0.000, 0.000, 0.000, 16:14:50.795, 1578579290795
247, -187500.02, -187500.02, -187500.02, -187500.02, -187500.02, -187500.02, -187500.02, -187500.02, 0.000, 0.000, 0.000, 16:14:50.795, 1578579290795
248, -187500.02, -187500.02, -187500.02, -187500.02, -187500.02, -187500.02, -187500.02, -155953.22, 0.000, 0.000, 0.000, 16:14:50.795, 1578579290795
249, -187500.02, -187500.02, -187500.02, -187500.02, -187500.02, -187500.02, -187500.02, -187500.02, -0.010, -0.024, 0.978, 16:14:50.795, 1578579290795
250, -187500.02, -187500.02, -187500.02, -187500.02, -187500.02, -187500.02, -187500.02, -155937.97, 0.000, 0.000, 0.000, 16:14:50.795, 1578579290795
251, -187500.02, -187500.02, -187500.02, -187500.02, -187500.02, -187500.02, -187500.02, -187500.02, 0.000, 0.000, 0.000, 16:14:50.795, 1578579290795
252, -187500.02, -187500.02, -187500.02, -187500.02, -187500.02, -187500.02, -187500.02, -155927.16, 0.000, 0.000, 0.000, 16:14:50.795, 1578579290795
253, -187500.02, -187500.02, -187500.02, -187500.02, -187500.02, -187500.02, -187500.02, -187500.02, 0.000, 0.000, 0.000, 16:14:50.795, 1578579290795
254, -187500.02, -187500.02, -187500.02, -187500.02, -187500.02, -187500.02, -187500.02, -155913.52, 0.000, 0.000, 0.000, 16:14:50.795, 1578579290795
255, -187500.02, -187500.02, -187500.02, -187500.02, -187500.02, -187500.02, -187500.02, -187500.02, 0.000, 0.000, 0.000, 16:14:50.795, 1578579290795
0, -187500.02, -187500.02, -187500.02, -187500.02, -187500.02, -187500.02, -187500.02, -155902.52, 0.000, 0.000, 0.000, 16:14:50.795, 1578579290795
1, -187500.02, -187500.02, -187500.02, -187500.02, -187500.02, -187500.02, -187500.02, -187500.02, 0.000, 0.000, 0.000, 16:14:50.795, 1578579290795
2, -187500.02, -187500.02, -187500.02, -187500.02, -187500.02, -187500.02, -187500.02, -155893.67, 0.000, 0.000, 0.000, 16:14:50.795, 1578579290795
3, -187500.02, -187500.02, -187500.02, -187500.02, -187500.02, -187500.02, -187500.02, -187500.02, -0.008, -0.022, 0.978, 16:14:50.796, 1578579290796
4, -187500.02, -187500.02, -187500.02, -187500.02, -187500.02, -187500.02, -187500.02, -155882.30, 0.000, 0.000, 0.000, 16:14:50.796, 1578579290796
5, -187500.02, -187500.02, -187500.02, -187500.02, -187500.02, -187500.02, -187500.02, -187500.02, 0.000, 0.000, 0.000, 16:14:50.796, 1578579290796
6, -187500.02, -187500.02, -187500.02, -187500.02, -187500.02, -187500.02, -187500.02, -155870.75, 0.000, 0.000, 0.000, 16:14:50.796, 1578579290796
7, -187500.02, -187500.02, -187500.02, -187500.02, -187500.02, -187500.02, -187500.02, -187500.02, 0.000, 0.000, 0.000, 16:14:50.796, 1578579290796
8, -187500.02, -187500.02, -187500.02, -187500.02, -187500.02, -187500.02, -187500.02, -155861.02, 0.000, 0.000, 0.000, 16:14:50.796, 1578579290796
9, -187500.02, -187500.02, -187500.02, -187500.02, -187500.02, -187500.02, -187500.02, -187500.02, 0.000, 0.000, 0.000, 16:14:50.796, 1578579290796
10, -187500.02, -187500.02, -187500.02, -187500.02, -187500.02, -187500.02, -187500.02, -155845.83, 0.000, 0.000, 0.000, 16:14:50.796, 1578579290796
11, -187500.02, -187500.02, -187500.02, -187500.02, -187500.02, -187500.02, -187500.02, -187500.02, 0.000, 0.000, 0.000, 16:14:50.796, 1578579290796
12, -187500.02, -187500.02, -187500.02, -187500.02, -187500.02, -187500.02, -187500.02, -155838.48, 0.000, 0.000, 0.000, 16:14:50.796, 1578579290796
13, -187500.02, -187500.02, -187500.02, -187500.02, -187500.02, -187500.02, -187500.02, -187500.02, -0.008, -0.020, 0.980, 16:14:50.796, 1578579290796
14, -187500.02, -187500.02, -187500.02, -187500.02, -187500.02, -187500.02, -187500.02, -155827.91, 0.000, 0.000, 0.000, 16:14:50.796, 1578579290796
15, -187500.02, -187500.02, -187500.02, -187500.02, -187500.02, -187500.02, -187500.02, -187500.02, 0.000, 0.000, 0.000, 16:14:50.796, 1578579290796
16, -187500.02, -187500.02, -187500.02, -187500.02, -187500.02, -187500.02, -187500.02, -155817.48, 0.000, 0.000, 0.000, 16:14:50.796, 1578579290796
17, -187500.02, -187500.02, -187500.02, -187500.02, -187500.02, -187500.02, -187500.02, -187500.02, 0.000, 0.000, 0.000, 16:14:50.796, 1578579290796
18, -187500.02, -187500.02, -187500.02, -187500.02, -187500.02, -187500.02, -187500.02, -155807.55, 0.000, 0.000, 0.000, 16:14:50.796, 1578579290796
19, -187500.02, -187500.02, -187500.02, -187500.02, -187500.02, -187500.02, -187500.02, -187500.02, 0.000, 0.000, 0.000, 16:14:50.796, 1578579290796
20, -187500.02, -187500.02, -187500.02, -187500.02, -187500.02, -187500.02, -187500.02, -155796.48, 0.000, 0.000, 0.000, 16:14:50.796, 1578579290796
21, -187500.02, -187500.02, -187500.02, -187500.02, -187500.02, -187500.02, -187500.02, -187500.02, 0.000, 0.000, 0.000, 16:14:50.796, 1578579290796
22, -187500.02, -187500.02, -187500.02, -187500.02, -187500.02, -187500.02, -187500.02, -155785.84, 0.000, 0.000, 0.000, 16:14:50.796, 1578579290796
23, -187500.02, -187500.02, -187500.02, -187500.02, -187500.02, -187500.02, -187500.02, -187500.02, -0.010, -0.024, 0.972, 16:14:50.797, 1578579290797
24, -187500.02, -187500.02, -187500.02, -187500.02, -187500.02, -187500.02, -187500.02, -155773.69, 0.000, 0.000, 0.000, 16:14:50.797, 1578579290797
25, -187500.02, -187500.02, -187500.02, -187500.02, -187500.02, -187500.02, -187500.02, -187500.02, 0.000, 0.000, 0.000, 16:14:50.797, 1578579290797
26, -187500.02, -187500.02, -187500.02, -187500.02, -187500.02, -187500.02, -187500.02, -155762.95, 0.000, 0.000, 0.000, 16:14:50.797, 1578579290797
27, -187500.02, -187500.02, -187500.02, -187500.02, -187500.02, -187500.02, -187500.02, -187500.02, 0.000, 0.000, 0.000, 16:14:50.797, 1578579290797
28, -187500.02, -187500.02, -187500.02, -187500.02, -187500.02, -187500.02, -187500.02, -155752.30, 0.000, 0.000, 0.000, 16:14:50.797, 1578579290797
29, -187500.02, -187500.02, -187500.02, -187500.02, -187500.02, -187500.02, -187500.02, -187500.02, 0.000, 0.000, 0.000, 16:14:50.797, 1578579290797
30, -187500.02, -187500.02, -187500.02, -187500.02, -187500.02, -187500.02, -187500.02, -155741.36, 0.000, 0.000, 0.000, 16:14:50.797, 1578579290797
31, -187500.02, -187500.02, -187500.02, -187500.02, -187500.02, -187500.02, -187500.02, -187500.02, 0.000, 0.000, 0.000, 16:14:50.797, 1578579290797
32, -187500.02, -187500.02, -187500.02, -187500.02, -187500.02, -187500.02, -187500.02, -155729.03, -0.010, -0.024, 0.972, 16:14:50.797, 1578579290797
33, -187500.02, -187500.02, -187500.02, -187500.02, -187500.02, -187500.02, -187500.02, -187500.02, 0.000, 0.000, 0.000, 16:14:50.797, 1578579290797
34, -187500.02, -187500.02, -187500.02, -187500.02, -187500.02, -187500.02, -187500.02, -155722.03, 0.000, 0.000, 0.000, 16:14:50.797, 1578579290797
35, -187500.02, -187500.02, -187500.02, -187500.02, -187500.02, -187500.02, -187500.02, -187500.02, 0.000, 0.000, 0.000, 16:14:50.797, 1578579290797
36, -187500.02, -187500.02, -187500.02, -187500.02, -187500.02, -187500.02, -187500.02, -155709.20, 0.000, 0.000, 0.000, 16:14:50.797, 1578579290797
37, -187500.02, -187500.02, -187500.02, -187500.02, -187500.02, -187500.02, -187500.02, -187500.02, 0.000, 0.000, 0.000, 16:14:50.797, 1578579290797
38, -187500.02, -187500.02, -187500.02, -187500.02, -187500.02, -187500.02, -187500.02, -155699.28, 0.000, 0.000, 0.000, 16:14:50.797, 1578579290797
39, -187500.02, -187500.02, -187500.02, -187500.02, -187500.02, -187500.02, -187500.02, -187500.02, 0.000, 0.000, 0.000, 16:14:50.797, 1578579290797
40, -187500.02, -187500.02, -187500.02, -187500.02, -187500.02, -187500.02, -187500.02, -155687.00, 0.000, 0.000, 0.000, 16:14:50.797, 1578579290797
41, -187500.02, -187500.02, -187500.02, -187500.02, -187500.02, -187500.02, -187500.02, -187500.02, 0.000, 0.000, 0.000, 16:14:50.797, 1578579290797
42, -187500.02, -187500.02, -187500.02, -187500.02, -187500.02, -187500.02, -187500.02, -155676.11, -0.008, -0.024, 0.976, 16:14:50.797, 1578579290797
43, -187500.02, -187500.02, -187500.02, -187500.02, -187500.02, -187500.02, -187500.02, -187500.02, 0.000, 0.000, 0.000, 16:14:50.798, 1578579290798
44, -187500.02, -187500.02, -187500.02, -187500.02, -187500.02, -187500.02, -187500.02, -155668.45, 0.000, 0.000, 0.000, 16:14:50.798, 1578579290798
45, -187500.02, -187500.02, -187500.02, -187500.02, -187500.02, -187500.02, -187500.02, -187500.02, 0.000, 0.000, 0.000, 16:14:50.798, 1578579290798
46, -187500.02, -187500.02, -187500.02, -187500.02, -187500.02, -187500.02, -187500.02, -155657.14, 0.000, 0.000, 0.000, 16:14:50.798, 1578579290798
47, -187500.02, -187500.02, -187500.02, -187500.02, -187500.02, -187500.02, -187500.02, -187500.02, 0.000, 0.000, 0.000, 16:14:50.798, 1578579290798
48, -187500.02, -187500.02, -187500.02, -187500.02, -187500.02, -187500.02, -187500.02, -155645.98, 0.000, 0.000, 0.000, 16:14:50.798, 1578579290798
49, -187500.02, -187500.02, -187500.02, -187500.02, -187500.02, -187500.02, -187500.02, -187500.02, 0.000, 0.000, 0.000, 16:14:50.798, 1578579290798
50, -187500.02, -187500.02, -187500.02, -187500.02, -187500.02, -187500.02, -187500.02, -155637.05, 0.000, 0.000, 0.000, 16:14:50.798, 1578579290798
51, -187500.02, -187500.02, -187500.02, -187500.02, -187500.02, -187500.02, -187500.02, -187500.02, 0.000, 0.000, 0.000, 16:14:50.798, 1578579290798
52, -187500.02, -187500.02, -187500.02, -187500.02, -187500.02, -187500.02, -187500.02, -155623.64, -0.006, -0.022, 0.976, 16:14:50.798, 1578579290798
53, -187500.02, -187500.02, -187500.02, -187500.02, -187500.02, -187500.02, -187500.02, -187500.02, 0.000, 0.000, 0.000, 16:14:50.798, 1578579290798
54, -187500.02, -187500.02, -187500.02, -187500.02, -187500.02, -187500.02, -187500.02, -155613.44, 0.000, 0.000, 0.000, 16:14:50.798, 1578579290798
55, -187500.02, -187500.02, -187500.02, -187500.02, -187500.02, -187500.02, -187500.02, -187500.02, 0.000, 0.000, 0.000, 16:14:50.798, 1578579290798
56, -187500.02, -187500.02, -187500.02, -187500.02, -187500.02, -187500.02, -187500.02, -155601.84, 0.000, 0.000, 0.000, 16:14:50.798, 1578579290798
57, -187500.02, -187500.02, -187500.02, -187500.02, -187500.02, -187500.02, -187500.02, -187500.02, 0.000, 0.000, 0.000, 16:14:50.798, 1578579290798
58, -187500.02, -187500.02, -187500.02, -187500.02, -187500.02, -187500.02, -187500.02, -155591.84, 0.000, 0.000, 0.000, 16:14:50.798, 1578579290798
59, -187500.02, -187500.02, -187500.02, -187500.02, -187500.02, -187500.02, -187500.02, -187500.02, 0.000, 0.000, 0.000, 16:14:50.798, 1578579290798
60, -187500.02, -187500.02, -187500.02, -187500.02, -187500.02, -187500.02, -187500.02, -155580.77, 0.000, 0.000, 0.000, 16:14:50.798, 1578579290798
61, -187500.02, -187500.02, -187500.02, -187500.02, -187500.02, -187500.02, -187500.02, -187500.02, 0.000, 0.000, 0.000, 16:14:50.799, 1578579290799
62, -187500.02, -187500.02, -187500.02, -187500.02, -187500.02, -187500.02, -187500.02, -155572.56, -0.004, -0.024, 0.982, 16:14:50.799, 1578579290799
63, -187500.02, -187500.02, -187500.02, -187500.02, -187500.02, -187500.02, -187500.02, -187500.02, 0.000, 0.000, 0.000, 16:14:50.799, 1578579290799
64, -187500.02, -187500.02, -187500.02, -187500.02, -187500.02, -187500.02, -187500.02, -155559.78, 0.000, 0.000, 0.000, 16:14:50.799, 1578579290799
65, -187500.02, -187500.02, -187500.02, -187500.02, -187500.02, -187500.02, -187500.02, -187500.02, 0.000, 0.000, 0.000, 16:14:50.799, 1578579290799
66, -187500.02, -187500.02, -187500.02, -187500.02, -187500.02, -187500.02, -187500.02, -155551.23, 0.000, 0.000, 0.000, 16:14:50.799, 1578579290799
67, -187500.02, -187500.02, -187500.02, -187500.02, -187500.02, -187500.02, -187500.02, -187500.02, 0.000, 0.000, 0.000, 16:14:50.799, 1578579290799
68, -187500.02, -187500.02, -187500.02, -187500.02, -187500.02, -187500.02, -187500.02, -155535.55, 0.000, 0.000, 0.000, 16:14:50.799, 1578579290799
69, -187500.02, -187500.02, -187500.02, -187500.02, -187500.02, -187500.02, -187500.02, -187500.02, 0.000, 0.000, 0.000, 16:14:50.799, 1578579290799
70, -187500.02, -187500.02, -187500.02, -187500.02, -187500.02, -187500.02, -187500.02, -155524.70, 0.000, 0.000, 0.000, 16:14:50.799, 1578579290799
71, -187500.02, -187500.02, -187500.02, -187500.02, -187500.02, -187500.02, -187500.02, -187500.02, -0.004, -0.026, 0.976, 16:14:50.799, 1578579290799
72, -187500.02, -187500.02, -187500.02, -187500.02, -187500.02, -187500.02, -187500.02, -155515.25, 0.000, 0.000, 0.000, 16:14:50.800, 1578579290800
73, -187500.02, -187500.02, -187500.02, -187500.02, -187500.02, -187500.02, -187500.02, -187500.02, 0.000, 0.000, 0.000, 16:14:50.800, 1578579290800
74, -187500.02, -187500.02, -187500.02, -187500.02, -187500.02, -187500.02, -187500.02, -155504.13, 0.000, 0.000, 0.000, 16:14:50.800, 1578579290800
75, -187500.02, -187500.02, -187500.02, -187500.02, -187500.02, -187500.02, -187500.02, -187500.02, 0.000, 0.000, 0.000, 16:14:50.800, 1578579290800
76, -187500.02, -187500.02, -187500.02, -187500.02, -187500.02, -187500.02, -187500.02, -155492.52, 0.000, 0.000, 0.000, 16:14:50.800, 1578579290800
77, -187500.02, -187500.02, -187500.02, -187500.02, -187500.02, -187500.02, -187500.02, -187500.02, 0.000, 0.000, 0.000, 16:14:50.800, 1578579290800
78, -187500.02, -187500.02, -187500.02, -187500.02, -187500.02, -187500.02, -187500.02, -155484.66, 0.000, 0.000, 0.000, 16:14:50.800, 1578579290800
79, -187500.02, -187500.02, -187500.02, -187500.02, -187500.02, -187500.02, -187500.02, -187500.02, 0.000, 0.000, 0.000, 16:14:50.800, 1578579290800
80, -187500.02, -187500.02, -187500.02, -187500.02, -187500.02, -187500.02, -187500.02, -155475.11, 0.000, 0.000, 0.000, 16:14:50.800, 1578579290800
81, -187500.02, -187500.02, -187500.02, -187500.02, -187500.02, -187500.02, -187500.02, -187500.02, -0.008, -0.022, 0.976, 16:14:50.800, 1578579290800
82, -187500.02, -187500.02, -187500.02, -187500.02, -187500.02, -187500.02, -187500.02, -155464.42, 0.000, 0.000, 0.000, 16:14:50.800, 1578579290800
83, -187500.02, -187500.02, -187500.02, -187500.02, -187500.02, -187500.02, -187500.02, -187500.02, 0.000, 0.000, 0.000, 16:14:50.800, 1578579290800
84, -187500.02, -187500.02, -187500.02, -187500.02, -187500.02, -187500.02, -187500.02, -155454.88, 0.000, 0.000, 0.000, 16:14:50.800, 1578579290800
85, -187500.02, -187500.02, -187500.02, -187500.02, -187500.02, -187500.02, -187500.02, -187500.02, 0.000, 0.000, 0.000, 16:14:50.800, 1578579290800
86, -187500.02, -187500.02, -187500.02, -187500.02, -187500.02, -187500.02, -187500.02, -155444.89, 0.000, 0.000, 0.000, 16:14:50.800, 1578579290800
87, -187500.02, -187500.02, -187500.02, -187500.02, -187500.02, -187500.02, -187500.02, -187500.02, 0.000, 0.000, 0.000, 16:14:50.800, 1578579290800
88, -187500.02, -187500.02, -187500.02, -187500.02, -187500.02, -187500.02, -187500.02, -155436.73, 0.000, 0.000, 0.000, 16:14:50.800, 1578579290800
89, -187500.02, -187500.02, -187500.02, -187500.02, -187500.02, -187500.02, -187500.02, -187500.02, 0.000, 0.000, 0.000, 16:14:50.800, 1578579290800
90, -187500.02, -187500.02, -187500.02, -187500.02, -187500.02, -187500.02, -187500.02, -155423.88, 0.000, 0.000, 0.000, 16:14:50.800, 1578579290800
91, -187500.02, -187500.02, -187500.02, -187500.02, -187500.02, -187500.02, -187500.02, -187500.02, -0.008, -0.022, 0.970, 16:14:51.275, 1578579291275
92, -187500.02, -187500.02, -187500.02, -187500.02, -187500.02, -187500.02, -187500.02, -155416.09, 0.000, 0.000, 0.000, 16:14:51.275, 1578579291275
93, -187500.02, -187500.02, -187500.02, -187500.02, -187500.02, -187500.02, -187500.02, -187500.02, 0.000, 0.000, 0.000, 16:14:51.275, 1578579291275
94, -187500.02, -187500.02, -187500.02, -187500.02, -187500.02, -187500.02, -187500.02, -155406.56, 0.000, 0.000, 0.000, 16:14:51.275, 1578579291275
95, -187500.02, -187500.02, -187500.02, -187500.02, -187500.02, -187500.02, -187500.02, -187500.02, 0.000, 0.000, 0.000, 16:14:51.275, 1578579291275
96, -187500.02, -187500.02, -187500.02, -187500.02, -187500.02, -187500.02, -187500.02, -155399.77, 0.000, 0.000, 0.000, 16:14:51.275, 1578579291275
97, -187500.02, -187500.02, -187500.02, -187500.02, -187500.02, -187500.02, -187500.02, -187500.02, 0.000, 0.000, 0.000, 16:14:51.275, 1578579291275
98, -187500.02, -187500.02, -187500.02, -187500.02, -187500.02, -187500.02, -187500.02, -155383.27, 0.000, 0.000, 0.000, 16:14:51.275, 1578579291275
99, -187500.02, -187500.02, -187500.02, -187500.02, -187500.02, -187500.02, -187500.02, -187500.02, 0.000, 0.000, 0.000, 16:14:51.275, 1578579291275
100, -187500.02, -187500.02, -187500.02, -187500.02, -187500.02, -187500.02, -187500.02, -155370.05, 0.000, 0.000, 0.000, 16:14:51.275, 1578579291275
101, -187500.02, -187500.02, -187500.02, -187500.02, -187500.02, -187500.02, -187500.02, -187500.02, -0.008, -0.022, 0.972, 16:14:51.275, 1578579291275
102, -187500.02, -187500.02, -187500.02, -187500.02, -187500.02, -187500.02, -187500.02, -155361.22, 0.000, 0.000, 0.000, 16:14:51.275, 1578579291275
103, -187500.02, -187500.02, -187500.02, -187500.02, -187500.02, -187500.02, -187500.02, -187500.02, 0.000, 0.000, 0.000, 16:14:51.275, 1578579291275
104, -187500.02, -187500.02, -187500.02, -187500.02, -187500.02, -187500.02, -187500.02, -155351.30, 0.000, 0.000, 0.000, 16:14:51.276, 1578579291276
105, -187500.02, -187500.02, -187500.02, -187500.02, -187500.02, -187500.02, -187500.02, -187500.02, 0.000, 0.000, 0.000, 16:14:51.276, 1578579291276
106, -187500.02, -187500.02, -187500.02, -187500.02, -187500.02, -187500.02, -187500.02, -155341.44, 0.000, 0.000, 0.000, 16:14:51.276, 1578579291276
107, -187500.02, -187500.02, -187500.02, -187500.02, -187500.02, -187500.02, -187500.02, -187500.02, 0.000, 0.000, 0.000, 16:14:51.276, 1578579291276
108, -187500.02, -187500.02, -187500.02, -187500.02, -187500.02, -187500.02, -187500.02, -155329.22, 0.000, 0.000, 0.000, 16:14:51.276, 1578579291276
109, -187500.02, -187500.02, -187500.02, -187500.02, -187500.02, -187500.02, -187500.02, -187500.02, 0.000, 0.000, 0.000, 16:14:51.276, 1578579291276
110, -187500.02, -187500.02, -187500.02, -187500.02, -187500.02, -187500.02, -187500.02, -155318.42, -0.004, -0.018, 0.978, 16:14:51.276, 1578579291276
111, -187500.02, -187500.02, -187500.02, -187500.02, -187500.02, -187500.02, -187500.02, -187500.02, 0.000, 0.000, 0.000, 16:14:51.276, 1578579291276
112, -187500.02, -187500.02, -187500.02, -187500.02, -187500.02, -187500.02, -187500.02, -155309.97, 0.000, 0.000, 0.000, 16:14:51.276, 1578579291276
113, -187500.02, -187500.02, -187500.02, -187500.02, -187500.02, -187500.02, -187500.02, -187500.02, 0.000, 0.000, 0.000, 16:14:51.276, 1578579291276
114, -187500.02, -187500.02, -187500.02, -187500.02, -187500.02, -187500.02, -187500.02, -155299.02, 0.000, 0.000, 0.000, 16:14:51.276, 1578579291276
115, -187500.02, -187500.02, -187500.02, -187500.02, -187500.02, -187500.02, -187500.02, -187500.02, 0.000, 0.000, 0.000, 16:14:51.276, 1578579291276
116, -187500.02, -187500.02, -187500.02, -187500.02, -187500.02, -187500.02, -187500.02, -155287.42, 0.000, 0.000, 0.000, 16:14:51.276, 1578579291276
117, -187500.02, -187500.02, -187500.02, -187500.02, -187500.02, -187500.02, -187500.02, -187500.02, 0.000, 0.000, 0.000, 16:14:51.276, 1578579291276
118, -187500.02, -187500.02, -187500.02, -187500.02, -187500.02, -187500.02, -187500.02, -155279.34, 0.000, 0.000, 0.000, 16:14:51.276, 1578579291276
119, -187500.02, -187500.02, -187500.02, -187500.02, -187500.02, -187500.02, -187500.02, -187500.02, 0.000, 0.000, 0.000, 16:14:51.276, 1578579291276
120, -187500.02, -187500.02, -187500.02, -187500.02, -187500.02, -187500.02, -187500.02, -155270.19, -0.006, -0.020, 0.982, 16:14:51.276, 1578579291276
121, -187500.02, -187500.02, -187500.02, -187500.02, -187500.02, -187500.02, -187500.02, -187500.02, 0.000, 0.000, 0.000, 16:14:51.276, 1578579291276
122, -187500.02, -187500.02, -187500.02, -187500.02, -187500.02, -187500.02, -187500.02, -155259.41, 0.000, 0.000, 0.000, 16:14:51.276, 1578579291276
123, -187500.02, -187500.02, -187500.02, -187500.02, -187500.02, -187500.02, -187500.02, -187500.02, 0.000, 0.000, 0.000, 16:14:51.276, 1578579291276
124, -187500.02, -187500.02, -187500.02, -187500.02, -187500.02, -187500.02, -187500.02, -155250.05, 0.000, 0.000, 0.000, 16:14:51.276, 1578579291276
125, -187500.02, -187500.02, -187500.02, -187500.02, -187500.02, -187500.02, -187500.02, -187500.02, 0.000, 0.000, 0.000, 16:14:51.277, 1578579291277
126, -187500.02, -187500.02, -187500.02, -187500.02, -187500.02, -187500.02, -187500.02, -155240.23, 0.000, 0.000, 0.000, 16:14:51.277, 1578579291277
127, -187500.02, -187500.02, -187500.02, -187500.02, -187500.02, -187500.02, -187500.02, -187500.02, 0.000, 0.000, 0.000, 16:14:51.277, 1578579291277
128, -187500.02, -187500.02, -187500.02, -187500.02, -187500.02, -187500.02, -187500.02, -155228.03, 0.000, 0.000, 0.000, 16:14:51.277, 1578579291277
129, -187500.02, -187500.02, -187500.02, -187500.02, -187500.02, -187500.02, -187500.02, -187500.02, 0.000, 0.000, 0.000, 16:14:51.277, 1578579291277
130, -187500.02, -187500.02, -187500.02, -187500.02, -187500.02, -187500.02, -187500.02, -155219.20, -0.006, -0.020, 0.986, 16:14:51.277, 1578579291277
131, -187500.02, -187500.02, -187500.02, -187500.02, -187500.02, -187500.02, -187500.02, -187500.02, 0.000, 0.000, 0.000, 16:14:51.277, 1578579291277
132, -187500.02, -187500.02, -187500.02, -187500.02, -187500.02, -187500.02, -187500.02, -155210.27, 0.000, 0.000, 0.000, 16:14:51.277, 1578579291277
133, -187500.02, -187500.02, -187500.02, -187500.02, -187500.02, -187500.02, -187500.02, -187500.02, 0.000, 0.000, 0.000, 16:14:51.277, 1578579291277
134, -187500.02, -187500.02, -187500.02, -187500.02, -187500.02, -187500.02, -187500.02, -155199.36, 0.000, 0.000, 0.000, 16:14:51.277, 1578579291277
135, -187500.02, -187500.02, -187500.02, -187500.02, -187500.02, -187500.02, -187500.02, -187500.02, 0.000, 0.000, 0.000, 16:14:51.277, 1578579291277
136, -187500.02, -187500.02, -187500.02, -187500.02, -187500.02, -187500.02, -187500.02, -155191.42, 0.000, 0.000, 0.000, 16:14:51.277, 1578579291277
137, -187500.02, -187500.02, -187500.02, -187500.02, -187500.02, -187500.02, -187500.02, -187500.02, 0.000, 0.000, 0.000, 16:14:51.277, 1578579291277
138, -187500.02, -187500.02, -187500.02, -187500.02, -187500.02, -187500.02, -187500.02, -155184.78, 0.000, 0.000, 0.000, 16:14:51.277, 1578579291277
139, -187500.02, -187500.02, -187500.02, -187500.02, -187500.02, -187500.02, -187500.02, -187500.02, 0.000, 0.000, 0.000, 16:14:51.277, 1578579291277
140, -187500.02, -187500.02, -187500.02, -187500.02, -187500.02, -187500.02, -187500.02, -155173.47, -0.008, -0.026, 0.982, 16:14:51.277, 1578579291277
141, -187500.02, -187500.02, -187500.02, -187500.02, -187500.02, -187500.02, -187500.02, -187500.02, 0.000, 0.000, 0.000, 16:14:51.277, 1578579291277
142, -187500.02, -187500.02, -187500.02, -187500.02, -187500.02, -187500.02, -187500.02, -155160.22, 0.000, 0.000, 0.000, 16:14:51.277, 1578579291277
143, -187500.02, -187500.02, -187500.02, -187500.02, -187500.02, -187500.02, -187500.02, -187500.02, 0.000, 0.000, 0.000, 16:14:51.277, 1578579291277
144, -187500.02, -187500.02, -187500.02, -187500.02, -187500.02, -187500.02, -187500.02, -155148.33, 0.000, 0.000, 0.000, 16:14:51.277, 1578579291277
145, -187500.02, -187500.02, -187500.02, -187500.02, -187500.02, -187500.02, -187500.02, -187500.02, 0.000, 0.000, 0.000, 16:14:51.278, 1578579291278
146, -187500.02, -187500.02, -187500.02, -187500.02, -187500.02, -187500.02, -187500.02, -155140.23, 0.000, 0.000, 0.000, 16:14:51.278, 1578579291278
147, -187500.02, -187500.02, -187500.02, -187500.02, -187500.02, -187500.02, -187500.02, -187500.02, 0.000, 0.000, 0.000, 16:14:51.278, 1578579291278
148, -187500.02, -187500.02, -187500.02, -187500.02, -187500.02, -187500.02, -187500.02, -155131.47, 0.000, 0.000, 0.000, 16:14:51.278, 1578579291278
149, -187500.02, -187500.02, -187500.02, -187500.02, -187500.02, -187500.02, -187500.02, -187500.02, 0.000, 0.000, 0.000, 16:14:51.278, 1578579291278
150, -187500.02, -187500.02, -187500.02, -187500.02, -187500.02, -187500.02, -187500.02, -155121.39, -0.012, -0.026, 0.982, 16:14:51.278, 1578579291278
151, -187500.02, -187500.02, -187500.02, -187500.02, -187500.02, -187500.02, -187500.02, -187500.02, 0.000, 0.000, 0.000, 16:14:51.278, 1578579291278
152, -187500.02, -187500.02, -187500.02, -187500.02, -187500.02, -187500.02, -187500.02, -155109.77, 0.000, 0.000, 0.000, 16:14:51.278, 1578579291278
153, -187500.02, -187500.02, -187500.02, -187500.02, -187500.02, -187500.02, -187500.02, -187500.02, 0.000, 0.000, 0.000, 16:14:51.278, 1578579291278
154, -187500.02, -187500.02, -187500.02, -187500.02, -187500.02, -187500.02, -187500.02, -155101.91, 0.000, 0.000, 0.000, 16:14:51.278, 1578579291278
155, -187500.02, -187500.02, -187500.02, -187500.02, -187500.02, -187500.02, -187500.02, -187500.02, 0.000, 0.000, 0.000, 16:14:51.278, 1578579291278
156, -187500.02, -187500.02, -187500.02, -187500.02, -187500.02, -187500.02, -187500.02, -155093.47, 0.000, 0.000, 0.000, 16:14:51.278, 1578579291278
157, -187500.02, -187500.02, -187500.02, -187500.02, -187500.02, -187500.02, -187500.02, -187500.02, 0.000, 0.000, 0.000, 16:14:51.278, 1578579291278
158, -187500.02, -187500.02, -187500.02, -187500.02, -187500.02, -187500.02, -187500.02, -155084.47, 0.000, 0.000, 0.000, 16:14:51.278, 1578579291278
159, -187500.02, -187500.02, -187500.02, -187500.02, -187500.02, -187500.02, -187500.02, -187500.02, -0.006, -0.020, 0.980, 16:14:51.278, 1578579291278
160, -187500.02, -187500.02, -187500.02, -187500.02, -187500.02, -187500.02, -187500.02, -155074.23, 0.000, 0.000, 0.000, 16:14:51.278, 1578579291278
161, -187500.02, -187500.02, -187500.02, -187500.02, -187500.02, -187500.02, -187500.02, -187500.02, 0.000, 0.000, 0.000, 16:14:51.278, 1578579291278
162, -187500.02, -187500.02, -187500.02, -187500.02, -187500.02, -187500.02, -187500.02, -155064.64, 0.000, 0.000, 0.000, 16:14:51.278, 1578579291278
163, -187500.02, -187500.02, -187500.02, -187500.02, -187500.02, -187500.02, -187500.02, -187500.02, 0.000, 0.000, 0.000, 16:14:51.278, 1578579291278
164, -187500.02, -187500.02, -187500.02, -187500.02, -187500.02, -187500.02, -187500.02, -155053.59, 0.000, 0.000, 0.000, 16:14:51.279, 1578579291279
165, -187500.02, -187500.02, -187500.02, -187500.02, -187500.02, -187500.02, -187500.02, -187500.02, 0.000, 0.000, 0.000, 16:14:51.279, 1578579291279
166, -187500.02, -187500.02, -187500.02, -187500.02, -187500.02, -187500.02, -187500.02, -155046.16, 0.000, 0.000, 0.000, 16:14:51.279, 1578579291279
167, -187500.02, -187500.02, -187500.02, -187500.02, -187500.02, -187500.02, -187500.02, -187500.02, 0.000, 0.000, 0.000, 16:14:51.279, 1578579291279
168, -187500.02, -187500.02, -187500.02, -187500.02, -187500.02, -187500.02, -187500.02, -155037.75, 0.000, 0.000, 0.000, 16:14:51.279, 1578579291279
169, -187500.02, -187500.02, -187500.02, -187500.02, -187500.02, -187500.02, -187500.02, -187500.02, -0.004, -0.018, 0.976, 16:14:51.279, 1578579291279
170, -187500.02, -187500.02, -187500.02, -187500.02, -187500.02, -187500.02, -187500.02, -155027.83, 0.000, 0.000, 0.000, 16:14:51.279, 1578579291279
171, -187500.02, -187500.02, -187500.02, -187500.02, -187500.02, -187500.02, -187500.02, -187500.02, 0.000, 0.000, 0.000, 16:14:51.279, 1578579291279
172, -187500.02, -187500.02, -187500.02, -187500.02, -187500.02, -187500.02, -187500.02, -155015.59, 0.000, 0.000, 0.000, 16:14:51.279, 1578579291279
173, -187500.02, -187500.02, -187500.02, -187500.02, -187500.02, -187500.02, -187500.02, -187500.02, 0.000, 0.000, 0.000, 16:14:51.279, 1578579291279
174, -187500.02, -187500.02, -187500.02, -187500.02, -187500.02, -187500.02, -187500.02, -155004.69, 0.000, 0.000, 0.000, 16:14:51.279, 1578579291279
175, -187500.02, -187500.02, -187500.02, -187500.02, -187500.02, -187500.02, -187500.02, -187500.02, 0.000, 0.000, 0.000, 16:14:51.279, 1578579291279
176, -187500.02, -187500.02, -187500.02, -187500.02, -187500.02, -187500.02, -187500.02, -154998.50, 0.000, 0.000, 0.000, 16:14:51.279, 1578579291279
177, -187500.02, -187500.02, -187500.02, -187500.02, -187500.02, -187500.02, -187500.02, -187500.02, 0.000, 0.000, 0.000, 16:14:51.279, 1578579291279
178, -187500.02, -187500.02, -187500.02, -187500.02, -187500.02, -187500.02, -187500.02, -154991.64, 0.000, 0.000, 0.000, 16:14:51.279, 1578579291279
179, -187500.02, -187500.02, -187500.02, -187500.02, -187500.02, -187500.02, -187500.02, -187500.02, -0.002, -0.024, 0.980, 16:14:51.279, 1578579291279
180, -187500.02, -187500.02, -187500.02, -187500.02, -187500.02, -187500.02, -187500.02, -154981.63, 0.000, 0.000, 0.000, 16:14:51.279, 1578579291279
181, -187500.02, -187500.02, -187500.02, -187500.02, -187500.02, -187500.02, -187500.02, -187500.02, 0.000, 0.000, 0.000, 16:14:51.279, 1578579291279
182, -187500.02, -187500.02, -187500.02, -187500.02, -187500.02, -187500.02, -187500.02, -154972.59, 0.000, 0.000, 0.000, 16:14:51.279, 1578579291279
183, -187500.02, -187500.02, -187500.02, -187500.02, -187500.02, -187500.02, -187500.02, -187500.02, 0.000, 0.000, 0.000, 16:14:51.280, 1578579291280
184, -187500.02, -187500.02, -187500.02, -187500.02, -187500.02, -187500.02, -187500.02, -154963.00, 0.000, 0.000, 0.000, 16:14:51.280, 1578579291280
185, -187500.02, -187500.02, -187500.02, -187500.02, -187500.02, -187500.02, -187500.02, -187500.02, 0.000, 0.000, 0.000, 16:14:51.280, 1578579291280
186, -187500.02, -187500.02, -187500.02, -187500.02, -187500.02, -187500.02, -187500.02, -154953.42, 0.000, 0.000, 0.000, 16:14:51.280, 1578579291280
187, -187500.02, -187500.02, -187500.02, -187500.02, -187500.02, -187500.02, -187500.02, -187500.02, 0.000, 0.000, 0.000, 16:14:51.280, 1578579291280
188, -187500.02, -187500.02, -187500.02, -187500.02, -187500.02, -187500.02, -187500.02, -154942.95, 0.000, 0.000, 0.000, 16:14:51.280, 1578579291280
189, -187500.02, -187500.02, -187500.02, -187500.02, -187500.02, -187500.02, -187500.02, -187500.02, -0.006, -0.024, 0.982, 16:14:51.280, 1578579291280
190, -187500.02, -187500.02, -187500.02, -187500.02, -187500.02, -187500.02, -187500.02, -154933.59, 0.000, 0.000, 0.000, 16:14:51.280, 1578579291280
191, -187500.02, -187500.02, -187500.02, -187500.02, -187500.02, -187500.02, -187500.02, -187500.02, 0.000, 0.000, 0.000, 16:14:51.280, 1578579291280
192, -187500.02, -187500.02, -187500.02, -187500.02, -187500.02, -187500.02, -187500.02, -154923.00, 0.000, 0.000, 0.000, 16:14:51.280, 1578579291280
193, -187500.02, -187500.02, -187500.02, -187500.02, -187500.02, -187500.02, -187500.02, -187500.02, 0.000, 0.000, 0.000, 16:14:51.280, 1578579291280
194, -187500.02, -187500.02, -187500.02, -187500.02, -187500.02, -187500.02, -187500.02, -154915.47, 0.000, 0.000, 0.000, 16:14:51.280, 1578579291280
195, -187500.02, -187500.02, -187500.02, -187500.02, -187500.02, -187500.02, -187500.02, -187500.02, 0.000, 0.000, 0.000, 16:14:51.280, 1578579291280
196, -187500.02, -187500.02, -187500.02, -187500.02, -187500.02, -187500.02, -187500.02, -154904.11, 0.000, 0.000, 0.000, 16:14:51.280, 1578579291280
197, -187500.02, -187500.02, -187500.02, -187500.02, -187500.02, -187500.02, -187500.02, -187500.02, 0.000, 0.000, 0.000, 16:14:51.280, 1578579291280
198, -187500.02, -187500.02, -187500.02, -187500.02, -187500.02, -187500.02, -187500.02, -154891.75, -0.010, -0.024, 0.978, 16:14:51.280, 1578579291280
199, -187500.02, -187500.02, -187500.02, -187500.02, -187500.02, -187500.02, -187500.02, -187500.02, 0.000, 0.000, 0.000, 16:14:51.280, 1578579291280
200, -187500.02, -187500.02, -187500.02, -187500.02, -187500.02, -187500.02, -187500.02, -154884.75, 0.000, 0.000, 0.000, 16:14:51.280, 1578579291280
201, -187500.02, -187500.02, -187500.02, -187500.02, -187500.02, -187500.02, -187500.02, -187500.02, 0.000, 0.000, 0.000, 16:14:51.280, 1578579291280
202, -187500.02, -187500.02, -187500.02, -187500.02, -187500.02, -187500.02, -187500.02, -154873.20, 0.000, 0.000, 0.000, 16:14:51.281, 1578579291281
203, -187500.02, -187500.02, -187500.02, -187500.02, -187500.02, -187500.02, -187500.02, -187500.02, 0.000, 0.000, 0.000, 16:14:51.281, 1578579291281
204, -187500.02, -187500.02, -187500.02, -187500.02, -187500.02, -187500.02, -187500.02, -154862.45, 0.000, 0.000, 0.000, 16:14:51.281, 1578579291281
205, -187500.02, -187500.02, -187500.02, -187500.02, -187500.02, -187500.02, -187500.02, -187500.02, 0.000, 0.000, 0.000, 16:14:51.281, 1578579291281
206, -187500.02, -187500.02, -187500.02, -187500.02, -187500.02, -187500.02, -187500.02, -154854.95, 0.000, 0.000, 0.000, 16:14:51.281, 1578579291281
207, -187500.02, -187500.02, -187500.02, -187500.02, -187500.02, -187500.02, -187500.02, -187500.02, 0.000, 0.000, 0.000, 16:14:51.281, 1578579291281
208, -187500.02, -187500.02, -187500.02, -187500.02, -187500.02, -187500.02, -187500.02, -154845.03, -0.010, -0.022, 0.974, 16:14:51.281, 1578579291281
209, -187500.02, -187500.02, -187500.02, -187500.02, -187500.02, -187500.02, -187500.02, -187500.02, 0.000, 0.000, 0.000, 16:14:51.281, 1578579291281
210, -187500.02, -187500.02, -187500.02, -187500.02, -187500.02, -187500.02, -187500.02, -154837.23, 0.000, 0.000, 0.000, 16:14:51.281, 1578579291281
211, -187500.02, -187500.02, -187500.02, -187500.02, -187500.02, -187500.02, -187500.02, -187500.02, 0.000, 0.000, 0.000, 16:14:51.281, 1578579291281
212, -187500.02, -187500.02, -187500.02, -187500.02, -187500.02, -187500.02, -187500.02, -154826.03, 0.000, 0.000, 0.000, 16:14:51.757, 1578579291757
213, -187500.02, -187500.02, -187500.02, -187500.02, -187500.02, -187500.02, -187500.02, -187500.02, 0.000, 0.000, 0.000, 16:14:51.757, 1578579291757
214, -187500.02, -187500.02, -187500.02, -187500.02, -187500.02, -187500.02, -187500.02, -154817.13, 0.000, 0.000, 0.000, 16:14:51.757, 1578579291757
215, -187500.02, -187500.02, -187500.02, -187500.02, -187500.02, -187500.02, -187500.02, -187500.02, 0.000, 0.000, 0.000, 16:14:51.757, 1578579291757
216, -187500.02, -187500.02, -187500.02, -187500.02, -187500.02, -187500.02, -187500.02, -154809.05, 0.000, 0.000, 0.000, 16:14:51.757, 1578579291757
217, -187500.02, -187500.02, -187500.02, -187500.02, -187500.02, -187500.02, -187500.02, -187500.02, 0.000, 0.000, 0.000, 16:14:51.757, 1578579291757
218, -187500.02, -187500.02, -187500.02, -187500.02, -187500.02, -187500.02, -187500.02, -154798.23, -0.004, -0.020, 0.982, 16:14:51.758, 1578579291758
219, -187500.02, -187500.02, -187500.02, -187500.02, -187500.02, -187500.02, -187500.02, -187500.02, 0.000, 0.000, 0.000, 16:14:51.758, 1578579291758
220, -187500.02, -187500.02, -187500.02, -187500.02, -187500.02, -187500.02, -187500.02, -154792.31, 0.000, 0.000, 0.000, 16:14:51.758, 1578579291758
221, -187500.02, -187500.02, -187500.02, -187500.02, -187500.02, -187500.02, -187500.02, -187500.02, 0.000, 0.000, 0.000, 16:14:51.758, 1578579291758
222, -187500.02, -187500.02, -187500.02, -187500.02, -187500.02, -187500.02, -187500.02, -154782.38, 0.000, 0.000, 0.000, 16:14:51.758, 1578579291758
223, -187500.02, -187500.02, -187500.02, -187500.02, -187500.02, -187500.02, -187500.02, -187500.02, 0.000, 0.000, 0.000, 16:14:51.758, 1578579291758
224, -187500.02, -187500.02, -187500.02, -187500.02, -187500.02, -187500.02, -187500.02, -154773.20, 0.000, 0.000, 0.000, 16:14:51.758, 1578579291758
225, -187500.02, -187500.02, -187500.02, -187500.02, -187500.02, -187500.02, -187500.02, -187500.02, 0.000, 0.000, 0.000, 16:14:51.758, 1578579291758
226, -187500.02, -187500.02, -187500.02, -187500.02, -187500.02, -187500.02, -187500.02, -154764.08, 0.000, 0.000, 0.000, 16:14:51.759, 1578579291759
227, -187500.02, -187500.02, -187500.02, -187500.02, -187500.02, -187500.02, -187500.02, -187500.02, 0.000, 0.000, 0.000, 16:14:51.759, 1578579291759
228, -187500.02, -187500.02, -187500.02, -187500.02, -187500.02, -187500.02, -187500.02, -154752.70, -0.004, -0.024, 0.974, 16:14:51.759, 1578579291759
229, -187500.02, -187500.02, -187500.02, -187500.02, -187500.02, -187500.02, -187500.02, -187500.02, 0.000, 0.000, 0.000, 16:14:51.759, 1578579291759
230, -187500.02, -187500.02, -187500.02, -187500.02, -187500.02, -187500.02, -187500.02, -154742.75, 0.000, 0.000, 0.000, 16:14:51.759, 1578579291759
231, -187500.02, -187500.02, -187500.02, -187500.02, -187500.02, -187500.02, -187500.02, -187500.02, 0.000, 0.000, 0.000, 16:14:51.759, 1578579291759
232, -187500.02, -187500.02, -187500.02, -187500.02, -187500.02, -187500.02, -187500.02, -154735.72, 0.000, 0.000, 0.000, 16:14:51.759, 1578579291759
233, -187500.02, -187500.02, -187500.02, -187500.02, -187500.02, -187500.02, -187500.02, -187500.02, 0.000, 0.000, 0.000, 16:14:51.759, 1578579291759
234, -187500.02, -187500.02, -187500.02, -187500.02, -187500.02, -187500.02, -187500.02, -154725.52, 0.000, 0.000, 0.000, 16:14:51.759, 1578579291759
235, -187500.02, -187500.02, -187500.02, -187500.02, -187500.02, -187500.02, -187500.02, -187500.02, 0.000, 0.000, 0.000, 16:14:51.759, 1578579291759
236, -187500.02, -187500.02, -187500.02, -187500.02, -187500.02, -187500.02, -187500.02, -154716.44, 0.000, 0.000, 0.000, 16:14:51.759, 1578579291759
237, -187500.02, -187500.02, -187500.02, -187500.02, -187500.02, -187500.02, -187500.02, -187500.02, -0.004, -0.020, 0.980, 16:14:51.759, 1578579291759
238, -187500.02, -187500.02, -187500.02, -187500.02, -187500.02, -187500.02, -187500.02, -154705.25, 0.000, 0.000, 0.000, 16:14:51.759, 1578579291759
239, -187500.02, -187500.02, -187500.02, -187500.02, -187500.02, -187500.02, -187500.02, -187500.02, 0.000, 0.000, 0.000, 16:14:51.759, 1578579291759
240, -187500.02, -187500.02, -187500.02, -187500.02, -187500.02, -187500.02, -187500.02, -154695.64, 0.000, 0.000, 0.000, 16:14:51.759, 1578579291759
241, -187500.02, -187500.02, -187500.02, -187500.02, -187500.02, -187500.02, -187500.02, -187500.02, 0.000, 0.000, 0.000, 16:14:51.759, 1578579291759
242, -187500.02, -187500.02, -187500.02, -187500.02, -187500.02, -187500.02, -187500.02, -154688.66, 0.000, 0.000, 0.000, 16:14:51.760, 1578579291760
243, -187500.02, -187500.02, -187500.02, -187500.02, -187500.02, -187500.02, -187500.02, -187500.02, 0.000, 0.000, 0.000, 16:14:51.760, 1578579291760
244, -187500.02, -187500.02, -187500.02, -187500.02, -187500.02, -187500.02, -187500.02, -154677.78, 0.000, 0.000, 0.000, 16:14:51.760, 1578579291760
245, -187500.02, -187500.02, -187500.02, -187500.02, -187500.02, -187500.02, -187500.02, -187500.02, 0.000, 0.000, 0.000, 16:14:51.760, 1578579291760
246, -187500.02, -187500.02, -187500.02, -187500.02, -187500.02, -187500.02, -187500.02, -154666.84, 0.000, 0.000, 0.000, 16:14:51.760, 1578579291760
247, -187500.02, -187500.02, -187500.02, -187500.02, -187500.02, -187500.02, -187500.02, -187500.02, -0.008, -0.022, 0.974, 16:14:51.760, 1578579291760
248, -187500.02, -187500.02, -187500.02, -187500.02, -187500.02, -187500.02, -187500.02, -154659.41, 0.000, 0.000, 0.000, 16:14:51.760, 1578579291760
249, -187500.02, -187500.02, -187500.02, -187500.02, -187500.02, -187500.02, -187500.02, -187500.02, 0.000, 0.000, 0.000, 16:14:51.760, 1578579291760
250, -187500.02, -187500.02, -187500.02, -187500.02, -187500.02, -187500.02, -187500.02, -154652.98, 0.000, 0.000, 0.000, 16:14:51.760, 1578579291760
251, -187500.02, -187500.02, -187500.02, -187500.02, -187500.02, -187500.02, -187500.02, -187500.02, 0.000, 0.000, 0.000, 16:14:51.760, 1578579291760
252, -187500.02, -187500.02, -187500.02, -187500.02, -187500.02, -187500.02, -187500.02, -154642.08, 0.000, 0.000, 0.000, 16:14:51.760, 1578579291760
253, -187500.02, -187500.02, -187500.02, -187500.02, -187500.02, -187500.02, -187500.02, -187500.02, 0.000, 0.000, 0.000, 16:14:51.760, 1578579291760
254, -187500.02, -187500.02, -187500.02, -187500.02, -187500.02, -187500.02, -187500.02, -154632.52, 0.000, 0.000, 0.000, 16:14:51.760, 1578579291760
255, -187500.02, -187500.02, -187500.02, -187500.02, -187500.02, -187500.02, -187500.02, -187500.02, 0.000, 0.000, 0.000, 16:14:51.760, 1578579291760
0, -187500.02, -187500.02, -187500.02, -187500.02, -187500.02, -187500.02, -187500.02, -154624.25, 0.000, 0.000, 0.000, 16:14:51.760, 1578579291760
1, -187500.02, -187500.02, -187500.02, -187500.02, -187500.02, -187500.02, -187500.02, -187500.02, -0.006, -0.022, 0.978, 16:14:51.760, 1578579291760
2, -187500.02, -187500.02, -187500.02, -187500.02, -187500.02, -187500.02, -187500.02, -154616.05, 0.000, 0.000, 0.000, 16:14:51.760, 1578579291760
3, -187500.02, -187500.02, -187500.02, -187500.02, -187500.02, -187500.02, -187500.02, -187500.02, 0.000, 0.000, 0.000, 16:14:51.761, 1578579291761
4, -187500.02, -187500.02, -187500.02, -187500.02, -187500.02, -187500.02, -187500.02, -154605.02, 0.000, 0.000, 0.000, 16:14:51.761, 1578579291761
5, -187500.02, -187500.02, -187500.02, -187500.02, -187500.02, -187500.02, -187500.02, -187500.02, 0.000, 0.000, 0.000, 16:14:51.761, 1578579291761
6, -187500.02, -187500.02, -187500.02, -187500.02, -187500.02, -187500.02, -187500.02, -154596.44, 0.000, 0.000, 0.000, 16:14:51.761, 1578579291761
7, -187500.02, -187500.02, -187500.02, -187500.02, -187500.02, -187500.02, -187500.02, -187500.02, 0.000, 0.000, 0.000, 16:14:51.761, 1578579291761
8, -187500.02, -187500.02, -187500.02, -187500.02, -187500.02, -187500.02, -187500.02, -154587.41, 0.000, 0.000, 0.000, 16:14:51.761, 1578579291761
9, -187500.02, -187500.02, -187500.02, -187500.02, -187500.02, -187500.02, -187500.02, -187500.02, 0.000, 0.000, 0.000, 16:14:51.761, 1578579291761
10, -187500.02, -187500.02, -187500.02, -187500.02, -187500.02, -187500.02, -187500.02, -154577.03, 0.000, 0.000, 0.000, 16:14:51.761, 1578579291761
11, -187500.02, -187500.02, -187500.02, -187500.02, -187500.02, -187500.02, -187500.02, -187500.02, -0.006, -0.026, 0.976, 16:14:51.761, 1578579291761
12, -187500.02, -187500.02, -187500.02, -187500.02, -187500.02, -187500.02, -187500.02, -154568.77, 0.000, 0.000, 0.000, 16:14:51.761, 1578579291761
13, -187500.02, -187500.02, -187500.02, -187500.02, -187500.02, -187500.02, -187500.02, -187500.02, 0.000, 0.000, 0.000, 16:14:51.761, 1578579291761
14, -187500.02, -187500.02, -187500.02, -187500.02, -187500.02, -187500.02, -187500.02, -154556.70, 0.000, 0.000, 0.000, 16:14:51.761, 1578579291761
15, -187500.02, -187500.02, -187500.02, -187500.02, -187500.02, -187500.02, -187500.02, -187500.02, 0.000, 0.000, 0.000, 16:14:51.761, 1578579291761
16, -187500.02, -187500.02, -187500.02, -187500.02, -187500.02, -187500.02, -187500.02, -154547.63, 0.000, 0.000, 0.000, 16:14:51.761, 1578579291761
17, -187500.02, -187500.02, -187500.02, -187500.02, -187500.02, -187500.02, -187500.02, -187500.02, 0.000, 0.000, 0.000, 16:14:51.761, 1578579291761
18, -187500.02, -187500.02, -187500.02, -187500.02, -187500.02, -187500.02, -187500.02, -154538.86, 0.000, 0.000, 0.000, 16:14:51.761, 1578579291761
19, -187500.02, -187500.02, -187500.02, -187500.02, -187500.02, -187500.02, -187500.02, -187500.02, 0.000, 0.000, 0.000, 16:14:51.761, 1578579291761
20, -187500.02, -187500.02, -187500.02, -187500.02, -187500.02, -187500.02, -187500.02, -154526.56, -0.006, -0.022, 0.972, 16:14:51.761, 1578579291761
21, -187500.02, -187500.02, -187500.02, -187500.02, -187500.02, -187500.02, -187500.02, -187500.02, 0.000, 0.000, 0.000, 16:14:51.761, 1578579291761
22, -187500.02, -187500.02, -187500.02, -187500.02, -187500.02, -187500.02, -187500.02, -154518.47, 0.000, 0.000, 0.000, 16:14:51.761, 1578579291761
23, -187500.02, -187500.02, -187500.02, -187500.02, -187500.02, -187500.02, -187500.02, -187500.02, 0.000, 0.000, 0.000, 16:14:51.762, 1578579291762
24, -187500.02, -187500.02, -187500.02, -187500.02, -187500.02, -187500.02, -187500.02, -154509.25, 0.000, 0.000, 0.000, 16:14:51.762, 1578579291762
25, -187500.02, -187500.02, -187500.02, -187500.02, -187500.02, -187500.02, -187500.02, -187500.02, 0.000, 0.000, 0.000, 16:14:51.762, 1578579291762
26, -187500.02, -187500.02, -187500.02, -187500.02, -187500.02, -187500.02, -187500.02, -154498.58, 0.000, 0.000, 0.000, 16:14:51.762, 1578579291762
27, -187500.02, -187500.02, -187500.02, -187500.02, -187500.02, -187500.02, -187500.02, -187500.02, 0.000, 0.000, 0.000, 16:14:51.762, 1578579291762
28, -187500.02, -187500.02, -187500.02, -187500.02, -187500.02, -187500.02, -187500.02, -154488.61, 0.000, 0.000, 0.000, 16:14:51.762, 1578579291762
29, -187500.02, -187500.02, -187500.02, -187500.02, -187500.02, -187500.02, -187500.02, -187500.02, 0.000, 0.000, 0.000, 16:14:51.762, 1578579291762
30, -187500.02, -187500.02, -187500.02, -187500.02, -187500.02, -187500.02, -187500.02, -154478.31, -0.006, -0.014, 0.972, 16:14:51.762, 1578579291762
31, -187500.02, -187500.02, -187500.02, -187500.02, -187500.02, -187500.02, -187500.02, -187500.02, 0.000, 0.000, 0.000, 16:14:51.762, 1578579291762
