%OpenBCI Raw EEG Data
%Number of channels = 8
%Sample Rate = 250.0 Hz
%First Column = SampleIndex
%Last Column = Timestamp 
%Other Columns = EEG data in microvolts followed by Accel Data (in G) interleaved with Aux Data
0, -88775.13, -88770.73, -88857.95, -88861.23, -88844.05, -88821.18, -88890.07, 93749.98, 0.098, 0.186, 0.928, 16:13:35.980, 1578579215980
1, -184702.53, -182305.92, -187500.02, 151358.63, -187500.02, 151392.66, -187500.02, -187500.02, 0.000, 0.000, 0.000, 16:13:35.980, 1578579215980
2, -177559.56, -177550.81, -177725.20, -177731.67, -177697.44, -177651.70, -177789.48, 187500.00, 0.000, 0.000, 0.000, 16:13:35.980, 1578579215980
3, -184696.86, -182299.75, -187500.02, 151343.02, -187500.02, 151376.95, -187500.02, -187500.02, 0.000, 0.000, 0.000, 16:13:35.980, 1578579215980
4, -177569.42, -177560.67, -177735.02, -177741.36, -177707.31, -177661.52, -177799.25, 187500.00, 0.000, 0.000, 0.000, 16:13:35.980, 1578579215980
5, -184686.67, -182289.00, -187500.02, 151323.97, -187500.02, 151357.98, -187500.02, -187500.02, 0.000, 0.000, 0.000, 16:13:35.980, 1578579215980
6, -177581.83, -177572.95, -177747.30, -177753.73, -177719.67, -177673.92, -177811.56, 187500.00, 0.064, 0.120, 0.944, 16:13:35.980, 1578579215980
7, -184681.95, -182283.66, -187500.02, 151310.52, -187500.02, 151344.55, -187500.02, -187500.02, 0.000, 0.000, 0.000, 16:13:35.980, 1578579215980
8, -177591.47, -177582.70, -177756.78, -177763.27, -177729.22, -177683.52, -177821.23, 187500.00, 0.000, 0.000, 0.000, 16:13:35.980, 1578579215980
9, -184671.98, -182273.34, -187500.02, 151291.08, -187500.02, 151325.16, -187500.02, -187500.02, 0.000, 0.000, 0.000, 16:13:35.980, 1578579215980
10, -177604.05, -177595.31, -177769.41, -177775.94, -177741.88, -177696.16, -177833.84, 187500.00, 0.000, 0.000, 0.000, 16:13:35.981, 1578579215981
11, -184665.09, -182266.00, -187500.02, 151276.28, -187500.02, 151310.39, -187500.02, -187500.02, 0.000, 0.000, 0.000, 16:13:35.981, 1578579215981
12, -177615.30, -177606.42, -177780.45, -177786.91, -177752.98, -177707.30, -177844.98, 187500.00, 0.000, 0.000, 0.000, 16:13:35.981, 1578579215981
13, -184660.78, -182261.14, -187500.02, 151261.95, -187500.02, 151296.00, -187500.02, -187500.02, 0.000, 0.000, 0.000, 16:13:35.981, 1578579215981
14, -177627.94, -177619.16, -177793.13, -177799.56, -177765.83, -177719.98, -177857.66, 187500.00, 0.000, 0.000, 0.000, 16:13:35.981, 1578579215981
15, -184654.86, -182254.78, -187500.02, 151247.19, -187500.02, 151281.31, -187500.02, -187500.02, 0.000, 0.000, 0.000, 16:13:35.981, 1578579215981
16, -177639.34, -177630.61, -177804.61, -177811.08, -177777.25, -177731.39, -177869.08, 187500.00, 0.036, 0.086, 0.962, 16:13:35.981, 1578579215981
17, -184651.23, -182250.63, -187500.02, 151234.64, -187500.02, 151268.75, -187500.02, -187500.02, 0.000, 0.000, 0.000, 16:13:35.981, 1578579215981
18, -177650.72, -177641.91, -177815.92, -177822.36, -177788.52, -177742.73, -177880.50, 187500.00, 0.000, 0.000, 0.000, 16:13:35.981, 1578579215981
19, -184645.50, -182244.36, -187500.02, 151218.63, -187500.02, 151252.73, -187500.02, -187500.02, 0.000, 0.000, 0.000, 16:13:35.981, 1578579215981
20, -177662.44, -177653.63, -177827.50, -177833.88, -177800.20, -177754.45, -177892.19, 187500.00, 0.000, 0.000, 0.000, 16:13:35.981, 1578579215981
21, -184636.53, -182234.84, -187500.02, 151201.03, -187500.02, 151235.03, -187500.02, -187500.02, 0.000, 0.000, 0.000, 16:13:35.981, 1578579215981
22, -177675.53, -177666.75, -177840.52, -177846.88, -177813.23, -177767.53, -177905.17, 187500.00, 0.000, 0.000, 0.000, 16:13:35.981, 1578579215981
23, -184627.30, -182224.94, -187500.02, 151181.31, -187500.02, 151215.33, -187500.02, -187500.02, 0.000, 0.000, 0.000, 16:13:35.981, 1578579215981
24, -177686.84, -177678.09, -177851.80, -177858.28, -177824.66, -177778.92, -177916.59, 187500.00, 0.000, 0.000, 0.000, 16:13:35.981, 1578579215981
25, -184623.06, -182220.09, -187500.02, 151167.80, -187500.02, 151201.91, -187500.02, -187500.02, 0.000, 0.000, 0.000, 16:13:35.981, 1578579215981
26, -177699.33, -177690.59, -177864.22, -177870.64, -177837.09, -177791.38, -177928.98, 187500.00, 0.026, 0.070, 0.966, 16:13:35.981, 1578579215981
27, -184616.75, -182213.45, -187500.02, 151152.33, -187500.02, 151186.41, -187500.02, -187500.02, 0.000, 0.000, 0.000, 16:13:35.981, 1578579215981
28, -177709.48, -177700.63, -177874.23, -177880.70, -177847.14, -177801.45, -177939.03, 187500.00, 0.000, 0.000, 0.000, 16:13:35.982, 1578579215982
29, -184615.92, -182211.86, -187500.02, 151140.84, -187500.02, 151174.81, -187500.02, -187500.02, 0.000, 0.000, 0.000, 16:13:35.982, 1578579215982
30, -177722.02, -177713.28, -177886.73, -177893.23, -177859.73, -177813.98, -177951.59, 187500.00, 0.000, 0.000, 0.000, 16:13:35.982, 1578579215982
31, -184610.61, -182206.05, -187500.02, 151127.00, -187500.02, 151160.94, -187500.02, -187500.02, 0.000, 0.000, 0.000, 16:13:35.982, 1578579215982
32, -177734.25, -177725.55, -177898.91, -177905.42, -177872.03, -177826.30, -177963.88, 187500.00, 0.000, 0.000, 0.000, 16:13:35.982, 1578579215982
33, -184599.50, -182194.27, -187500.02, 151105.47, -187500.02, 151139.52, -187500.02, -187500.02, 0.000, 0.000, 0.000, 16:13:35.982, 1578579215982
34, -177745.56, -177736.89, -177910.16, -177916.66, -177883.33, -177837.56, -177975.05, 187500.00, 0.000, 0.000, 0.000, 16:13:35.982, 1578579215982
35, -184595.11, -182189.28, -187500.02, 151091.75, -187500.02, 151125.70, -187500.02, -187500.02, 0.000, 0.000, 0.000, 16:13:35.982, 1578579215982
36, -177755.13, -177746.47, -177919.59, -177926.11, -177892.83, -177847.08, -177984.66, 187500.00, 0.018, 0.064, 0.970, 16:13:35.982, 1578579215982
37, -184588.09, -182181.59, -187500.02, 151075.09, -187500.02, 151109.08, -187500.02, -187500.02, 0.000, 0.000, 0.000, 16:13:35.982, 1578579215982
38, -177767.98, -177759.28, -177932.36, -177938.88, -177905.66, -177860.05, -177997.34, 187500.00, 0.000, 0.000, 0.000, 16:13:35.982, 1578579215982
39, -184581.91, -182174.73, -187500.02, 151058.16, -187500.02, 151092.13, -187500.02, -187500.02, 0.000, 0.000, 0.000, 16:13:35.982, 1578579215982
40, -177777.98, -177769.30, -177942.33, -177948.73, -177915.66, -177870.02, -178007.41, 187500.00, 0.000, 0.000, 0.000, 16:13:35.982, 1578579215982
41, -184576.14, -182168.39, -187500.02, 151043.47, -187500.02, 151077.33, -187500.02, -187500.02, 0.000, 0.000, 0.000, 16:13:35.982, 1578579215982
42, -177792.56, -177783.91, -177956.78, -177963.36, -177930.27, -177884.61, -178022.05, 187500.00, 0.000, 0.000, 0.000, 16:13:35.982, 1578579215982
43, -184569.09, -182160.63, -187500.02, 151025.23, -187500.02, 151059.20, -187500.02, -187500.02, 0.000, 0.000, 0.000, 16:13:35.982, 1578579215982
44, -177804.50, -177795.89, -177968.83, -177975.25, -177942.23, -177896.52, -178033.98, 187500.00, 0.000, 0.000, 0.000, 16:13:35.982, 1578579215982
45, -184565.48, -182156.34, -187500.02, 151011.44, -187500.02, 151045.23, -187500.02, -187500.02, 0.016, 0.056, 0.966, 16:13:35.983, 1578579215983
46, -177817.08, -177808.34, -177981.28, -177987.69, -177954.72, -177909.08, -178046.39, 187500.00, 0.000, 0.000, 0.000, 16:13:35.983, 1578579215983
47, -184561.45, -182151.67, -187500.02, 150997.34, -187500.02, 151031.27, -187500.02, -187500.02, 0.000, 0.000, 0.000, 16:13:35.983, 1578579215983
48, -177826.72, -177818.09, -177990.83, -177997.22, -177964.34, -177918.73, -178056.06, 187500.00, 0.000, 0.000, 0.000, 16:13:35.983, 1578579215983
49, -184556.14, -182145.72, -187500.02, 150980.94, -187500.02, 151014.84, -187500.02, -187500.02, 0.000, 0.000, 0.000, 16:13:35.983, 1578579215983
50, -177840.59, -177831.91, -178004.55, -178011.03, -177978.27, -177932.53, -178069.88, 187500.00, 0.000, 0.000, 0.000, 16:13:35.983, 1578579215983
51, -184550.30, -182139.16, -187500.02, 150965.44, -187500.02, 150999.42, -187500.02, -187500.02, 0.000, 0.000, 0.000, 16:13:35.983, 1578579215983
52, -177854.72, -177846.16, -178018.70, -178025.17, -177992.45, -177946.77, -178084.08, 187500.00, 0.000, 0.000, 0.000, 16:13:35.983, 1578579215983
53, -184544.75, -182132.98, -187500.02, 150948.52, -187500.02, 150982.41, -187500.02, -187500.02, 0.000, 0.000, 0.000, 16:13:35.983, 1578579215983
54, -177866.48, -177857.83, -178030.34, -178036.83, -178004.23, -177958.45, -178095.72, 187500.00, 0.000, 0.000, 0.000, 16:13:35.983, 1578579215983
55, -184542.64, -182130.33, -187500.02, 150936.00, -187500.02, 150970.00, -187500.02, -187500.02, 0.020, 0.050, 0.970, 16:13:35.983, 1578579215983
56, -177876.05, -177867.33, -178039.80, -178046.33, -178013.67, -177967.98, -178105.28, 187500.00, 0.000, 0.000, 0.000, 16:13:35.983, 1578579215983
57, -184534.47, -182121.50, -187500.02, 150917.98, -187500.02, 150951.86, -187500.02, -187500.02, 0.000, 0.000, 0.000, 16:13:35.983, 1578579215983
58, -177887.48, -177878.81, -178051.16, -178057.70, -178025.16, -177979.36, -178116.69, 187500.00, 0.000, 0.000, 0.000, 16:13:35.983, 1578579215983
59, -184527.28, -182113.77, -187500.02, 150899.45, -187500.02, 150933.38, -187500.02, -187500.02, 0.000, 0.000, 0.000, 16:13:35.983, 1578579215983
60, -177899.22, -177890.53, -178062.81, -178069.34, -178036.80, -177991.16, -178128.38, 187500.00, 0.000, 0.000, 0.000, 16:13:35.983, 1578579215983
61, -184523.56, -182109.38, -187500.02, 150886.25, -187500.02, 150920.09, -187500.02, -187500.02, 0.000, 0.000, 0.000, 16:13:35.983, 1578579215983
62, -177909.73, -177901.00, -178073.30, -178079.69, -178047.33, -178001.63, -178138.91, 187500.00, 0.000, 0.000, 0.000, 16:13:35.984, 1578579215984
63, -184520.33, -182105.44, -187500.02, 150871.98, -187500.02, 150905.73, -187500.02, -187500.02, 0.000, 0.000, 0.000, 16:13:35.984, 1578579215984
64, -177922.34, -177913.64, -178085.73, -178092.25, -178059.91, -178014.16, -178151.47, 187500.00, 0.000, 0.000, 0.000, 16:13:35.984, 1578579215984
65, -184509.16, -182093.75, -187500.02, 150851.16, -187500.02, 150884.94, -187500.02, -187500.02, 0.016, 0.050, 0.968, 16:13:35.984, 1578579215984
66, -177936.69, -177928.02, -178100.06, -178106.58, -178074.31, -178028.58, -178165.80, 187500.00, 0.000, 0.000, 0.000, 16:13:35.984, 1578579215984
67, -184503.16, -182087.20, -187500.02, 150835.42, -187500.02, 150869.23, -187500.02, -187500.02, 0.000, 0.000, 0.000, 16:13:35.984, 1578579215984
68, -177947.06, -177938.47, -178110.42, -178116.94, -178084.67, -178038.97, -178176.17, 187500.00, 0.000, 0.000, 0.000, 16:13:35.984, 1578579215984
69, -184497.38, -182080.86, -187500.02, 150818.84, -187500.02, 150852.70, -187500.02, -187500.02, 0.000, 0.000, 0.000, 16:13:35.984, 1578579215984
70, -177958.92, -177950.30, -178122.19, -178128.69, -178096.59, -178050.80, -178187.98, 187500.00, 0.000, 0.000, 0.000, 16:13:35.984, 1578579215984
71, -184489.28, -182072.19, -187500.02, 150801.81, -187500.02, 150835.73, -187500.02, -187500.02, 0.000, 0.000, 0.000, 16:13:35.984, 1578579215984
72, -177970.23, -177961.63, -178133.41, -178139.91, -178107.92, -178062.14, -178199.23, 187500.00, 0.000, 0.000, 0.000, 16:13:35.985, 1578579215985
73, -184483.20, -182065.66, -187500.02, 150785.41, -187500.02, 150819.23, -187500.02, -187500.02, 0.000, 0.000, 0.000, 16:13:35.985, 1578579215985
74, -177981.03, -177972.41, -178144.14, -178150.66, -178118.63, -178072.94, -178209.88, 187500.00, 0.000, 0.000, 0.000, 16:13:35.985, 1578579215985
75, -184477.48, -182059.38, -187500.02, 150770.09, -187500.02, 150804.00, -187500.02, -187500.02, 0.014, 0.056, 0.972, 16:13:35.985, 1578579215985
76, -177993.22, -177984.50, -178156.19, -178162.70, -178130.72, -178085.08, -178221.94, 187500.00, 0.000, 0.000, 0.000, 16:13:35.985, 1578579215985
77, -184472.38, -182053.56, -187500.02, 150755.31, -187500.02, 150789.25, -187500.02, -187500.02, 0.000, 0.000, 0.000, 16:13:35.985, 1578579215985
78, -178004.13, -177995.52, -178167.02, -178173.69, -178141.70, -178095.97, -178232.98, 187500.00, 0.000, 0.000, 0.000, 16:13:35.985, 1578579215985
79, -184464.31, -182045.03, -187500.02, 150736.67, -187500.02, 150770.63, -187500.02, -187500.02, 0.000, 0.000, 0.000, 16:13:35.985, 1578579215985
80, -178017.52, -178008.92, -178180.48, -178187.05, -178155.06, -178109.38, -178246.39, 187500.00, 0.000, 0.000, 0.000, 16:13:35.985, 1578579215985
81, -184454.66, -182034.97, -187500.02, 150718.48, -187500.02, 150752.45, -187500.02, -187500.02, 0.000, 0.000, 0.000, 16:13:35.985, 1578579215985
82, -178027.56, -178019.02, -178190.41, -178197.06, -178165.14, -178119.34, -178256.41, 187500.00, 0.000, 0.000, 0.000, 16:13:35.985, 1578579215985
83, -184449.14, -182028.89, -187500.02, 150702.63, -187500.02, 150736.53, -187500.02, -187500.02, 0.000, 0.000, 0.000, 16:13:35.985, 1578579215985
84, -178040.95, -178032.39, -178203.66, -178210.31, -178178.58, -178132.80, -178269.80, 187500.00, 0.000, 0.000, 0.000, 16:13:35.985, 1578579215985
85, -184440.52, -182019.95, -187500.02, 150684.59, -187500.02, 150718.55, -187500.02, -187500.02, 0.012, 0.046, 0.968, 16:13:35.986, 1578579215986
86, -178054.91, -178046.28, -178217.58, -178224.16, -178192.45, -178146.73, -178283.66, 187500.00, 0.000, 0.000, 0.000, 16:13:35.986, 1578579215986
87, -184431.95, -182010.89, -187500.02, 150667.19, -187500.02, 150701.02, -187500.02, -187500.02, 0.000, 0.000, 0.000, 16:13:35.986, 1578579215986
88, -178063.69, -178055.11, -178226.33, -178232.89, -178201.33, -178155.59, -178292.48, 187500.00, 0.000, 0.000, 0.000, 16:13:35.986, 1578579215986
89, -184425.75, -182004.34, -187500.02, 150651.25, -187500.02, 150685.08, -187500.02, -187500.02, 0.000, 0.000, 0.000, 16:13:35.986, 1578579215986
90, -178075.97, -178067.27, -178238.38, -178244.98, -178213.47, -178167.72, -178304.64, 187500.00, 0.000, 0.000, 0.000, 16:13:35.986, 1578579215986
91, -184418.25, -181996.44, -187500.02, 150635.84, -187500.02, 150669.59, -187500.02, -187500.02, 0.000, 0.000, 0.000, 16:13:35.986, 1578579215986
92, -178088.09, -178079.42, -178250.44, -178257.03, -178225.58, -178179.83, -178316.88, 187500.00, 0.000, 0.000, 0.000, 16:13:35.986, 1578579215986
93, -184413.08, -181990.95, -187500.02, 150621.03, -187500.02, 150654.89, -187500.02, -187500.02, 0.000, 0.000, 0.000, 16:13:35.986, 1578579215986
94, -178100.64, -178091.97, -178263.03, -178269.48, -178238.22, -178192.45, -178329.45, 187500.00, 0.016, 0.050, 0.970, 16:13:35.986, 1578579215986
95, -184405.06, -181982.59, -187500.02, 150604.53, -187500.02, 150638.33, -187500.02, -187500.02, 0.000, 0.000, 0.000, 16:13:35.986, 1578579215986
96, -178113.63, -178105.06, -178275.98, -178282.53, -178251.16, -178205.61, -178342.33, 187500.00, 0.000, 0.000, 0.000, 16:13:35.986, 1578579215986
97, -184397.28, -181974.33, -187500.02, 150588.59, -187500.02, 150622.36, -187500.02, -187500.02, 0.000, 0.000, 0.000, 16:13:35.986, 1578579215986
98, -178124.67, -178116.03, -178286.94, -178293.48, -178262.20, -178216.52, -178353.38, 187500.00, 0.000, 0.000, 0.000, 16:13:35.986, 1578579215986
99, -184387.42, -181964.06, -187500.02, 150568.97, -187500.02, 150602.86, -187500.02, -187500.02, 0.000, 0.000, 0.000, 16:13:35.986, 1578579215986
100, -178135.97, -178127.30, -178298.09, -178304.67, -178273.39, -178227.75, -178364.52, 187500.00, 0.000, 0.000, 0.000, 16:13:35.986, 1578579215986
101, -184379.91, -181956.09, -187500.02, 150553.52, -187500.02, 150587.34, -187500.02, -187500.02, 0.000, 0.000, 0.000, 16:13:35.986, 1578579215986
102, -178148.11, -178139.48, -178310.19, -178316.83, -178285.58, -178239.89, -178376.66, 187500.00, 0.000, 0.000, 0.000, 16:13:35.986, 1578579215986
103, -184374.58, -181950.38, -187500.02, 150538.53, -187500.02, 150572.36, -187500.02, -187500.02, 0.000, 0.000, 0.000, 16:13:35.987, 1578579215987
104, -178162.95, -178154.28, -178325.03, -178331.53, -178300.44, -178254.83, -178391.48, 187500.00, 0.012, 0.050, 0.964, 16:13:35.987, 1578579215987
105, -184365.70, -181941.06, -187500.02, 150521.00, -187500.02, 150554.80, -187500.02, -187500.02, 0.000, 0.000, 0.000, 16:13:35.987, 1578579215987
106, -178175.81, -178167.20, -178337.75, -178344.36, -178313.30, -178267.72, -178404.33, 187500.00, 0.000, 0.000, 0.000, 16:13:35.987, 1578579215987
107, -184359.48, -181934.45, -187500.02, 150506.20, -187500.02, 150540.00, -187500.02, -187500.02, 0.000, 0.000, 0.000, 16:13:35.987, 1578579215987
108, -178189.78, -178181.27, -178351.69, -178358.33, -178327.36, -178281.70, -178418.39, 187500.00, 0.000, 0.000, 0.000, 16:13:35.987, 1578579215987
109, -184354.14, -181928.67, -187500.02, 150490.78, -187500.02, 150524.55, -187500.02, -187500.02, 0.000, 0.000, 0.000, 16:13:35.987, 1578579215987
110, -178201.59, -178193.05, -178363.45, -178370.11, -178339.05, -178293.42, -178430.19, 187500.00, 0.000, 0.000, 0.000, 16:13:35.987, 1578579215987
111, -184344.02, -181918.06, -187500.02, 150472.78, -187500.02, 150506.56, -187500.02, -187500.02, 0.000, 0.000, 0.000, 16:13:35.987, 1578579215987
112, -178212.33, -178203.75, -178374.11, -178380.69, -178349.80, -178304.17, -178440.88, 187500.00, 0.000, 0.000, 0.000, 16:13:35.987, 1578579215987
113, -184332.58, -181906.41, -187500.02, 150452.02, -187500.02, 150485.78, -187500.02, -187500.02, 0.000, 0.000, 0.000, 16:13:35.987, 1578579215987
114, -178226.14, -178217.47, -178387.81, -178394.34, -178363.55, -178317.86, -178454.69, 187500.00, 0.010, 0.046, 0.964, 16:13:35.987, 1578579215987
115, -184326.27, -181899.55, -187500.02, 150436.88, -187500.02, 150470.64, -187500.02, -187500.02, 0.000, 0.000, 0.000, 16:13:35.987, 1578579215987
116, -178238.61, -178229.97, -178400.20, -178406.80, -178376.02, -178330.33, -178467.13, 187500.00, 0.000, 0.000, 0.000, 16:13:35.987, 1578579215987
117, -184316.81, -181889.66, -187500.02, 150418.81, -187500.02, 150452.52, -187500.02, -187500.02, 0.000, 0.000, 0.000, 16:13:35.987, 1578579215987
118, -178251.63, -178242.86, -178412.98, -178419.58, -178388.86, -178343.16, -178479.97, 187500.00, 0.000, 0.000, 0.000, 16:13:35.987, 1578579215987
119, -184309.42, -181881.86, -187500.02, 150401.34, -187500.02, 150435.13, -187500.02, -187500.02, 0.000, 0.000, 0.000, 16:13:35.987, 1578579215987
120, -178262.98, -178254.27, -178424.30, -178431.00, -178400.31, -178354.58, -178491.39, 187500.00, 0.000, 0.000, 0.000, 16:13:36.458, 1578579216458
121, -184304.30, -181876.31, -187500.02, 150388.20, -187500.02, 150421.92, -187500.02, -187500.02, 0.000, 0.000, 0.000, 16:13:36.458, 1578579216458
122, -178275.11, -178266.44, -178436.45, -178443.11, -178412.38, -178366.64, -178503.55, 187500.00, 0.000, 0.000, 0.000, 16:13:36.458, 1578579216458
123, -184298.70, -181870.39, -187500.02, 150372.70, -187500.02, 150406.31, -187500.02, -187500.02, 0.000, 0.000, 0.000, 16:13:36.458, 1578579216458
124, -178288.17, -178279.41, -178449.39, -178456.14, -178425.56, -178379.61, -178516.66, 187500.00, 0.016, 0.050, 0.962, 16:13:36.458, 1578579216458
125, -184294.48, -181865.59, -187500.02, 150359.08, -187500.02, 150392.77, -187500.02, -187500.02, 0.000, 0.000, 0.000, 16:13:36.459, 1578579216459
126, -178301.56, -178292.75, -178462.83, -178469.52, -178438.84, -178392.97, -178530.00, 187500.00, 0.000, 0.000, 0.000, 16:13:36.459, 1578579216459
127, -184287.09, -181857.81, -187500.02, 150342.75, -187500.02, 150376.50, -187500.02, -187500.02, 0.000, 0.000, 0.000, 16:13:36.459, 1578579216459
128, -178314.83, -178306.13, -178476.02, -178482.63, -178452.19, -178406.34, -178543.27, 187500.00, 0.000, 0.000, 0.000, 16:13:36.459, 1578579216459
129, -184278.95, -181849.19, -187500.02, 150324.50, -187500.02, 150358.17, -187500.02, -187500.02, 0.000, 0.000, 0.000, 16:13:36.459, 1578579216459
130, -178325.45, -178316.75, -178486.58, -178493.27, -178462.84, -178416.88, -178553.91, 187500.00, 0.000, 0.000, 0.000, 16:13:36.459, 1578579216459
131, -184270.09, -181839.91, -187500.02, 150307.41, -187500.02, 150341.03, -187500.02, -187500.02, 0.000, 0.000, 0.000, 16:13:36.459, 1578579216459
132, -178336.42, -178327.59, -178497.50, -178504.16, -178473.69, -178427.59, -178564.80, 187500.00, 0.000, 0.000, 0.000, 16:13:36.459, 1578579216459
133, -184262.45, -181831.92, -187500.02, 150289.69, -187500.02, 150323.25, -187500.02, -187500.02, 0.010, 0.050, 0.968, 16:13:36.459, 1578579216459
134, -178350.31, -178341.41, -178511.28, -178517.91, -178487.50, -178441.50, -178578.70, 187500.00, 0.000, 0.000, 0.000, 16:13:36.459, 1578579216459
135, -184256.86, -181825.91, -187500.02, 150274.91, -187500.02, 150308.45, -187500.02, -187500.02, 0.000, 0.000, 0.000, 16:13:36.459, 1578579216459
136, -178363.45, -178354.53, -178524.34, -178530.97, -178500.56, -178454.52, -178591.80, 187500.00, 0.000, 0.000, 0.000, 16:13:36.459, 1578579216459
137, -184248.78, -181817.47, -187500.02, 150258.09, -187500.02, 150291.81, -187500.02, -187500.02, 0.000, 0.000, 0.000, 16:13:36.459, 1578579216459
138, -178375.67, -178366.80, -178536.61, -178543.27, -178512.84, -178466.80, -178604.09, 187500.00, 0.000, 0.000, 0.000, 16:13:36.459, 1578579216459
139, -184240.70, -181808.84, -187500.02, 150239.66, -187500.02, 150273.44, -187500.02, -187500.02, 0.000, 0.000, 0.000, 16:13:36.459, 1578579216459
140, -178388.59, -178379.72, -178549.59, -178556.23, -178525.80, -178479.83, -178617.09, 187500.00, 0.000, 0.000, 0.000, 16:13:36.459, 1578579216459
141, -184233.95, -181801.69, -187500.02, 150224.42, -187500.02, 150258.19, -187500.02, -187500.02, 0.000, 0.000, 0.000, 16:13:36.459, 1578579216459
142, -178403.42, -178394.52, -178564.38, -178570.88, -178540.47, -178494.52, -178631.89, 187500.00, 0.000, 0.000, 0.000, 16:13:36.460, 1578579216460
143, -184227.03, -181794.39, -187500.02, 150207.52, -187500.02, 150241.25, -187500.02, -187500.02, 0.016, 0.052, 0.966, 16:13:36.460, 1578579216460
144, -178417.98, -178409.03, -178578.89, -178585.47, -178555.03, -178509.16, -178646.48, 187500.00, 0.000, 0.000, 0.000, 16:13:36.460, 1578579216460
145, -184220.41, -181787.38, -187500.02, 150191.77, -187500.02, 150225.41, -187500.02, -187500.02, 0.000, 0.000, 0.000, 16:13:36.460, 1578579216460
146, -178429.70, -178420.67, -178590.52, -178597.19, -178566.73, -178520.83, -178658.25, 187500.00, 0.000, 0.000, 0.000, 16:13:36.460, 1578579216460
147, -184216.20, -181782.70, -187500.02, 150178.58, -187500.02, 150212.22, -187500.02, -187500.02, 0.000, 0.000, 0.000, 16:13:36.460, 1578579216460
148, -178442.17, -178433.13, -178602.92, -178609.50, -178579.17, -178533.25, -178670.61, 187500.00, 0.000, 0.000, 0.000, 16:13:36.460, 1578579216460
149, -184208.55, -181774.61, -187500.02, 150160.42, -187500.02, 150193.92, -187500.02, -187500.02, 0.000, 0.000, 0.000, 16:13:36.460, 1578579216460
150, -178457.70, -178448.61, -178618.38, -178625.03, -178594.56, -178548.70, -178686.19, 187500.00, 0.000, 0.000, 0.000, 16:13:36.460, 1578579216460
151, -184202.63, -181768.33, -187500.02, 150145.95, -187500.02, 150179.56, -187500.02, -187500.02, 0.000, 0.000, 0.000, 16:13:36.460, 1578579216460
152, -178468.28, -178459.08, -178628.91, -178635.56, -178605.19, -178559.14, -178696.73, 187500.00, 0.000, 0.000, 0.000, 16:13:36.460, 1578579216460
153, -184196.78, -181761.94, -187500.02, 150130.11, -187500.02, 150163.75, -187500.02, -187500.02, 0.014, 0.052, 0.976, 16:13:36.460, 1578579216460
154, -178481.48, -178472.33, -178642.09, -178648.64, -178618.33, -178572.34, -178709.97, 187500.00, 0.000, 0.000, 0.000, 16:13:36.461, 1578579216461
155, -184189.44, -181754.23, -187500.02, 150113.63, -187500.02, 150147.28, -187500.02, -187500.02, 0.000, 0.000, 0.000, 16:13:36.461, 1578579216461
156, -178495.38, -178486.20, -178656.02, -178662.61, -178632.28, -178586.23, -178723.83, 187500.00, 0.000, 0.000, 0.000, 16:13:36.461, 1578579216461
157, -184183.36, -181747.75, -187500.02, 150099.06, -187500.02, 150132.61, -187500.02, -187500.02, 0.000, 0.000, 0.000, 16:13:36.461, 1578579216461
158, -178510.30, -178500.94, -178670.86, -178677.36, -178647.08, -178600.94, -178738.69, 187500.00, 0.000, 0.000, 0.000, 16:13:36.461, 1578579216461
159, -184173.94, -181737.92, -187500.02, 150079.67, -187500.02, 150113.33, -187500.02, -187500.02, 0.000, 0.000, 0.000, 16:13:36.461, 1578579216461
160, -178522.91, -178513.61, -178683.42, -178689.94, -178659.63, -178613.55, -178751.41, 187500.00, 0.000, 0.000, 0.000, 16:13:36.462, 1578579216462
161, -184165.19, -181728.80, -187500.02, 150062.95, -187500.02, 150096.50, -187500.02, -187500.02, 0.000, 0.000, 0.000, 16:13:36.462, 1578579216462
162, -178536.16, -178526.73, -178696.61, -178703.11, -178672.75, -178626.73, -178764.50, 187500.00, 0.000, 0.000, 0.000, 16:13:36.462, 1578579216462
163, -184157.92, -181721.02, -187500.02, 150045.95, -187500.02, 150079.52, -187500.02, -187500.02, 0.010, 0.054, 0.968, 16:13:36.462, 1578579216462
164, -178551.11, -178541.66, -178711.44, -178718.11, -178687.69, -178641.59, -178779.45, 187500.00, 0.000, 0.000, 0.000, 16:13:36.462, 1578579216462
165, -184150.86, -181713.50, -187500.02, 150029.64, -187500.02, 150063.17, -187500.02, -187500.02, 0.000, 0.000, 0.000, 16:13:36.462, 1578579216462
166, -178565.38, -178555.89, -178725.75, -178732.30, -178701.97, -178655.86, -178793.81, 187500.00, 0.000, 0.000, 0.000, 16:13:36.462, 1578579216462
167, -184142.88, -181705.06, -187500.02, 150012.94, -187500.02, 150046.52, -187500.02, -187500.02, 0.000, 0.000, 0.000, 16:13:36.462, 1578579216462
168, -178578.94, -178569.41, -178739.16, -178745.78, -178715.41, -178669.22, -178807.36, 187500.00, 0.000, 0.000, 0.000, 16:13:36.462, 1578579216462
169, -184134.47, -181696.30, -187500.02, 149994.38, -187500.02, 150027.94, -187500.02, -187500.02, 0.000, 0.000, 0.000, 16:13:36.462, 1578579216462
170, -178592.42, -178582.83, -178752.58, -178759.14, -178728.83, -178682.63, -178820.81, 187500.00, 0.000, 0.000, 0.000, 16:13:36.462, 1578579216462
171, -184127.72, -181689.17, -187500.02, 149979.27, -187500.02, 150012.78, -187500.02, -187500.02, 0.000, 0.000, 0.000, 16:13:36.462, 1578579216462
172, -178606.97, -178597.36, -178767.06, -178773.67, -178743.27, -178697.19, -178835.36, 187500.00, 0.012, 0.052, 0.968, 16:13:36.462, 1578579216462
173, -184120.80, -181681.67, -187500.02, 149962.19, -187500.02, 149995.75, -187500.02, -187500.02, 0.000, 0.000, 0.000, 16:13:36.462, 1578579216462
174, -178620.72, -178611.02, -178780.80, -178787.38, -178756.94, -178710.97, -178849.13, 187500.00, 0.000, 0.000, 0.000, 16:13:36.462, 1578579216462
175, -184115.45, -181675.98, -187500.02, 149947.66, -187500.02, 149981.23, -187500.02, -187500.02, 0.000, 0.000, 0.000, 16:13:36.462, 1578579216462
176, -178632.59, -178622.84, -178792.61, -178799.20, -178768.86, -178722.75, -178861.02, 187500.00, 0.000, 0.000, 0.000, 16:13:36.462, 1578579216462
177, -184109.72, -181669.94, -187500.02, 149933.64, -187500.02, 149967.08, -187500.02, -187500.02, 0.000, 0.000, 0.000, 16:13:36.462, 1578579216462
178, -178646.83, -178637.11, -178806.86, -178813.41, -178783.11, -178736.91, -178875.19, 187500.00, 0.000, 0.000, 0.000, 16:13:36.462, 1578579216462
179, -184101.13, -181660.83, -187500.02, 149914.91, -187500.02, 149948.42, -187500.02, -187500.02, 0.000, 0.000, 0.000, 16:13:36.462, 1578579216462
180, -178661.17, -178651.30, -178821.08, -178827.66, -178797.31, -178751.16, -178889.50, 187500.00, 0.000, 0.000, 0.000, 16:13:36.462, 1578579216462
181, -184093.50, -181652.70, -187500.02, 149899.08, -187500.02, 149932.61, -187500.02, -187500.02, 0.000, 0.000, 0.000, 16:13:36.463, 1578579216463
182, -178676.33, -178666.42, -178836.25, -178842.73, -178812.36, -178766.19, -178904.66, 187500.00, 0.012, 0.050, 0.974, 16:13:36.463, 1578579216463
183, -184087.06, -181645.88, -187500.02, 149883.03, -187500.02, 149916.56, -187500.02, -187500.02, 0.000, 0.000, 0.000, 16:13:36.463, 1578579216463
184, -178690.13, -178680.38, -178849.98, -178856.63, -178826.22, -178780.13, -178918.56, 187500.00, 0.000, 0.000, 0.000, 16:13:36.463, 1578579216463
185, -184085.23, -181643.64, -187500.02, 149872.13, -187500.02, 149905.64, -187500.02, -187500.02, 0.000, 0.000, 0.000, 16:13:36.463, 1578579216463
186, -178701.77, -178691.95, -178861.61, -178868.16, -178837.86, -178791.73, -178930.14, 187500.00, 0.000, 0.000, 0.000, 16:13:36.463, 1578579216463
187, -184079.17, -181636.97, -187500.02, 149857.13, -187500.02, 149890.61, -187500.02, -187500.02, 0.000, 0.000, 0.000, 16:13:36.463, 1578579216463
188, -178717.61, -178707.69, -178877.41, -178883.94, -178853.69, -178807.58, -178945.95, 187500.00, 0.000, 0.000, 0.000, 16:13:36.463, 1578579216463
189, -184071.81, -181629.02, -187500.02, 149839.00, -187500.02, 149872.48, -187500.02, -187500.02, 0.000, 0.000, 0.000, 16:13:36.463, 1578579216463
190, -178732.92, -178722.83, -178892.66, -178899.11, -178868.80, -178822.72, -178961.30, 187500.00, 0.000, 0.000, 0.000, 16:13:36.463, 1578579216463
191, -184064.38, -181620.97, -187500.02, 149822.70, -187500.02, 149856.27, -187500.02, -187500.02, 0.000, 0.000, 0.000, 16:13:36.463, 1578579216463
192, -178745.11, -178735.06, -178904.73, -178911.27, -178880.98, -178834.83, -178973.42, 187500.00, 0.008, 0.056, 0.970, 16:13:36.463, 1578579216463
193, -184059.53, -181615.56, -187500.02, 149807.63, -187500.02, 149841.16, -187500.02, -187500.02, 0.000, 0.000, 0.000, 16:13:36.463, 1578579216463
194, -178758.78, -178748.73, -178918.48, -178924.97, -178894.69, -178848.55, -178987.20, 187500.00, 0.000, 0.000, 0.000, 16:13:36.463, 1578579216463
195, -184052.84, -181608.44, -187500.02, 149791.06, -187500.02, 149824.56, -187500.02, -187500.02, 0.000, 0.000, 0.000, 16:13:36.463, 1578579216463
196, -178774.98, -178764.94, -178934.53, -178941.13, -178910.75, -178864.59, -179003.30, 187500.00, 0.000, 0.000, 0.000, 16:13:36.463, 1578579216463
197, -184047.56, -181602.55, -187500.02, 149776.27, -187500.02, 149809.72, -187500.02, -187500.02, 0.000, 0.000, 0.000, 16:13:36.463, 1578579216463
198, -178788.88, -178778.80, -178948.44, -178955.02, -178924.66, -178878.55, -179017.31, 187500.00, 0.000, 0.000, 0.000, 16:13:36.463, 1578579216463
199, -184042.92, -181597.33, -187500.02, 149760.73, -187500.02, 149794.22, -187500.02, -187500.02, 0.000, 0.000, 0.000, 16:13:36.463, 1578579216463
200, -178802.08, -178791.83, -178961.50, -178967.95, -178937.70, -178891.55, -179030.34, 187500.00, 0.000, 0.000, 0.000, 16:13:36.463, 1578579216463
201, -184039.52, -181593.48, -187500.02, 149748.33, -187500.02, 149781.84, -187500.02, -187500.02, 0.000, 0.000, 0.000, 16:13:36.463, 1578579216463
202, -178815.69, -178805.30, -178974.95, -178981.56, -178951.14, -178905.06, -179043.86, 187500.00, 0.012, 0.056, 0.976, 16:13:36.463, 1578579216463
203, -184034.64, -181587.89, -187500.02, 149732.88, -187500.02, 149766.39, -187500.02, -187500.02, 0.000, 0.000, 0.000, 16:13:36.464, 1578579216464
204, -178830.05, -178819.69, -178989.39, -178995.92, -178965.63, -178919.41, -179058.39, 187500.00, 0.000, 0.000, 0.000, 16:13:36.464, 1578579216464
205, -184027.84, -181580.63, -187500.02, 149715.98, -187500.02, 149749.42, -187500.02, -187500.02, 0.000, 0.000, 0.000, 16:13:36.464, 1578579216464
206, -178845.88, -178835.47, -179005.13, -179011.67, -178981.36, -178935.23, -179074.06, 187500.00, 0.000, 0.000, 0.000, 16:13:36.464, 1578579216464
207, -184021.38, -181573.42, -187500.02, 149699.81, -187500.02, 149733.33, -187500.02, -187500.02, 0.000, 0.000, 0.000, 16:13:36.464, 1578579216464
208, -178861.31, -178851.02, -179020.56, -179027.14, -178996.88, -178950.70, -179089.59, 187500.00, 0.000, 0.000, 0.000, 16:13:36.464, 1578579216464
209, -184013.61, -181565.25, -187500.02, 149681.16, -187500.02, 149714.64, -187500.02, -187500.02, 0.000, 0.000, 0.000, 16:13:36.464, 1578579216464
210, -178874.92, -178864.47, -179034.00, -179040.63, -179010.38, -178964.17, -179103.19, 187500.00, 0.000, 0.000, 0.000, 16:13:36.464, 1578579216464
211, -184009.59, -181560.55, -187500.02, 149667.97, -187500.02, 149701.34, -187500.02, -187500.02, 0.018, 0.056, 0.972, 16:13:36.464, 1578579216464
212, -178889.16, -178878.75, -179048.33, -179054.88, -179024.59, -178978.41, -179117.52, 187500.00, 0.000, 0.000, 0.000, 16:13:36.464, 1578579216464
213, -184008.86, -181559.22, -187500.02, 149656.38, -187500.02, 149689.77, -187500.02, -187500.02, 0.000, 0.000, 0.000, 16:13:36.464, 1578579216464
214, -178904.63, -178894.23, -179063.89, -179070.41, -179040.16, -178993.97, -179133.09, 187500.00, 0.000, 0.000, 0.000, 16:13:36.464, 1578579216464
215, -184003.17, -181553.00, -187500.02, 149640.25, -187500.02, 149673.63, -187500.02, -187500.02, 0.000, 0.000, 0.000, 16:13:36.464, 1578579216464
216, -178918.80, -178908.34, -179078.03, -179084.47, -179054.14, -179008.05, -179147.17, 187500.00, 0.000, 0.000, 0.000, 16:13:36.464, 1578579216464
217, -183998.25, -181547.50, -187500.02, 149625.64, -187500.02, 149659.14, -187500.02, -187500.02, 0.000, 0.000, 0.000, 16:13:36.464, 1578579216464
218, -178934.41, -178923.98, -179093.56, -179100.14, -179069.72, -179023.83, -179162.84, 187500.00, 0.000, 0.000, 0.000, 16:13:36.464, 1578579216464
219, -183993.86, -181542.36, -187500.02, 149609.66, -187500.02, 149643.09, -187500.02, -187500.02, 0.000, 0.000, 0.000, 16:13:36.464, 1578579216464
220, -178945.78, -178935.36, -179104.92, -179111.55, -179081.13, -179035.14, -179174.27, 187500.00, 0.000, 0.000, 0.000, 16:13:36.464, 1578579216464
221, -183986.95, -181534.89, -187500.02, 149592.98, -187500.02, 149626.31, -187500.02, -187500.02, 0.010, 0.058, 0.958, 16:13:36.465, 1578579216465
222, -178962.13, -178951.56, -179121.31, -179127.77, -179097.45, -179051.42, -179190.64, 187500.00, 0.000, 0.000, 0.000, 16:13:36.465, 1578579216465
223, -183979.14, -181526.53, -187500.02, 149574.05, -187500.02, 149607.48, -187500.02, -187500.02, 0.000, 0.000, 0.000, 16:13:36.465, 1578579216465
224, -178977.03, -178966.52, -179136.27, -179142.86, -179112.50, -179066.39, -179205.73, 187500.00, 0.000, 0.000, 0.000, 16:13:36.465, 1578579216465
225, -183973.61, -181520.41, -187500.02, 149557.89, -187500.02, 149591.19, -187500.02, -187500.02, 0.000, 0.000, 0.000, 16:13:36.465, 1578579216465
226, -178988.89, -178978.44, -179148.17, -179154.72, -179124.33, -179078.33, -179217.64, 187500.00, 0.000, 0.000, 0.000, 16:13:36.465, 1578579216465
227, -183969.38, -181515.77, -187500.02, 149543.63, -187500.02, 149577.06, -187500.02, -187500.02, 0.000, 0.000, 0.000, 16:13:36.465, 1578579216465
228, -179004.56, -178994.11, -179163.78, -179170.28, -179139.95, -179093.92, -179233.30, 187500.00, 0.000, 0.000, 0.000, 16:13:36.465, 1578579216465
229, -183962.25, -181508.08, -187500.02, 149524.81, -187500.02, 149558.25, -187500.02, -187500.02, 0.000, 0.000, 0.000, 16:13:36.465, 1578579216465
230, -179020.03, -179009.59, -179179.28, -179185.80, -179155.42, -179109.42, -179248.84, 187500.00, 0.000, 0.000, 0.000, 16:13:36.465, 1578579216465
231, -183956.89, -181502.03, -187500.02, 149509.67, -187500.02, 149543.16, -187500.02, -187500.02, 0.012, 0.052, 0.970, 16:13:36.465, 1578579216465
232, -179033.72, -179023.36, -179193.11, -179199.56, -179169.25, -179123.09, -179262.64, 187500.00, 0.000, 0.000, 0.000, 16:13:36.465, 1578579216465
233, -183953.48, -181498.17, -187500.02, 149495.50, -187500.02, 149528.88, -187500.02, -187500.02, 0.000, 0.000, 0.000, 16:13:36.465, 1578579216465
234, -179047.08, -179036.70, -179206.47, -179212.86, -179182.55, -179136.59, -179276.05, 187500.00, 0.000, 0.000, 0.000, 16:13:36.466, 1578579216466
235, -183946.52, -181490.50, -187500.02, 149477.89, -187500.02, 149511.19, -187500.02, -187500.02, 0.000, 0.000, 0.000, 16:13:36.466, 1578579216466
236, -179061.56, -179051.14, -179220.80, -179227.34, -179196.97, -179150.97, -179290.42, 187500.00, 0.000, 0.000, 0.000, 16:13:36.466, 1578579216466
237, -183936.95, -181480.44, -187500.02, 149458.63, -187500.02, 149491.92, -187500.02, -187500.02, 0.000, 0.000, 0.000, 16:13:36.466, 1578579216466
238, -179075.75, -179065.25, -179234.91, -179241.53, -179211.08, -179165.09, -179304.56, 187500.00, 0.000, 0.000, 0.000, 16:13:36.466, 1578579216466
239, -183929.33, -181472.41, -187500.02, 149439.95, -187500.02, 149473.23, -187500.02, -187500.02, 0.000, 0.000, 0.000, 16:13:36.466, 1578579216466
240, -179090.13, -179079.64, -179249.27, -179255.86, -179225.48, -179179.44, -179319.05, 187500.00, 0.000, 0.000, 0.000, 16:13:36.934, 1578579216934
241, -183922.17, -181464.80, -187500.02, 149423.58, -187500.02, 149456.86, -187500.02, -187500.02, 0.014, 0.042, 0.960, 16:13:36.935, 1578579216935
242, -179103.53, -179093.06, -179262.81, -179269.36, -179238.92, -179192.97, -179332.58, 187500.00, 0.000, 0.000, 0.000, 16:13:36.935, 1578579216935
243, -183914.53, -181456.73, -187500.02, 149405.53, -187500.02, 149438.78, -187500.02, -187500.02, 0.000, 0.000, 0.000, 16:13:36.935, 1578579216935
244, -179118.73, -179108.23, -179278.06, -179284.59, -179254.13, -179208.09, -179347.84, 187500.00, 0.000, 0.000, 0.000, 16:13:36.935, 1578579216935
245, -183910.23, -181451.97, -187500.02, 149390.97, -187500.02, 149424.33, -187500.02, -187500.02, 0.000, 0.000, 0.000, 16:13:36.935, 1578579216935
246, -179131.09, -179120.66, -179290.36, -179297.00, -179266.50, -179220.45, -179360.31, 187500.00, 0.000, 0.000, 0.000, 16:13:36.935, 1578579216935
247, -183904.97, -181446.31, -187500.02, 149376.33, -187500.02, 149409.67, -187500.02, -187500.02, 0.000, 0.000, 0.000, 16:13:36.935, 1578579216935
248, -179146.45, -179136.02, -179305.70, -179312.34, -179281.92, -179235.86, -179375.66, 187500.00, 0.000, 0.000, 0.000, 16:13:36.935, 1578579216935
249, -183896.42, -181437.39, -187500.02, 149357.14, -187500.02, 149390.52, -187500.02, -187500.02, 0.000, 0.000, 0.000, 16:13:36.935, 1578579216935
250, -179160.16, -179149.67, -179319.41, -179325.89, -179295.56, -179249.34, -179389.28, 187500.00, 0.010, 0.044, 0.968, 16:13:36.935, 1578579216935
251, -183888.89, -181429.48, -187500.02, 149340.45, -187500.02, 149373.91, -187500.02, -187500.02, 0.000, 0.000, 0.000, 16:13:36.935, 1578579216935
252, -179173.59, -179163.13, -179332.83, -179339.48, -179309.02, -179262.89, -179402.83, 187500.00, 0.000, 0.000, 0.000, 16:13:36.935, 1578579216935
253, -183880.06, -181420.30, -187500.02, 149321.31, -187500.02, 149354.63, -187500.02, -187500.02, 0.000, 0.000, 0.000, 16:13:36.935, 1578579216935
254, -179192.36, -179181.97, -179351.55, -179358.23, -179327.84, -179281.66, -179421.67, 187500.00, 0.000, 0.000, 0.000, 16:13:36.935, 1578579216935
255, -183872.50, -181412.41, -187500.02, 149304.13, -187500.02, 149337.41, -187500.02, -187500.02, 0.000, 0.000, 0.000, 16:13:36.935, 1578579216935
0, -179206.09, -179195.66, -179365.45, -179372.08, -179341.67, -179295.47, -179435.58, 187500.00, 0.000, 0.000, 0.000, 16:13:36.935, 1578579216935
1, -183867.05, -181406.69, -187500.02, 149290.00, -187500.02, 149323.30, -187500.02, -187500.02, 0.000, 0.000, 0.000, 16:13:36.935, 1578579216935
2, -179219.66, -179209.28, -179379.09, -179385.59, -179355.28, -179309.17, -179449.13, 187500.00, 0.000, 0.000, 0.000, 16:13:36.935, 1578579216935
3, -183858.92, -181398.30, -187500.02, 149271.73, -187500.02, 149305.06, -187500.02, -187500.02, 0.000, 0.000, 0.000, 16:13:36.935, 1578579216935
4, -179233.31, -179222.98, -179392.75, -179399.30, -179368.89, -179322.81, -179462.86, 187500.00, 0.014, 0.050, 0.962, 16:13:36.935, 1578579216935
5, -183849.95, -181389.08, -187500.02, 149254.59, -187500.02, 149287.97, -187500.02, -187500.02, 0.000, 0.000, 0.000, 16:13:36.936, 1578579216936
6, -179249.25, -179238.83, -179408.55, -179415.09, -179384.80, -179338.64, -179478.75, 187500.00, 0.000, 0.000, 0.000, 16:13:36.936, 1578579216936
7, -183841.92, -181380.84, -187500.02, 149237.58, -187500.02, 149270.89, -187500.02, -187500.02, 0.000, 0.000, 0.000, 16:13:36.936, 1578579216936
8, -179263.52, -179253.09, -179422.88, -179429.41, -179399.05, -179352.94, -179493.00, 187500.00, 0.000, 0.000, 0.000, 16:13:36.936, 1578579216936
9, -183832.23, -181370.94, -187500.02, 149219.45, -187500.02, 149252.77, -187500.02, -187500.02, 0.000, 0.000, 0.000, 16:13:36.936, 1578579216936
10, -179277.81, -179267.36, -179437.14, -179443.64, -179413.28, -179367.22, -179507.33, 187500.00, 0.000, 0.000, 0.000, 16:13:36.936, 1578579216936
11, -183820.31, -181358.92, -187500.02, 149200.13, -187500.02, 149233.39, -187500.02, -187500.02, 0.000, 0.000, 0.000, 16:13:36.936, 1578579216936
12, -179293.03, -179282.58, -179452.36, -179458.86, -179428.47, -179382.47, -179522.56, 187500.00, 0.000, 0.000, 0.000, 16:13:36.936, 1578579216936
13, -183810.03, -181348.30, -187500.02, 149180.72, -187500.02, 149214.00, -187500.02, -187500.02, 0.000, 0.000, 0.000, 16:13:36.936, 1578579216936
14, -179306.67, -179296.20, -179466.06, -179472.56, -179442.23, -179396.13, -179536.38, 187500.00, 0.014, 0.048, 0.966, 16:13:36.936, 1578579216936
15, -183798.34, -181336.52, -187500.02, 149162.03, -187500.02, 149195.20, -187500.02, -187500.02, 0.000, 0.000, 0.000, 16:13:36.936, 1578579216936
16, -179320.27, -179309.88, -179479.56, -179486.22, -179455.91, -179409.80, -179550.08, 187500.00, 0.000, 0.000, 0.000, 16:13:36.936, 1578579216936
17, -183787.13, -181325.28, -187500.02, 149142.80, -187500.02, 149175.97, -187500.02, -187500.02, 0.000, 0.000, 0.000, 16:13:36.936, 1578579216936
18, -179335.13, -179324.75, -179494.53, -179501.16, -179470.80, -179424.64, -179565.03, 187500.00, 0.000, 0.000, 0.000, 16:13:36.936, 1578579216936
19, -183776.34, -181314.42, -187500.02, 149124.13, -187500.02, 149157.45, -187500.02, -187500.02, 0.000, 0.000, 0.000, 16:13:36.936, 1578579216936
20, -179349.59, -179339.22, -179509.05, -179515.55, -179485.22, -179438.97, -179579.42, 187500.00, 0.000, 0.000, 0.000, 16:13:36.936, 1578579216936
21, -183767.77, -181305.63, -187500.02, 149108.42, -187500.02, 149141.70, -187500.02, -187500.02, 0.000, 0.000, 0.000, 16:13:36.936, 1578579216936
22, -179364.45, -179353.92, -179523.80, -179530.41, -179499.98, -179453.88, -179594.36, 187500.00, 0.000, 0.000, 0.000, 16:13:36.936, 1578579216936
23, -183762.89, -181300.63, -187500.02, 149094.92, -187500.02, 149128.11, -187500.02, -187500.02, 0.000, 0.000, 0.000, 16:13:36.936, 1578579216936
24, -179377.64, -179367.13, -179537.00, -179543.59, -179513.22, -179467.05, -179607.64, 187500.00, 0.008, 0.048, 0.962, 16:13:36.937, 1578579216937
25, -183752.95, -181290.55, -187500.02, 149078.33, -187500.02, 149111.56, -187500.02, -187500.02, 0.000, 0.000, 0.000, 16:13:36.937, 1578579216937
26, -179392.72, -179382.17, -179552.11, -179558.59, -179528.27, -179482.11, -179622.72, 187500.00, 0.000, 0.000, 0.000, 16:13:36.937, 1578579216937
27, -183743.31, -181280.67, -187500.02, 149060.66, -187500.02, 149093.86, -187500.02, -187500.02, 0.000, 0.000, 0.000, 16:13:36.937, 1578579216937
28, -179406.20, -179395.66, -179565.58, -179572.09, -179541.78, -179495.59, -179636.20, 187500.00, 0.000, 0.000, 0.000, 16:13:36.937, 1578579216937
29, -183731.09, -181268.31, -187500.02, 149040.59, -187500.02, 149073.84, -187500.02, -187500.02, 0.000, 0.000, 0.000, 16:13:36.937, 1578579216937
30, -179422.47, -179412.00, -179582.00, -179588.45, -179558.13, -179511.97, -179652.61, 187500.00, 0.000, 0.000, 0.000, 16:13:36.937, 1578579216937
31, -183722.27, -181259.39, -187500.02, 149025.02, -187500.02, 149058.25, -187500.02, -187500.02, 0.000, 0.000, 0.000, 16:13:36.937, 1578579216937
32, -179436.31, -179425.83, -179595.72, -179602.31, -179571.88, -179525.77, -179666.47, 187500.00, 0.000, 0.000, 0.000, 16:13:36.937, 1578579216937
33, -183714.28, -181251.30, -187500.02, 149008.91, -187500.02, 149042.08, -187500.02, -187500.02, 0.000, 0.000, 0.000, 16:13:36.937, 1578579216937
34, -179449.09, -179438.66, -179608.52, -179615.06, -179584.69, -179538.55, -179679.30, 187500.00, 0.012, 0.046, 0.966, 16:13:36.937, 1578579216937
35, -183703.58, -181240.39, -187500.02, 148991.45, -187500.02, 149024.53, -187500.02, -187500.02, 0.000, 0.000, 0.000, 16:13:36.937, 1578579216937
36, -179463.98, -179453.48, -179623.42, -179629.91, -179599.50, -179553.45, -179694.20, 187500.00, 0.000, 0.000, 0.000, 16:13:36.937, 1578579216937
37, -183694.39, -181230.89, -187500.02, 148974.08, -187500.02, 149007.34, -187500.02, -187500.02, 0.000, 0.000, 0.000, 16:13:36.937, 1578579216937
38, -179480.23, -179469.75, -179639.59, -179646.22, -179615.80, -179569.66, -179710.52, 187500.00, 0.000, 0.000, 0.000, 16:13:36.937, 1578579216937
39, -183686.70, -181223.05, -187500.02, 148958.61, -187500.02, 148991.92, -187500.02, -187500.02, 0.000, 0.000, 0.000, 16:13:36.937, 1578579216937
40, -179493.38, -179482.98, -179652.83, -179659.42, -179629.05, -179582.83, -179723.75, 187500.00, 0.000, 0.000, 0.000, 16:13:36.937, 1578579216937
41, -183677.42, -181213.67, -187500.02, 148942.50, -187500.02, 148975.67, -187500.02, -187500.02, 0.000, 0.000, 0.000, 16:13:36.937, 1578579216937
42, -179506.55, -179496.13, -179666.05, -179672.70, -179642.28, -179596.03, -179736.98, 187500.00, 0.000, 0.000, 0.000, 16:13:36.937, 1578579216937
43, -183667.52, -181203.38, -187500.02, 148923.92, -187500.02, 148957.05, -187500.02, -187500.02, 0.008, 0.042, 0.966, 16:13:36.937, 1578579216937
44, -179522.52, -179512.17, -179681.94, -179688.64, -179658.20, -179612.06, -179752.92, 187500.00, 0.000, 0.000, 0.000, 16:13:36.937, 1578579216937
45, -183659.22, -181194.88, -187500.02, 148908.61, -187500.02, 148941.81, -187500.02, -187500.02, 0.000, 0.000, 0.000, 16:13:36.937, 1578579216937
46, -179537.67, -179527.23, -179697.17, -179703.75, -179673.31, -179627.17, -179768.17, 187500.00, 0.000, 0.000, 0.000, 16:13:36.938, 1578579216938
47, -183650.47, -181185.77, -187500.02, 148891.67, -187500.02, 148924.84, -187500.02, -187500.02, 0.000, 0.000, 0.000, 16:13:36.938, 1578579216938
48, -179550.16, -179539.63, -179709.58, -179716.20, -179685.72, -179639.64, -179780.69, 187500.00, 0.000, 0.000, 0.000, 16:13:36.938, 1578579216938
49, -183642.64, -181177.69, -187500.02, 148876.11, -187500.02, 148909.28, -187500.02, -187500.02, 0.000, 0.000, 0.000, 16:13:36.938, 1578579216938
50, -179562.84, -179552.39, -179722.25, -179728.83, -179698.34, -179652.34, -179793.36, 187500.00, 0.000, 0.000, 0.000, 16:13:36.938, 1578579216938
51, -183634.44, -181169.13, -187500.02, 148860.72, -187500.02, 148893.80, -187500.02, -187500.02, 0.000, 0.000, 0.000, 16:13:36.938, 1578579216938
52, -179579.66, -179569.19, -179739.13, -179745.77, -179715.23, -179669.22, -179810.23, 187500.00, 0.000, 0.000, 0.000, 16:13:36.938, 1578579216938
53, -183624.45, -181158.78, -187500.02, 148841.80, -187500.02, 148874.89, -187500.02, -187500.02, 0.010, 0.052, 0.970, 16:13:36.938, 1578579216938
54, -179593.88, -179583.31, -179753.34, -179759.97, -179729.45, -179683.44, -179824.52, 187500.00, 0.000, 0.000, 0.000, 16:13:36.938, 1578579216938
55, -183617.39, -181151.20, -187500.02, 148827.30, -187500.02, 148860.42, -187500.02, -187500.02, 0.000, 0.000, 0.000, 16:13:36.938, 1578579216938
56, -179608.58, -179598.08, -179768.03, -179774.72, -179744.14, -179698.09, -179839.27, 187500.00, 0.000, 0.000, 0.000, 16:13:36.938, 1578579216938
57, -183612.02, -181145.48, -187500.02, 148813.47, -187500.02, 148846.75, -187500.02, -187500.02, 0.000, 0.000, 0.000, 16:13:36.938, 1578579216938
58, -179623.63, -179613.11, -179783.14, -179789.83, -179759.30, -179713.25, -179854.36, 187500.00, 0.000, 0.000, 0.000, 16:13:36.938, 1578579216938
59, -183603.45, -181136.34, -187500.02, 148795.95, -187500.02, 148829.17, -187500.02, -187500.02, 0.000, 0.000, 0.000, 16:13:36.938, 1578579216938
60, -179640.34, -179629.78, -179799.70, -179806.44, -179775.92, -179729.81, -179871.03, 187500.00, 0.000, 0.000, 0.000, 16:13:36.938, 1578579216938
61, -183595.03, -181127.47, -187500.02, 148779.27, -187500.02, 148812.45, -187500.02, -187500.02, 0.000, 0.000, 0.000, 16:13:36.938, 1578579216938
62, -179652.78, -179642.27, -179812.36, -179818.89, -179788.48, -179742.34, -179883.59, 187500.00, 0.000, 0.000, 0.000, 16:13:36.938, 1578579216938
63, -183592.02, -181123.91, -187500.02, 148766.14, -187500.02, 148799.33, -187500.02, -187500.02, 0.008, 0.050, 0.960, 16:13:36.939, 1578579216939
64, -179666.92, -179656.47, -179826.45, -179833.17, -179802.61, -179756.55, -179897.89, 187500.00, 0.000, 0.000, 0.000, 16:13:36.939, 1578579216939
65, -183583.91, -181115.39, -187500.02, 148749.73, -187500.02, 148782.86, -187500.02, -187500.02, 0.000, 0.000, 0.000, 16:13:36.939, 1578579216939
66, -179681.27, -179670.84, -179840.88, -179847.52, -179816.98, -179770.89, -179912.25, 187500.00, 0.000, 0.000, 0.000, 16:13:36.939, 1578579216939
67, -183577.17, -181108.11, -187500.02, 148733.47, -187500.02, 148766.72, -187500.02, -187500.02, 0.000, 0.000, 0.000, 16:13:36.939, 1578579216939
68, -179693.88, -179683.48, -179853.47, -179860.14, -179829.67, -179783.48, -179925.03, 187500.00, 0.000, 0.000, 0.000, 16:13:36.939, 1578579216939
69, -183570.28, -181100.63, -187500.02, 148717.02, -187500.02, 148750.19, -187500.02, -187500.02, 0.000, 0.000, 0.000, 16:13:36.939, 1578579216939
70, -179711.38, -179700.86, -179870.97, -179877.64, -179847.16, -179800.91, -179942.42, 187500.00, 0.000, 0.000, 0.000, 16:13:36.939, 1578579216939
71, -183567.55, -181097.66, -187500.02, 148728.22, -187500.02, 148761.38, -187500.02, -187500.02, 0.000, 0.000, 0.000, 16:13:36.940, 1578579216940
72, -179724.84, -179714.33, -179884.38, -179890.95, -179860.56, -179814.28, -179955.81, 187500.00, 0.000, 0.000, 0.000, 16:13:36.940, 1578579216940
73, -183568.64, -181100.16, -187500.02, 148854.20, -187500.02, 148887.27, -187500.02, -187500.02, 0.014, 0.044, 0.964, 16:13:36.940, 1578579216940
74, -179736.23, -179725.77, -179895.75, -179902.38, -179871.83, -179825.75, -179967.33, 187500.00, 0.000, 0.000, 0.000, 16:13:36.940, 1578579216940
75, -183571.92, -181102.83, -187500.02, 148879.09, -187500.02, 148912.19, -187500.02, -187500.02, 0.000, 0.000, 0.000, 16:13:36.940, 1578579216940
76, -179752.08, -179741.56, -179911.67, -179918.17, -179887.77, -179841.59, -179983.17, 187500.00, 0.000, 0.000, 0.000, 16:13:36.940, 1578579216940
77, -183570.48, -181101.27, -187500.02, 148934.50, -187500.02, 148967.55, -187500.02, -187500.02, 0.000, 0.000, 0.000, 16:13:36.940, 1578579216940
78, -179766.11, -179755.61, -179925.64, -179932.20, -179901.81, -179855.58, -179997.20, 187500.00, 0.000, 0.000, 0.000, 16:13:36.940, 1578579216940
79, -183573.08, -181103.53, -187500.02, 148976.56, -187500.02, 149009.64, -187500.02, -187500.02, 0.000, 0.000, 0.000, 16:13:36.940, 1578579216940
80, -179783.20, -179772.64, -179942.63, -179949.23, -179918.81, -179872.55, -180014.34, 187500.00, 0.000, 0.000, 0.000, 16:13:36.940, 1578579216940
81, -183573.91, -181104.17, -187500.02, 149028.59, -187500.02, 149061.75, -187500.02, -187500.02, 0.000, 0.000, 0.000, 16:13:36.940, 1578579216940
82, -179796.16, -179785.61, -179955.55, -179962.30, -179931.83, -179885.61, -180027.38, 187500.00, 0.014, 0.038, 0.962, 16:13:36.940, 1578579216940
83, -183573.50, -181103.42, -187500.02, 149069.55, -187500.02, 149102.83, -187500.02, -187500.02, 0.000, 0.000, 0.000, 16:13:36.940, 1578579216940
84, -179809.11, -179798.72, -179968.64, -179975.33, -179944.97, -179898.77, -180040.53, 187500.00, 0.000, 0.000, 0.000, 16:13:36.940, 1578579216940
85, -183575.05, -181104.56, -187500.02, 149109.83, -187500.02, 149143.34, -187500.02, -187500.02, 0.000, 0.000, 0.000, 16:13:36.940, 1578579216940
86, -179823.16, -179812.73, -179982.77, -179989.47, -179959.09, -179912.83, -180054.69, 187500.00, 0.000, 0.000, 0.000, 16:13:36.940, 1578579216940
87, -183577.53, -181106.72, -187500.02, 149154.23, -187500.02, 149187.78, -187500.02, -187500.02, 0.000, 0.000, 0.000, 16:13:36.941, 1578579216941
88, -179839.02, -179828.45, -179998.55, -180005.25, -179974.78, -179928.55, -180070.45, 187500.00, 0.000, 0.000, 0.000, 16:13:36.941, 1578579216941
89, -183580.75, -181109.63, -187500.02, 149198.42, -187500.02, 149231.89, -187500.02, -187500.02, 0.000, 0.000, 0.000, 16:13:36.941, 1578579216941
90, -179854.05, -179843.52, -180013.61, -180020.30, -179989.86, -179943.63, -180085.56, 187500.00, 0.000, 0.000, 0.000, 16:13:36.941, 1578579216941
91, -183583.91, -181112.48, -187500.02, 149242.50, -187500.02, 149275.88, -187500.02, -187500.02, 0.000, 0.000, 0.000, 16:13:36.941, 1578579216941
92, -179866.58, -179855.97, -180026.08, -180032.83, -180002.30, -179956.08, -180098.14, 187500.00, 0.014, 0.050, 0.960, 16:13:36.941, 1578579216941
93, -183586.42, -181114.39, -187500.02, 149268.70, -187500.02, 149302.03, -187500.02, -187500.02, 0.000, 0.000, 0.000, 16:13:36.941, 1578579216941
94, -179878.97, -179868.30, -180038.42, -180045.11, -180014.64, -179968.39, -180110.58, 187500.00, 0.000, 0.000, 0.000, 16:13:36.941, 1578579216941
95, -183590.83, -181118.33, -187500.02, 149314.94, -187500.02, 149348.36, -187500.02, -187500.02, 0.000, 0.000, 0.000, 16:13:36.941, 1578579216941
96, -179896.25, -179885.67, -180055.83, -180062.56, -180032.05, -179985.84, -180127.98, 187500.00, 0.000, 0.000, 0.000, 16:13:36.941, 1578579216941
97, -183594.52, -181121.59, -187500.02, 149352.86, -187500.02, 149386.19, -187500.02, -187500.02, 0.000, 0.000, 0.000, 16:13:36.941, 1578579216941
98, -179908.58, -179897.94, -180068.13, -180074.83, -180044.30, -179998.14, -180140.33, 187500.00, 0.000, 0.000, 0.000, 16:13:36.941, 1578579216941
99, -183593.38, -181120.30, -187500.02, 149403.59, -187500.02, 149436.97, -187500.02, -187500.02, 0.000, 0.000, 0.000, 16:13:36.941, 1578579216941
100, -179924.78, -179914.11, -180084.28, -180091.03, -180060.48, -180014.31, -180156.58, 187500.00, 0.000, 0.000, 0.000, 16:13:36.941, 1578579216941
101, -183595.88, -181122.44, -187500.02, 149448.05, -187500.02, 149481.36, -187500.02, -187500.02, 0.000, 0.000, 0.000, 16:13:36.941, 1578579216941
102, -179936.75, -179926.08, -180096.30, -180103.06, -180072.48, -180026.31, -180168.63, 187500.00, 0.012, 0.046, 0.972, 16:13:36.942, 1578579216942
103, -183597.38, -181123.73, -187500.02, 149488.47, -187500.02, 149521.83, -187500.02, -187500.02, 0.000, 0.000, 0.000, 16:13:36.942, 1578579216942
104, -179952.09, -179941.50, -180111.69, -180118.44, -180087.97, -180041.73, -180184.02, 187500.00, 0.000, 0.000, 0.000, 16:13:37.416, 1578579217416
105, -183600.83, -181126.66, -187500.02, 149528.30, -187500.02, 149561.73, -187500.02, -187500.02, 0.000, 0.000, 0.000, 16:13:37.417, 1578579217417
106, -179964.97, -179954.42, -180124.61, -180131.42, -180100.89, -180054.67, -180196.94, 187500.00, 0.000, 0.000, 0.000, 16:13:37.417, 1578579217417
107, -183600.53, -181126.08, -187500.02, 149573.42, -187500.02, 149606.84, -187500.02, -187500.02, 0.000, 0.000, 0.000, 16:13:37.417, 1578579217417
108, -179981.50, -179970.89, -180141.08, -180147.77, -180117.25, -180071.09, -180213.45, 187500.00, 0.000, 0.000, 0.000, 16:13:37.417, 1578579217417
109, -183601.06, -181126.61, -187500.02, 149632.70, -187500.02, 149666.06, -187500.02, -187500.02, 0.000, 0.000, 0.000, 16:13:37.417, 1578579217417
110, -179994.72, -179984.00, -180154.30, -180160.94, -180130.47, -180084.22, -180226.73, 187500.00, 0.000, 0.000, 0.000, 16:13:37.417, 1578579217417
111, -183602.66, -181127.56, -187500.02, 149663.92, -187500.02, 149697.25, -187500.02, -187500.02, 0.000, 0.000, 0.000, 16:13:37.417, 1578579217417
112, -180008.11, -179997.42, -180167.61, -180174.30, -180143.94, -180097.66, -180240.08, 187500.00, 0.008, 0.046, 0.968, 16:13:37.417, 1578579217417
113, -183606.08, -181130.63, -187500.02, 149709.25, -187500.02, 149742.58, -187500.02, -187500.02, 0.000, 0.000, 0.000, 16:13:37.417, 1578579217417
114, -180021.45, -180010.70, -180181.05, -180187.67, -180157.17, -180111.06, -180253.45, 187500.00, 0.000, 0.000, 0.000, 16:13:37.417, 1578579217417
115, -183609.22, -181133.39, -187500.02, 149743.31, -187500.02, 149776.64, -187500.02, -187500.02, 0.000, 0.000, 0.000, 16:13:37.418, 1578579217418
116, -180037.58, -180026.86, -180197.25, -180203.83, -180173.31, -180127.22, -180269.66, 187500.00, 0.000, 0.000, 0.000, 16:13:37.418, 1578579217418
117, -183612.84, -181136.77, -187500.02, 149794.77, -187500.02, 149828.09, -187500.02, -187500.02, 0.000, 0.000, 0.000, 16:13:37.418, 1578579217418
118, -180052.38, -180041.75, -180212.00, -180218.59, -180188.09, -180141.98, -180284.61, 187500.00, 0.000, 0.000, 0.000, 16:13:37.418, 1578579217418
119, -183614.14, -181137.66, -187500.02, 149834.42, -187500.02, 149867.72, -187500.02, -187500.02, 0.000, 0.000, 0.000, 16:13:37.418, 1578579217418
120, -180065.84, -180055.19, -180225.47, -180232.13, -180201.70, -180155.48, -180298.13, 187500.00, 0.000, 0.000, 0.000, 16:13:37.418, 1578579217418
121, -183614.67, -181138.16, -187500.02, 149883.34, -187500.02, 149916.67, -187500.02, -187500.02, 0.010, 0.044, 0.974, 16:13:37.418, 1578579217418
122, -180079.44, -180068.86, -180239.09, -180245.73, -180215.30, -180169.05, -180311.81, 187500.00, 0.000, 0.000, 0.000, 16:13:37.418, 1578579217418
123, -183617.14, -181140.16, -187500.02, 149920.98, -187500.02, 149954.31, -187500.02, -187500.02, 0.000, 0.000, 0.000, 16:13:37.418, 1578579217418
124, -180093.47, -180082.83, -180253.14, -180259.84, -180229.38, -180183.11, -180325.89, 187500.00, 0.000, 0.000, 0.000, 16:13:37.418, 1578579217418
125, -183620.48, -181142.98, -187500.02, 149960.53, -187500.02, 149993.81, -187500.02, -187500.02, 0.000, 0.000, 0.000, 16:13:37.418, 1578579217418
126, -180107.33, -180096.67, -180266.97, -180273.61, -180243.20, -180197.02, -180339.77, 187500.00, 0.000, 0.000, 0.000, 16:13:37.418, 1578579217418
127, -183623.78, -181145.91, -187500.02, 150006.34, -187500.02, 150039.88, -187500.02, -187500.02, 0.000, 0.000, 0.000, 16:13:37.418, 1578579217418
128, -180124.31, -180113.70, -180283.95, -180290.69, -180260.13, -180213.95, -180356.89, 187500.00, 0.000, 0.000, 0.000, 16:13:37.419, 1578579217419
129, -183626.56, -181148.52, -187500.02, 150053.14, -187500.02, 150086.55, -187500.02, -187500.02, 0.000, 0.000, 0.000, 16:13:37.419, 1578579217419
130, -180137.86, -180127.30, -180297.48, -180304.16, -180273.66, -180227.50, -180370.45, 187500.00, 0.000, 0.000, 0.000, 16:13:37.419, 1578579217419
131, -183625.50, -181147.20, -187500.02, 150093.55, -187500.02, 150132.55, -187500.02, -187500.02, 0.012, 0.042, 0.966, 16:13:37.419, 1578579217419
132, -180151.50, -180141.00, -180311.09, -180317.91, -180287.31, -180241.16, -180384.14, 187500.00, 0.000, 0.000, 0.000, 16:13:37.419, 1578579217419
133, -183625.70, -181146.98, -187500.02, 149639.41, -187500.02, 150168.06, -187500.02, -187500.02, 0.000, 0.000, 0.000, 16:13:37.419, 1578579217419
134, -180165.22, -180154.55, -180324.77, -180331.45, -180301.03, -180254.83, -180397.89, 187500.00, 0.000, 0.000, 0.000, 16:13:37.419, 1578579217419
135, -183625.98, -181146.52, -187500.02, 147311.52, -187500.02, 150170.23, -187500.02, -187500.02, 0.000, 0.000, 0.000, 16:13:37.419, 1578579217419
136, -180179.80, -180169.19, -180339.45, -180346.05, -180315.66, -180269.42, -180412.45, 187500.00, 0.000, 0.000, 0.000, 16:13:37.419, 1578579217419
137, -183626.38, -181145.66, -187500.02, 145003.34, -187500.02, 150164.92, -187500.02, -187500.02, 0.000, 0.000, 0.000, 16:13:37.419, 1578579217419
138, -180192.66, -180182.03, -180352.33, -180358.88, -180328.61, -180282.28, -180425.31, 187500.00, 0.000, 0.000, 0.000, 16:13:37.419, 1578579217419
139, -183624.16, -181142.48, -187500.02, 141911.31, -187500.02, 150159.55, -187500.02, -187500.02, 0.000, 0.000, 0.000, 16:13:37.419, 1578579217419
140, -180205.86, -180195.31, -180365.55, -180372.11, -180341.88, -180295.47, -180438.61, 187500.00, 0.000, 0.000, 0.000, 16:13:37.419, 1578579217419
141, -183621.70, -181139.25, -187500.02, 138995.81, -187500.02, 150157.38, -187500.02, -187500.02, 0.010, 0.048, 0.966, 16:13:37.419, 1578579217419
142, -180222.33, -180211.77, -180381.91, -180388.55, -180358.23, -180311.92, -180455.13, 187500.00, 0.000, 0.000, 0.000, 16:13:37.419, 1578579217419
143, -183623.11, -181139.64, -187500.02, 136703.67, -187500.02, 150159.17, -187500.02, -187500.02, 0.000, 0.000, 0.000, 16:13:37.419, 1578579217419
144, -180234.72, -180224.14, -180394.27, -180401.06, -180370.61, -180324.34, -180467.52, 187500.00, 0.000, 0.000, 0.000, 16:13:37.419, 1578579217419
145, -183624.09, -181139.67, -187500.02, 134857.41, -187500.02, 150160.38, -187500.02, -187500.02, 0.000, 0.000, 0.000, 16:13:37.420, 1578579217420
146, -180247.52, -180236.95, -180407.16, -180413.86, -180383.44, -180337.13, -180480.39, 187500.00, 0.000, 0.000, 0.000, 16:13:37.420, 1578579217420
147, -183626.39, -181141.14, -187500.02, 132810.31, -187500.02, 150162.72, -187500.02, -187500.02, 0.000, 0.000, 0.000, 16:13:37.420, 1578579217420
148, -180263.11, -180252.50, -180422.72, -180429.44, -180398.98, -180352.75, -180496.00, 187500.00, 0.000, 0.000, 0.000, 16:13:37.420, 1578579217420
149, -183625.63, -181139.42, -187500.02, 130260.89, -187500.02, 150162.08, -187500.02, -187500.02, 0.000, 0.000, 0.000, 16:13:37.420, 1578579217420
150, -180275.63, -180265.05, -180435.25, -180442.05, -180411.56, -180365.27, -180508.66, 187500.00, 0.000, 0.000, 0.000, 16:13:37.420, 1578579217420
151, -183624.20, -181137.09, -187500.02, 127738.72, -187500.02, 150160.75, -187500.02, -187500.02, 0.014, 0.048, 0.974, 16:13:37.420, 1578579217420
152, -180290.42, -180279.73, -180450.08, -180456.88, -180426.41, -180380.03, -180523.52, 187500.00, 0.000, 0.000, 0.000, 16:13:37.420, 1578579217420
153, -183627.11, -181139.11, -187500.02, 125704.66, -187500.02, 150163.42, -187500.02, -187500.02, 0.000, 0.000, 0.000, 16:13:37.420, 1578579217420
154, -180305.02, -180294.34, -180464.63, -180471.36, -180440.94, -180394.58, -180538.00, 187500.00, 0.000, 0.000, 0.000, 16:13:37.420, 1578579217420
155, -183629.50, -181140.75, -187500.02, 123605.74, -187500.02, 150165.55, -187500.02, -187500.02, 0.000, 0.000, 0.000, 16:13:37.420, 1578579217420
156, -180320.69, -180309.95, -180480.36, -180486.95, -180456.58, -180410.20, -180553.72, 187500.00, 0.000, 0.000, 0.000, 16:13:37.420, 1578579217420
157, -183630.13, -181140.28, -187500.02, 121063.05, -187500.02, 150165.34, -187500.02, -187500.02, 0.000, 0.000, 0.000, 16:13:37.420, 1578579217420
158, -180335.30, -180324.53, -180494.91, -180501.63, -180471.16, -180424.86, -180568.36, 187500.00, 0.000, 0.000, 0.000, 16:13:37.420, 1578579217420
159, -183630.77, -181139.94, -187500.02, 118867.47, -187500.02, 150165.19, -187500.02, -187500.02, 0.000, 0.000, 0.000, 16:13:37.420, 1578579217420
160, -180347.34, -180336.73, -180507.00, -180513.67, -180483.25, -180437.00, -180580.56, 187500.00, 0.012, 0.050, 0.962, 16:13:37.421, 1578579217421
161, -183630.48, -181138.80, -187500.02, 116547.06, -187500.02, 150163.17, -187500.02, -187500.02, 0.000, 0.000, 0.000, 16:13:37.421, 1578579217421
162, -180363.16, -180352.63, -180522.89, -180529.53, -180499.16, -180452.84, -180596.48, 187500.00, 0.000, 0.000, 0.000, 16:13:37.421, 1578579217421
163, -183632.56, -181140.03, -187500.02, 114544.86, -187500.02, 150154.56, -187500.02, -187500.02, 0.000, 0.000, 0.000, 16:13:37.421, 1578579217421
164, -180375.39, -180364.72, -180535.09, -180541.78, -180511.39, -180465.03, -180608.77, 187500.00, 0.000, 0.000, 0.000, 16:13:37.421, 1578579217421
165, -183632.50, -181139.00, -187500.02, 112636.27, -187500.02, 149647.30, -187500.02, -187500.02, 0.000, 0.000, 0.000, 16:13:37.421, 1578579217421
166, -180388.34, -180377.66, -180547.89, -180554.66, -180524.23, -180477.95, -180621.63, 187500.00, 0.000, 0.000, 0.000, 16:13:37.421, 1578579217421
167, -183632.38, -181137.97, -187500.02, 111512.85, -187500.02, 148582.81, -187500.02, -187500.02, 0.000, 0.000, 0.000, 16:13:37.421, 1578579217421
168, -180402.64, -180391.95, -180562.23, -180569.02, -180538.61, -180492.25, -180636.02, 187500.00, 0.000, 0.000, 0.000, 16:13:37.421, 1578579217421
169, -183631.17, -181135.84, -187500.02, 110076.39, -187500.02, 147127.25, -187500.02, -187500.02, 0.000, 0.000, 0.000, 16:13:37.421, 1578579217421
170, -180417.59, -180406.88, -180577.13, -180583.92, -180553.50, -180507.19, -180650.97, 187500.00, 0.028, 0.050, 0.952, 16:13:37.421, 1578579217421
171, -183632.72, -181136.50, -187500.02, 108881.60, -187500.02, 145962.47, -187500.02, -187500.02, 0.000, 0.000, 0.000, 16:13:37.421, 1578579217421
172, -180433.17, -180422.50, -180592.80, -180599.61, -180569.09, -180522.83, -180666.63, 187500.00, 0.000, 0.000, 0.000, 16:13:37.421, 1578579217421
173, -183633.05, -181135.78, -187500.02, 107743.25, -187500.02, 144842.86, -187500.02, -187500.02, 0.000, 0.000, 0.000, 16:13:37.421, 1578579217421
174, -180444.36, -180433.72, -180604.03, -180610.67, -180580.31, -180533.94, -180677.95, 187500.00, 0.000, 0.000, 0.000, 16:13:37.421, 1578579217421
175, -183632.09, -181133.95, -187500.02, 106511.18, -187500.02, 143643.70, -187500.02, -187500.02, 0.000, 0.000, 0.000, 16:13:37.421, 1578579217421
176, -180457.72, -180447.08, -180617.28, -180624.11, -180593.64, -180547.44, -180691.39, 187500.00, 0.000, 0.000, 0.000, 16:13:37.422, 1578579217422
177, -183632.03, -181133.02, -187500.02, 105398.84, -187500.02, 142653.50, -187500.02, -187500.02, 0.000, 0.000, 0.000, 16:13:37.422, 1578579217422
178, -180474.23, -180463.53, -180633.83, -180640.53, -180610.05, -180563.83, -180707.81, 187500.00, 0.000, 0.000, 0.000, 16:13:37.422, 1578579217422
179, -183628.11, -181128.58, -187500.02, 103798.97, -187500.02, 141339.66, -187500.02, -187500.02, 0.000, 0.000, 0.000, 16:13:37.422, 1578579217422
180, -180490.48, -180479.83, -180650.13, -180656.81, -180626.39, -180580.19, -180724.20, 187500.00, 0.042, 0.056, 0.950, 16:13:37.422, 1578579217422
181, -183626.81, -181126.48, -187500.02, 102623.88, -187500.02, 140209.98, -187500.02, -187500.02, 0.000, 0.000, 0.000, 16:13:37.422, 1578579217422
182, -180501.39, -180490.67, -180661.08, -180667.78, -180637.30, -180591.00, -180735.13, 187500.00, 0.000, 0.000, 0.000, 16:13:37.422, 1578579217422
183, -183626.69, -181125.72, -187500.02, 101706.06, -187500.02, 139323.88, -187500.02, -187500.02, 0.000, 0.000, 0.000, 16:13:37.422, 1578579217422
184, -180514.78, -180504.09, -180674.44, -180681.19, -180650.77, -180604.45, -180748.56, 187500.00, 0.000, 0.000, 0.000, 16:13:37.422, 1578579217422
185, -183626.14, -181124.45, -187500.02, 100574.95, -187500.02, 138212.47, -187500.02, -187500.02, 0.000, 0.000, 0.000, 16:13:37.422, 1578579217422
186, -180529.30, -180518.63, -180688.92, -180695.77, -180665.28, -180618.92, -180763.11, 187500.00, 0.000, 0.000, 0.000, 16:13:37.422, 1578579217422
187, -183625.03, -181122.61, -187500.02, 99338.81, -187500.02, 137010.84, -187500.02, -187500.02, 0.000, 0.000, 0.000, 16:13:37.422, 1578579217422
188, -180543.70, -180533.09, -180703.50, -180710.20, -180679.73, -180633.45, -180777.59, 187500.00, 0.000, 0.000, 0.000, 16:13:37.422, 1578579217422
189, -183622.80, -181119.59, -187500.02, 98053.73, -187500.02, 135753.78, -187500.02, -187500.02, 0.000, 0.000, 0.000, 16:13:37.422, 1578579217422
190, -180556.45, -180545.81, -180716.11, -180722.88, -180692.44, -180646.14, -180790.30, 187500.00, 0.004, 0.030, 0.954, 16:13:37.422, 1578579217422
191, -183619.58, -181115.78, -187500.02, 96740.98, -187500.02, 134436.73, -187500.02, -187500.02, 0.000, 0.000, 0.000, 16:13:37.422, 1578579217422
192, -180570.64, -180560.02, -180730.34, -180737.09, -180706.73, -180660.27, -180804.63, 187500.00, 0.000, 0.000, 0.000, 16:13:37.423, 1578579217423
193, -183622.02, -181117.34, -187500.02, 95870.79, -187500.02, 133571.81, -187500.02, -187500.02, 0.000, 0.000, 0.000, 16:13:37.423, 1578579217423
194, -180583.33, -180572.70, -180743.11, -180749.81, -180719.41, -180672.98, -180817.41, 187500.00, 0.000, 0.000, 0.000, 16:13:37.423, 1578579217423
195, -183622.80, -181117.25, -187500.02, 94855.68, -187500.02, 132562.84, -187500.02, -187500.02, 0.000, 0.000, 0.000, 16:13:37.423, 1578579217423
196, -180598.05, -180587.31, -180757.75, -180764.55, -180734.02, -180687.66, -180832.09, 187500.00, 0.000, 0.000, 0.000, 16:13:37.423, 1578579217423
197, -183619.75, -181113.36, -187500.02, 93618.71, -187500.02, 131343.61, -187500.02, -187500.02, 0.000, 0.000, 0.000, 16:13:37.423, 1578579217423
198, -180609.75, -180599.05, -180769.44, -180776.25, -180745.78, -180699.44, -180843.80, 187500.00, 0.000, 0.000, 0.000, 16:13:37.423, 1578579217423
199, -183621.03, -181113.98, -187500.02, 92712.51, -187500.02, 130465.81, -187500.02, -187500.02, 0.000, 0.000, 0.000, 16:13:37.423, 1578579217423
200, -180621.41, -180610.78, -180781.08, -180787.92, -180757.50, -180711.13, -180855.56, 187500.00, -0.004, 0.036, 0.976, 16:13:37.423, 1578579217423
201, -183624.94, -181117.03, -187500.02, 92028.72, -187500.02, 129804.94, -187500.02, -187500.02, 0.000, 0.000, 0.000, 16:13:37.423, 1578579217423
202, -180636.80, -180626.05, -180796.45, -180803.33, -180772.81, -180726.44, -180870.98, 187500.00, 0.000, 0.000, 0.000, 16:13:37.423, 1578579217423
203, -183624.42, -181115.64, -187500.02, 90844.23, -187500.02, 128650.89, -187500.02, -187500.02, 0.000, 0.000, 0.000, 16:13:37.423, 1578579217423
204, -180649.97, -180639.19, -180809.69, -180816.39, -180785.94, -180739.58, -180884.09, 187500.00, 0.000, 0.000, 0.000, 16:13:37.423, 1578579217423
205, -183622.41, -181112.72, -187500.02, 89486.37, -187500.02, 127326.24, -187500.02, -187500.02, 0.000, 0.000, 0.000, 16:13:37.423, 1578579217423
206, -180664.52, -180653.67, -180824.13, -180830.92, -180800.45, -180753.98, -180898.72, 187500.00, 0.000, 0.000, 0.000, 16:13:37.423, 1578579217423
207, -183622.02, -181111.58, -187500.02, 88464.36, -187500.02, 126328.84, -187500.02, -187500.02, 0.000, 0.000, 0.000, 16:13:37.424, 1578579217424
208, -180675.52, -180664.73, -180835.23, -180841.98, -180811.55, -180765.08, -180909.77, 187500.00, 0.000, 0.000, 0.000, 16:13:37.424, 1578579217424
209, -183623.39, -181112.11, -187500.02, 87540.83, -187500.02, 125448.98, -187500.02, -187500.02, 0.004, 0.048, 0.968, 16:13:37.424, 1578579217424
210, -180690.27, -180679.58, -180850.03, -180856.81, -180826.45, -180779.92, -180924.69, 187500.00, 0.000, 0.000, 0.000, 16:13:37.424, 1578579217424
211, -183625.88, -181113.83, -187500.02, 86639.88, -187500.02, 124556.25, -187500.02, -187500.02, 0.000, 0.000, 0.000, 16:13:37.424, 1578579217424
212, -180703.61, -180692.91, -180863.47, -180870.27, -180839.78, -180793.27, -180938.14, 187500.00, 0.000, 0.000, 0.000, 16:13:37.424, 1578579217424
213, -183623.16, -181110.14, -187500.02, 85437.35, -187500.02, 123384.42, -187500.02, -187500.02, 0.000, 0.000, 0.000, 16:13:37.424, 1578579217424
214, -180714.34, -180703.61, -180874.09, -180880.91, -180850.34, -180803.92, -180948.78, 187500.00, 0.000, 0.000, 0.000, 16:13:37.424, 1578579217424
215, -183621.63, -181107.80, -187500.02, 84323.49, -187500.02, 122288.91, -187500.02, -187500.02, 0.000, 0.000, 0.000, 16:13:37.424, 1578579217424
216, -180728.98, -180718.11, -180888.64, -180895.50, -180865.03, -180818.52, -180963.42, 187500.00, 0.000, 0.000, 0.000, 16:13:37.424, 1578579217424
217, -183626.55, -181111.94, -187500.02, 83513.83, -187500.02, 121505.58, -187500.02, -187500.02, 0.000, 0.000, 0.000, 16:13:37.424, 1578579217424
218, -180741.25, -180730.61, -180901.05, -180907.95, -180877.42, -180830.92, -180975.81, 187500.00, 0.000, 0.000, 0.000, 16:13:37.424, 1578579217424
219, -183626.75, -181111.22, -187500.02, 82771.50, -187500.02, 120793.18, -187500.02, -187500.02, 0.014, 0.058, 0.968, 16:13:37.424, 1578579217424
220, -180752.67, -180741.88, -180912.47, -180919.23, -180888.73, -180842.27, -180987.19, 187500.00, 0.000, 0.000, 0.000, 16:13:37.424, 1578579217424
221, -183625.61, -181109.25, -187500.02, 81465.18, -187500.02, 119508.23, -187500.02, -187500.02, 0.000, 0.000, 0.000, 16:13:37.424, 1578579217424
222, -180767.94, -180757.28, -180927.84, -180934.50, -180904.03, -180857.55, -181002.50, 187500.00, 0.000, 0.000, 0.000, 16:13:37.424, 1578579217424
223, -183625.91, -181108.77, -187500.02, 80554.95, -187500.02, 118628.05, -187500.02, -187500.02, 0.000, 0.000, 0.000, 16:13:37.424, 1578579217424
224, -180778.84, -180768.09, -180938.58, -180945.44, -180914.88, -180868.48, -181013.47, 187500.00, 0.000, 0.000, 0.000, 16:13:37.900, 1578579217900
225, -183626.86, -181108.92, -187500.02, 79490.29, -187500.02, 117595.54, -187500.02, -187500.02, 0.000, 0.000, 0.000, 16:13:37.900, 1578579217900
226, -180793.33, -180782.77, -180953.23, -180959.94, -180929.47, -180883.13, -181028.19, 187500.00, 0.000, 0.000, 0.000, 16:13:37.900, 1578579217900
227, -183628.97, -181110.05, -187500.02, 78631.78, -187500.02, 116774.96, -187500.02, -187500.02, 0.000, 0.000, 0.000, 16:13:37.900, 1578579217900
228, -180806.78, -180796.11, -180966.53, -180973.38, -180942.91, -180896.44, -181041.55, 187500.00, 0.000, 0.000, 0.000, 16:13:37.900, 1578579217900
229, -183632.14, -181112.42, -187500.02, 77759.39, -187500.02, 115926.02, -187500.02, -187500.02, 0.008, 0.058, 0.968, 16:13:37.900, 1578579217900
230, -180819.64, -180808.89, -180979.47, -180986.30, -180955.77, -180909.30, -181054.48, 187500.00, 0.000, 0.000, 0.000, 16:13:37.900, 1578579217900
231, -183632.63, -181112.09, -187500.02, 76823.30, -187500.02, 115009.84, -187500.02, -187500.02, 0.000, 0.000, 0.000, 16:13:37.901, 1578579217901
232, -180834.23, -180823.55, -180994.14, -181000.98, -180970.41, -180924.00, -181069.17, 187500.00, 0.000, 0.000, 0.000, 16:13:37.901, 1578579217901
233, -183634.75, -181113.42, -187500.02, 75712.42, -187500.02, 113938.15, -187500.02, -187500.02, 0.000, 0.000, 0.000, 16:13:37.901, 1578579217901
234, -180847.13, -180836.47, -181007.11, -181013.78, -180983.36, -180936.83, -181082.11, 187500.00, 0.000, 0.000, 0.000, 16:13:37.901, 1578579217901
235, -183629.95, -181107.75, -187500.02, 74423.73, -187500.02, 112684.59, -187500.02, -187500.02, 0.000, 0.000, 0.000, 16:13:37.901, 1578579217901
236, -180860.09, -180849.45, -181020.11, -181026.69, -180996.28, -180949.81, -181095.08, 187500.00, 0.000, 0.000, 0.000, 16:13:37.901, 1578579217901
237, -183628.77, -181105.77, -187500.02, 73220.76, -187500.02, 111518.23, -187500.02, -187500.02, 0.000, 0.000, 0.000, 16:13:37.901, 1578579217901
238, -180872.72, -180862.13, -181032.73, -181039.38, -181008.94, -180962.48, -181107.81, 187500.00, 0.000, 0.000, 0.000, 16:13:37.902, 1578579217902
239, -183631.84, -181107.95, -187500.02, 72407.63, -187500.02, 110736.44, -187500.02, -187500.02, 0.010, 0.068, 0.972, 16:13:37.902, 1578579217902
240, -180886.78, -180876.28, -181046.86, -181053.59, -181023.08, -180976.56, -181121.97, 187500.00, 0.000, 0.000, 0.000, 16:13:37.902, 1578579217902
241, -183634.22, -181109.67, -187500.02, 71614.00, -187500.02, 109977.44, -187500.02, -187500.02, 0.000, 0.000, 0.000, 16:13:37.902, 1578579217902
242, -180898.86, -180888.23, -181059.03, -181065.59, -181035.06, -180988.59, -181134.03, 187500.00, 0.000, 0.000, 0.000, 16:13:37.902, 1578579217902
243, -183634.58, -181109.27, -187500.02, 70586.05, -187500.02, 108976.20, -187500.02, -187500.02, 0.000, 0.000, 0.000, 16:13:37.902, 1578579217902
244, -180913.52, -180902.91, -181073.64, -181080.17, -181049.75, -181003.23, -181148.67, 187500.00, 0.000, 0.000, 0.000, 16:13:37.902, 1578579217902
245, -183635.28, -181109.03, -187500.02, 69410.93, -187500.02, 107846.65, -187500.02, -187500.02, 0.000, 0.000, 0.000, 16:13:37.902, 1578579217902
246, -180926.92, -180916.27, -181086.98, -181093.53, -181063.08, -181016.64, -181162.17, 187500.00, 0.000, 0.000, 0.000, 16:13:37.903, 1578579217903
247, -183635.25, -181108.00, -187500.02, 68517.39, -187500.02, 106975.65, -187500.02, -187500.02, 0.000, 0.000, 0.000, 16:13:37.903, 1578579217903
248, -180938.81, -180928.14, -181098.88, -181105.36, -181074.97, -181028.50, -181174.11, 187500.00, 0.008, 0.050, 0.972, 16:13:37.903, 1578579217903
249, -183635.56, -181107.42, -187500.02, 67425.51, -187500.02, 105916.38, -187500.02, -187500.02, 0.000, 0.000, 0.000, 16:13:37.903, 1578579217903
250, -180951.53, -180940.86, -181111.44, -181118.13, -181087.70, -181041.22, -181186.83, 187500.00, 0.000, 0.000, 0.000, 16:13:37.903, 1578579217903
251, -183637.03, -181108.25, -187500.02, 66714.75, -187500.02, 105235.02, -187500.02, -187500.02, 0.000, 0.000, 0.000, 16:13:37.903, 1578579217903
252, -180963.45, -180952.72, -181123.33, -181130.08, -181099.61, -181053.17, -181198.72, 187500.00, 0.000, 0.000, 0.000, 16:13:37.903, 1578579217903
253, -183636.00, -181106.30, -187500.02, 65513.18, -187500.02, 104054.45, -187500.02, -187500.02, 0.000, 0.000, 0.000, 16:13:37.904, 1578579217904
254, -180976.97, -180966.31, -181136.88, -181143.53, -181113.20, -181066.69, -181212.34, 187500.00, 0.000, 0.000, 0.000, 16:13:37.904, 1578579217904
255, -183633.88, -181103.50, -187500.02, 64262.29, -187500.02, 102834.59, -187500.02, -187500.02, 0.000, 0.000, 0.000, 16:13:37.904, 1578579217904
0, -180990.98, -180980.23, -181150.94, -181157.59, -181127.17, -181080.69, -181226.34, 187500.00, 0.000, 0.000, 0.000, 16:13:37.904, 1578579217904
1, -183635.78, -181104.44, -187500.02, 63390.44, -187500.02, 101989.76, -187500.02, -187500.02, 0.000, 0.000, 0.000, 16:13:37.904, 1578579217904
2, -181003.19, -180992.47, -181163.09, -181169.75, -181139.41, -181092.89, -181238.58, 187500.00, 0.014, 0.054, 0.966, 16:13:37.904, 1578579217904
3, -183634.84, -181102.72, -187500.02, 62278.60, -187500.02, 100918.16, -187500.02, -187500.02, 0.000, 0.000, 0.000, 16:13:37.904, 1578579217904
4, -181015.47, -181004.84, -181175.44, -181182.09, -181151.72, -181105.14, -181251.00, 187500.00, 0.000, 0.000, 0.000, 16:13:37.904, 1578579217904
5, -183631.13, -181098.16, -187500.02, 61071.16, -187500.02, 99736.16, -187500.02, -187500.02, 0.000, 0.000, 0.000, 16:13:37.904, 1578579217904
6, -181027.73, -181016.98, -181187.69, -181194.30, -181163.97, -181117.41, -181263.25, 187500.00, 0.000, 0.000, 0.000, 16:13:37.904, 1578579217904
7, -183633.13, -181099.27, -187500.02, 60142.91, -187500.02, 98845.80, -187500.02, -187500.02, 0.000, 0.000, 0.000, 16:13:37.905, 1578579217905
8, -181041.44, -181030.77, -181201.39, -181208.06, -181177.58, -181131.17, -181277.09, 187500.00, 0.000, 0.000, 0.000, 16:13:37.905, 1578579217905
9, -183636.30, -181101.67, -187500.02, 59285.14, -187500.02, 98010.30, -187500.02, -187500.02, 0.000, 0.000, 0.000, 16:13:37.905, 1578579217905
10, -181055.05, -181044.34, -181215.02, -181221.67, -181191.34, -181144.91, -181290.72, 187500.00, 0.000, 0.000, 0.000, 16:13:37.905, 1578579217905
11, -183636.94, -181101.47, -187500.02, 58381.12, -187500.02, 97147.88, -187500.02, -187500.02, 0.000, 0.000, 0.000, 16:13:37.905, 1578579217905
12, -181067.27, -181056.45, -181227.14, -181233.86, -181203.44, -181156.92, -181302.91, 187500.00, 0.012, 0.052, 0.956, 16:13:37.905, 1578579217905
13, -183633.34, -181097.06, -187500.02, 57050.95, -187500.02, 95828.45, -187500.02, -187500.02, 0.000, 0.000, 0.000, 16:13:37.905, 1578579217905
14, -181079.98, -181069.27, -181239.97, -181246.72, -181216.19, -181169.73, -181315.73, 187500.00, 0.000, 0.000, 0.000, 16:13:37.905, 1578579217905
15, -183636.61, -181099.48, -187500.02, 56143.82, -187500.02, 94915.38, -187500.02, -187500.02, 0.000, 0.000, 0.000, 16:13:37.905, 1578579217905
16, -181095.45, -181084.75, -181255.47, -181262.16, -181231.63, -181185.20, -181331.20, 187500.00, 0.000, 0.000, 0.000, 16:13:37.906, 1578579217906
17, -183636.67, -181098.75, -187500.02, 55193.16, -187500.02, 93967.00, -187500.02, -187500.02, 0.000, 0.000, 0.000, 16:13:37.906, 1578579217906
18, -181105.25, -181094.52, -181265.20, -181271.88, -181241.50, -181194.91, -181341.00, 187500.00, 0.000, 0.000, 0.000, 16:13:37.906, 1578579217906
19, -183639.16, -181100.36, -187500.02, 54648.47, -187500.02, 93426.76, -187500.02, -187500.02, 0.000, 0.000, 0.000, 16:13:37.906, 1578579217906
20, -181116.06, -181105.27, -181276.06, -181282.72, -181252.28, -181205.77, -181351.81, 187500.00, 0.000, 0.000, 0.000, 16:13:37.906, 1578579217906
21, -183638.22, -181098.55, -187500.02, 53524.02, -187500.02, 92301.73, -187500.02, -187500.02, 0.000, 0.000, 0.000, 16:13:37.906, 1578579217906
22, -181130.48, -181119.63, -181290.48, -181297.09, -181266.58, -181220.16, -181366.34, 187500.00, 0.008, 0.052, 0.962, 16:13:37.906, 1578579217906
23, -183635.59, -181095.08, -187500.02, 52207.84, -187500.02, 90980.70, -187500.02, -187500.02, 0.000, 0.000, 0.000, 16:13:37.906, 1578579217906
24, -181142.39, -181131.72, -181302.45, -181309.08, -181278.70, -181232.20, -181378.36, 187500.00, 0.000, 0.000, 0.000, 16:13:37.906, 1578579217906
25, -183639.20, -181097.78, -187500.02, 51631.43, -187500.02, 90403.13, -187500.02, -187500.02, 0.000, 0.000, 0.000, 16:13:37.907, 1578579217907
26, -181153.73, -181143.06, -181313.83, -181320.39, -181290.02, -181243.53, -181389.67, 187500.00, 0.000, 0.000, 0.000, 16:13:37.907, 1578579217907
27, -183637.67, -181095.48, -187500.02, 50618.81, -187500.02, 89374.48, -187500.02, -187500.02, 0.000, 0.000, 0.000, 16:13:37.907, 1578579217907
28, -181167.78, -181157.03, -181327.78, -181334.44, -181303.98, -181257.48, -181403.69, 187500.00, 0.000, 0.000, 0.000, 16:13:37.907, 1578579217907
29, -183635.89, -181092.78, -187500.02, 49369.01, -187500.02, 88117.10, -187500.02, -187500.02, 0.000, 0.000, 0.000, 16:13:37.907, 1578579217907
30, -181180.73, -181169.80, -181340.59, -181347.30, -181316.89, -181270.31, -181416.59, 187500.00, 0.000, 0.000, 0.000, 16:13:37.907, 1578579217907
31, -183633.64, -181089.67, -187500.02, 48083.72, -187500.02, 86819.65, -187500.02, -187500.02, 0.008, 0.050, 0.972, 16:13:37.907, 1578579217907
32, -181191.95, -181181.25, -181352.03, -181358.78, -181328.25, -181281.73, -181428.05, 187500.00, 0.000, 0.000, 0.000, 16:13:37.907, 1578579217907
33, -183634.19, -181089.42, -187500.02, 47350.00, -187500.02, 86082.27, -187500.02, -187500.02, 0.000, 0.000, 0.000, 16:13:37.908, 1578579217908
34, -181204.02, -181193.31, -181364.13, -181370.77, -181340.28, -181293.67, -181440.17, 187500.00, 0.000, 0.000, 0.000, 16:13:37.908, 1578579217908
35, -183634.77, -181089.09, -187500.02, 46319.14, -187500.02, 85069.71, -187500.02, -187500.02, 0.000, 0.000, 0.000, 16:13:37.908, 1578579217908
36, -181218.64, -181207.94, -181378.75, -181385.39, -181355.00, -181308.31, -181454.83, 187500.00, 0.000, 0.000, 0.000, 16:13:37.908, 1578579217908
37, -183636.22, -181089.61, -187500.02, 45307.32, -187500.02, 84057.33, -187500.02, -187500.02, 0.000, 0.000, 0.000, 16:13:37.908, 1578579217908
38, -181230.13, -181219.47, -181390.28, -181396.89, -181366.50, -181319.95, -181466.31, 187500.00, 0.000, 0.000, 0.000, 16:13:37.908, 1578579217908
39, -183637.70, -181090.23, -187500.02, 44538.11, -187500.02, 83311.01, -187500.02, -187500.02, 0.000, 0.000, 0.000, 16:13:37.908, 1578579217908
40, -181242.13, -181231.53, -181402.44, -181409.02, -181378.56, -181332.13, -181478.45, 187500.00, 0.000, 0.000, 0.000, 16:13:37.908, 1578579217908
41, -183637.08, -181088.81, -187500.02, 43528.28, -187500.02, 82345.90, -187500.02, -187500.02, 0.010, 0.048, 0.958, 16:13:37.908, 1578579217908
42, -181253.11, -181242.48, -181413.30, -181419.94, -181389.47, -181342.98, -181489.50, 187500.00, 0.000, 0.000, 0.000, 16:13:37.908, 1578579217908
43, -183639.94, -181090.77, -187500.02, 42882.87, -187500.02, 81741.80, -187500.02, -187500.02, 0.000, 0.000, 0.000, 16:13:37.908, 1578579217908
44, -181265.27, -181254.47, -181425.39, -181431.94, -181401.55, -181354.97, -181501.39, 187500.00, 0.000, 0.000, 0.000, 16:13:37.909, 1578579217909
45, -183639.58, -181089.45, -187500.02, 41840.63, -187500.02, 80745.41, -187500.02, -187500.02, 0.000, 0.000, 0.000, 16:13:37.909, 1578579217909
46, -181276.78, -181266.00, -181436.91, -181443.59, -181413.08, -181366.55, -181513.03, 187500.00, 0.000, 0.000, 0.000, 16:13:37.909, 1578579217909
47, -183640.08, -181089.06, -187500.02, 40882.64, -187500.02, 79826.23, -187500.02, -187500.02, 0.000, 0.000, 0.000, 16:13:37.909, 1578579217909
48, -181290.17, -181279.50, -181450.27, -181456.91, -181426.38, -181379.97, -181526.36, 187500.00, 0.000, 0.000, 0.000, 16:13:37.909, 1578579217909
49, -183637.03, -181085.17, -187500.02, 39602.68, -187500.02, 78586.97, -187500.02, -187500.02, 0.000, 0.000, 0.000, 16:13:37.909, 1578579217909
50, -181301.41, -181290.83, -181461.45, -181468.08, -181437.66, -181391.17, -181537.69, 187500.00, 0.000, 0.000, 0.000, 16:13:37.909, 1578579217909
51, -183638.48, -181085.72, -187500.02, 38872.86, -187500.02, 77913.66, -187500.02, -187500.02, 0.008, 0.046, 0.958, 16:13:37.909, 1578579217909
52, -181313.09, -181302.41, -181473.20, -181479.80, -181449.31, -181402.81, -181549.42, 187500.00, 0.000, 0.000, 0.000, 16:13:37.909, 1578579217909
53, -183639.94, -181086.34, -187500.02, 37927.98, -187500.02, 77002.61, -187500.02, -187500.02, 0.000, 0.000, 0.000, 16:13:37.909, 1578579217909
54, -181326.13, -181315.38, -181486.22, -181492.81, -181462.31, -181415.77, -181562.39, 187500.00, 0.000, 0.000, 0.000, 16:13:37.909, 1578579217909
55, -183642.27, -181087.86, -187500.02, 37123.12, -187500.02, 76239.14, -187500.02, -187500.02, 0.000, 0.000, 0.000, 16:13:37.909, 1578579217909
56, -181338.67, -181328.03, -181498.86, -181505.41, -181474.91, -181428.39, -181574.95, 187500.00, 0.000, 0.000, 0.000, 16:13:37.909, 1578579217909
57, -183641.30, -181086.00, -187500.02, 35969.39, -187500.02, 75122.73, -187500.02, -187500.02, 0.000, 0.000, 0.000, 16:13:37.909, 1578579217909
58, -181349.86, -181339.39, -181510.13, -181516.72, -181486.22, -181439.70, -181586.33, 187500.00, 0.000, 0.000, 0.000, 16:13:37.909, 1578579217909
59, -183641.97, -181085.89, -187500.02, 35198.97, -187500.02, 74381.10, -187500.02, -187500.02, 0.000, 0.000, 0.000, 16:13:37.910, 1578579217910
60, -181362.11, -181351.55, -181522.41, -181529.03, -181498.42, -181452.02, -181598.48, 187500.00, 0.000, 0.000, 0.000, 16:13:37.910, 1578579217910
61, -183639.98, -181083.05, -187500.02, 33981.22, -187500.02, 73207.34, -187500.02, -187500.02, 0.010, 0.050, 0.958, 16:13:37.910, 1578579217910
62, -181374.77, -181364.17, -181535.05, -181541.64, -181511.16, -181464.59, -181611.11, 187500.00, 0.000, 0.000, 0.000, 16:13:37.910, 1578579217910
63, -183640.14, -181082.16, -187500.02, 32984.71, -187500.02, 72251.36, -187500.02, -187500.02, 0.000, 0.000, 0.000, 16:13:37.910, 1578579217910
64, -181385.34, -181374.63, -181545.52, -181552.08, -181521.64, -181475.13, -181621.63, 187500.00, 0.000, 0.000, 0.000, 16:13:37.910, 1578579217910
65, -183641.64, -181082.78, -187500.02, 32302.18, -187500.02, 71596.10, -187500.02, -187500.02, 0.000, 0.000, 0.000, 16:13:37.910, 1578579217910
66, -181397.59, -181387.03, -181557.80, -181564.44, -181534.02, -181487.47, -181634.05, 187500.00, 0.000, 0.000, 0.000, 16:13:37.910, 1578579217910
67, -183641.59, -181081.91, -187500.02, 31357.87, -187500.02, 70684.62, -187500.02, -187500.02, 0.000, 0.000, 0.000, 16:13:37.910, 1578579217910
68, -181408.05, -181397.34, -181568.11, -181574.86, -181544.39, -181497.86, -181644.34, 187500.00, 0.000, 0.000, 0.000, 16:13:37.910, 1578579217910
69, -183639.02, -181078.38, -187500.02, 30161.00, -187500.02, 69524.54, -187500.02, -187500.02, 0.000, 0.000, 0.000, 16:13:37.910, 1578579217910
70, -181421.89, -181411.09, -181581.97, -181588.47, -181558.08, -181511.69, -181658.16, 187500.00, 0.004, 0.044, 0.960, 16:13:37.910, 1578579217910
71, -183641.59, -181080.08, -187500.02, 29369.86, -187500.02, 68755.66, -187500.02, -187500.02, 0.000, 0.000, 0.000, 16:13:37.910, 1578579217910
72, -181434.06, -181423.31, -181594.19, -181600.75, -181570.33, -181523.83, -181670.39, 187500.00, 0.000, 0.000, 0.000, 16:13:37.910, 1578579217910
73, -183643.94, -181081.67, -187500.02, 28483.50, -187500.02, 67901.16, -187500.02, -187500.02, 0.000, 0.000, 0.000, 16:13:37.910, 1578579217910
74, -181445.06, -181434.41, -181605.22, -181611.81, -181581.45, -181534.94, -181681.50, 187500.00, 0.000, 0.000, 0.000, 16:13:37.910, 1578579217910
75, -183646.75, -181083.61, -187500.02, 27951.68, -187500.02, 67395.27, -187500.02, -187500.02, 0.000, 0.000, 0.000, 16:13:37.911, 1578579217911
76, -181454.72, -181443.98, -181614.94, -181621.53, -181591.13, -181544.59, -181691.16, 187500.00, 0.000, 0.000, 0.000, 16:13:37.911, 1578579217911
77, -183646.19, -181082.11, -187500.02, 27106.74, -187500.02, 66582.02, -187500.02, -187500.02, 0.000, 0.000, 0.000, 16:13:37.911, 1578579217911
78, -181466.50, -181455.83, -181626.69, -181633.28, -181602.89, -181556.44, -181702.88, 187500.00, 0.000, 0.000, 0.000, 16:13:37.911, 1578579217911
79, -183645.08, -181080.11, -187500.02, 25886.94, -187500.02, 65369.20, -187500.02, -187500.02, 0.000, 0.000, 0.000, 16:13:37.911, 1578579217911
80, -181479.38, -181468.69, -181639.48, -181646.09, -181615.70, -181569.19, -181715.66, 187500.00, 0.014, 0.046, 0.972, 16:13:37.911, 1578579217911
81, -183643.72, -181077.88, -187500.02, 24922.11, -187500.02, 64448.82, -187500.02, -187500.02, 0.000, 0.000, 0.000, 16:13:37.911, 1578579217911
82, -181489.92, -181479.23, -181650.08, -181656.69, -181626.14, -181579.78, -181726.36, 187500.00, 0.000, 0.000, 0.000, 16:13:37.911, 1578579217911
83, -183643.42, -181076.73, -187500.02, 23988.07, -187500.02, 63525.38, -187500.02, -187500.02, 0.000, 0.000, 0.000, 16:13:37.911, 1578579217911
84, -181503.09, -181492.36, -181663.28, -181669.86, -181639.33, -181592.89, -181739.44, 187500.00, 0.000, 0.000, 0.000, 16:13:37.911, 1578579217911
85, -183643.56, -181075.95, -187500.02, 22860.13, -187500.02, 62424.44, -187500.02, -187500.02, 0.000, 0.000, 0.000, 16:13:37.911, 1578579217911
86, -181515.31, -181504.58, -181675.44, -181682.06, -181651.61, -181605.14, -181751.59, 187500.00, 0.000, 0.000, 0.000, 16:13:37.911, 1578579217911
87, -183645.80, -181077.33, -187500.02, 22097.94, -187500.02, 61677.76, -187500.02, -187500.02, 0.000, 0.000, 0.000, 16:13:37.911, 1578579217911
88, -181526.64, -181515.81, -181686.70, -181693.45, -181662.98, -181616.48, -181763.06, 187500.00, 0.000, 0.000, 0.000, 16:13:37.911, 1578579217911
89, -183643.16, -181073.83, -187500.02, 21029.97, -187500.02, 60620.59, -187500.02, -187500.02, 0.000, 0.000, 0.000, 16:13:38.377, 1578579218377
90, -181537.20, -181526.52, -181697.34, -181704.00, -181673.44, -181627.00, -181773.67, 187500.00, 0.014, 0.042, 0.970, 16:13:38.377, 1578579218377
91, -183640.72, -181070.52, -187500.02, 20021.98, -187500.02, 59666.46, -187500.02, -187500.02, 0.000, 0.000, 0.000, 16:13:38.377, 1578579218377
92, -181549.02, -181538.31, -181709.19, -181715.91, -181685.34, -181638.86, -181785.48, 187500.00, 0.000, 0.000, 0.000, 16:13:38.377, 1578579218377
93, -183641.75, -181070.58, -187500.02, 18939.79, -187500.02, 58586.36, -187500.02, -187500.02, 0.000, 0.000, 0.000, 16:13:38.377, 1578579218377
94, -181563.19, -181552.38, -181723.20, -181730.00, -181699.38, -181652.98, -181799.58, 187500.00, 0.000, 0.000, 0.000, 16:13:38.377, 1578579218377
95, -183643.92, -181071.86, -187500.02, 18097.94, -187500.02, 57783.06, -187500.02, -187500.02, 0.000, 0.000, 0.000, 16:13:38.377, 1578579218377
96, -181574.97, -181564.27, -181735.13, -181741.80, -181711.39, -181664.80, -181811.44, 187500.00, 0.000, 0.000, 0.000, 16:13:38.377, 1578579218377
97, -183642.91, -181069.95, -187500.02, 17094.99, -187500.02, 56811.36, -187500.02, -187500.02, 0.000, 0.000, 0.000, 16:13:38.377, 1578579218377
98, -181587.05, -181576.38, -181747.23, -181754.02, -181723.47, -181676.92, -181823.56, 187500.00, 0.000, 0.000, 0.000, 16:13:38.378, 1578579218378
99, -183646.27, -181072.45, -187500.02, 16264.69, -187500.02, 56001.00, -187500.02, -187500.02, 0.000, 0.000, 0.000, 16:13:38.378, 1578579218378
100, -181600.52, -181589.81, -181760.64, -181767.39, -181736.78, -181690.39, -181837.05, 187500.00, 0.014, 0.044, 0.976, 16:13:38.378, 1578579218378
101, -183648.23, -181073.44, -187500.02, 15450.93, -187500.02, 55228.81, -187500.02, -187500.02, 0.000, 0.000, 0.000, 16:13:38.378, 1578579218378
102, -181608.95, -181598.22, -181769.09, -181775.78, -181745.25, -181698.75, -181845.38, 187500.00, 0.000, 0.000, 0.000, 16:13:38.378, 1578579218378
103, -183647.89, -181072.30, -187500.02, 14852.73, -187500.02, 54667.38, -187500.02, -187500.02, 0.000, 0.000, 0.000, 16:13:38.378, 1578579218378
104, -181618.80, -181608.16, -181778.94, -181785.64, -181755.14, -181708.59, -181855.23, 187500.00, 0.000, 0.000, 0.000, 16:13:38.378, 1578579218378
105, -183646.78, -181070.31, -187500.02, 13747.35, -187500.02, 53571.86, -187500.02, -187500.02, 0.000, 0.000, 0.000, 16:13:38.378, 1578579218378
106, -181630.98, -181620.25, -181791.11, -181797.80, -181767.17, -181720.70, -181867.44, 187500.00, 0.000, 0.000, 0.000, 16:13:38.379, 1578579218379
107, -183649.64, -181072.17, -187500.02, 13036.01, -187500.02, 52912.43, -187500.02, -187500.02, 0.000, 0.000, 0.000, 16:13:38.379, 1578579218379
108, -181644.27, -181633.52, -181804.41, -181811.11, -181780.52, -181734.08, -181880.77, 187500.00, 0.000, 0.000, 0.000, 16:13:38.379, 1578579218379
109, -183650.23, -181071.83, -187500.02, 12046.45, -187500.02, 51932.64, -187500.02, -187500.02, 0.000, 0.000, 0.000, 16:13:38.379, 1578579218379
110, -181655.55, -181644.80, -181815.63, -181822.36, -181791.81, -181745.42, -181892.09, 187500.00, 0.010, 0.040, 0.958, 16:13:38.379, 1578579218379
111, -183649.75, -181070.56, -187500.02, 11120.66, -187500.02, 51033.93, -187500.02, -187500.02, 0.000, 0.000, 0.000, 16:13:38.379, 1578579218379
112, -181667.16, -181656.33, -181827.30, -181833.94, -181803.42, -181757.00, -181903.63, 187500.00, 0.000, 0.000, 0.000, 16:13:38.379, 1578579218379
113, -183648.98, -181068.97, -187500.02, 10041.03, -187500.02, 49995.38, -187500.02, -187500.02, 0.000, 0.000, 0.000, 16:13:38.379, 1578579218379
114, -181679.63, -181668.95, -181839.86, -181846.55, -181815.98, -181769.44, -181916.13, 187500.00, 0.000, 0.000, 0.000, 16:13:38.379, 1578579218379
115, -183648.09, -181067.16, -187500.02, 9021.19, -187500.02, 48997.32, -187500.02, -187500.02, 0.000, 0.000, 0.000, 16:13:38.379, 1578579218379
116, -181690.03, -181679.22, -181850.14, -181856.80, -181826.31, -181779.84, -181926.50, 187500.00, 0.000, 0.000, 0.000, 16:13:38.379, 1578579218379
117, -183648.70, -181066.83, -187500.02, 8317.31, -187500.02, 48302.07, -187500.02, -187500.02, 0.000, 0.000, 0.000, 16:13:38.379, 1578579218379
118, -181700.50, -181689.80, -181860.72, -181867.38, -181836.73, -181790.36, -181937.00, 187500.00, 0.000, 0.000, 0.000, 16:13:38.379, 1578579218379
119, -183645.09, -181062.25, -187500.02, 6992.16, -187500.02, 46998.83, -187500.02, -187500.02, 0.008, 0.042, 0.966, 16:13:38.380, 1578579218380
120, -181713.16, -181702.39, -181873.44, -181880.05, -181849.50, -181803.00, -181949.61, 187500.00, 0.000, 0.000, 0.000, 16:13:38.380, 1578579218380
121, -183641.81, -181058.22, -187500.02, 5769.77, -187500.02, 45805.56, -187500.02, -187500.02, 0.000, 0.000, 0.000, 16:13:38.380, 1578579218380
122, -181723.67, -181712.97, -181883.92, -181890.56, -181860.02, -181813.55, -181960.14, 187500.00, 0.000, 0.000, 0.000, 16:13:38.380, 1578579218380
123, -183642.66, -181058.13, -187500.02, 5105.32, -187500.02, 45177.39, -187500.02, -187500.02, 0.000, 0.000, 0.000, 16:13:38.380, 1578579218380
124, -181734.45, -181723.67, -181894.63, -181901.31, -181870.75, -181824.39, -181971.02, 187500.00, 0.000, 0.000, 0.000, 16:13:38.380, 1578579218380
125, -183645.23, -181059.89, -187500.02, 4321.06, -187500.02, 44406.28, -187500.02, -187500.02, 0.000, 0.000, 0.000, 16:13:38.380, 1578579218380
126, -181745.48, -181734.72, -181905.67, -181912.33, -181881.77, -181835.34, -181981.97, 187500.00, 0.000, 0.000, 0.000, 16:13:38.380, 1578579218380
127, -183645.41, -181059.23, -187500.02, 3470.53, -187500.02, 43569.92, -187500.02, -187500.02, 0.000, 0.000, 0.000, 16:13:38.380, 1578579218380
128, -181757.05, -181746.28, -181917.20, -181923.97, -181893.39, -181846.88, -181993.59, 187500.00, 0.000, 0.000, 0.000, 16:13:38.380, 1578579218380
129, -183646.98, -181059.92, -187500.02, 2688.02, -187500.02, 42829.18, -187500.02, -187500.02, 0.004, 0.042, 0.970, 16:13:38.380, 1578579218380
130, -181767.84, -181757.03, -181928.02, -181934.63, -181904.14, -181857.66, -182004.42, 187500.00, 0.000, 0.000, 0.000, 16:13:38.380, 1578579218380
131, -183646.23, -181058.27, -187500.02, 1781.86, -187500.02, 41940.57, -187500.02, -187500.02, 0.000, 0.000, 0.000, 16:13:38.380, 1578579218380
132, -181778.69, -181767.95, -181938.92, -181945.56, -181915.03, -181868.53, -182015.30, 187500.00, 0.000, 0.000, 0.000, 16:13:38.380, 1578579218380
133, -183647.02, -181058.02, -187500.02, 843.20, -187500.02, 41003.89, -187500.02, -187500.02, 0.000, 0.000, 0.000, 16:13:38.380, 1578579218380
134, -181791.38, -181780.52, -181951.52, -181958.17, -181927.66, -181881.14, -182027.92, 187500.00, 0.000, 0.000, 0.000, 16:13:38.380, 1578579218380
135, -183649.61, -181059.78, -187500.02, 181.25, -187500.02, 40360.25, -187500.02, -187500.02, 0.000, 0.000, 0.000, 16:13:38.380, 1578579218380
136, -181800.61, -181789.80, -181960.72, -181967.38, -181936.88, -181890.47, -182037.11, 187500.00, 0.000, 0.000, 0.000, 16:13:38.380, 1578579218380
137, -183654.23, -181063.61, -187500.02, -285.32, -187500.02, 39881.95, -187500.02, -187500.02, 0.000, 0.000, 0.000, 16:13:38.380, 1578579218380
138, -181815.45, -181804.77, -181975.77, -181982.31, -181951.86, -181905.44, -182052.06, 187500.00, 0.000, 0.000, 0.000, 16:13:38.380, 1578579218380
139, -183652.67, -181061.19, -187500.02, -1641.04, -187500.02, 38530.38, -187500.02, -187500.02, 0.012, 0.042, 0.976, 16:13:38.381, 1578579218381
140, -181826.97, -181816.23, -181987.22, -181993.89, -181963.36, -181916.91, -182063.52, 187500.00, 0.000, 0.000, 0.000, 16:13:38.381, 1578579218381
141, -183652.75, -181060.30, -187500.02, -2429.86, -187500.02, 37763.72, -187500.02, -187500.02, 0.000, 0.000, 0.000, 16:13:38.381, 1578579218381
142, -181837.30, -181826.67, -181997.67, -182004.30, -181973.84, -181927.38, -182073.92, 187500.00, 0.000, 0.000, 0.000, 16:13:38.381, 1578579218381
143, -183652.75, -181059.47, -187500.02, -3291.29, -187500.02, 36922.11, -187500.02, -187500.02, 0.000, 0.000, 0.000, 16:13:38.381, 1578579218381
144, -181847.70, -181836.91, -182007.83, -182014.47, -181984.03, -181937.56, -182084.30, 187500.00, 0.000, 0.000, 0.000, 16:13:38.381, 1578579218381
145, -183653.03, -181059.05, -187500.02, -4024.39, -187500.02, 36214.25, -187500.02, -187500.02, 0.000, 0.000, 0.000, 16:13:38.381, 1578579218381
146, -181858.72, -181847.97, -182018.98, -182025.63, -181995.14, -181948.64, -182095.45, 187500.00, 0.000, 0.000, 0.000, 16:13:38.381, 1578579218381
147, -183653.55, -181058.53, -187500.02, -5066.58, -187500.02, 35215.55, -187500.02, -187500.02, 0.000, 0.000, 0.000, 16:13:38.381, 1578579218381
148, -181871.22, -181860.48, -182031.39, -182038.09, -182007.66, -181961.14, -182107.92, 187500.00, 0.000, 0.000, 0.000, 16:13:38.381, 1578579218381
149, -183657.02, -181061.11, -187500.02, -5592.79, -187500.02, 34702.76, -187500.02, -187500.02, 0.008, 0.040, 0.980, 16:13:38.381, 1578579218381
150, -181881.19, -181870.44, -182041.39, -182048.06, -182017.63, -181971.06, -182117.97, 187500.00, 0.000, 0.000, 0.000, 16:13:38.381, 1578579218381
151, -183657.34, -181060.55, -187500.02, -6518.15, -187500.02, 33802.18, -187500.02, -187500.02, 0.000, 0.000, 0.000, 16:13:38.381, 1578579218381
152, -181891.81, -181881.03, -182052.00, -182058.73, -182028.31, -181981.75, -182128.52, 187500.00, 0.000, 0.000, 0.000, 16:13:38.381, 1578579218381
153, -183658.28, -181060.61, -187500.02, -7143.06, -187500.02, 33186.02, -187500.02, -187500.02, 0.000, 0.000, 0.000, 16:13:38.381, 1578579218381
154, -181902.06, -181891.36, -182062.33, -182068.91, -182038.64, -181991.98, -182138.77, 187500.00, 0.000, 0.000, 0.000, 16:13:38.382, 1578579218382
155, -183658.27, -181059.83, -187500.02, -8098.91, -187500.02, 32274.44, -187500.02, -187500.02, 0.000, 0.000, 0.000, 16:13:38.382, 1578579218382
156, -181914.41, -181903.72, -182074.75, -182081.38, -182051.02, -182004.34, -182151.28, 187500.00, 0.000, 0.000, 0.000, 16:13:38.382, 1578579218382
157, -183658.41, -181058.94, -187500.02, -9096.11, -187500.02, 31282.85, -187500.02, -187500.02, 0.000, 0.000, 0.000, 16:13:38.382, 1578579218382
158, -181926.08, -181915.30, -182086.42, -182093.08, -182062.59, -182016.03, -182162.86, 187500.00, 0.010, 0.042, 0.968, 16:13:38.382, 1578579218382
159, -183658.67, -181058.25, -187500.02, -9853.32, -187500.02, 30576.98, -187500.02, -187500.02, 0.000, 0.000, 0.000, 16:13:38.382, 1578579218382
160, -181934.92, -181924.23, -182095.28, -182101.94, -182071.45, -182024.94, -182171.72, 187500.00, 0.000, 0.000, 0.000, 16:13:38.382, 1578579218382
161, -183660.33, -181059.03, -187500.02, -10573.56, -187500.02, 29868.88, -187500.02, -187500.02, 0.000, 0.000, 0.000, 16:13:38.382, 1578579218382
162, -181945.45, -181934.70, -182105.72, -182112.39, -182081.89, -182035.34, -182182.09, 187500.00, 0.000, 0.000, 0.000, 16:13:38.382, 1578579218382
163, -183660.64, -181058.64, -187500.02, -11364.43, -187500.02, 29103.20, -187500.02, -187500.02, 0.000, 0.000, 0.000, 16:13:38.382, 1578579218382
164, -181957.23, -181946.59, -182117.56, -182124.20, -182093.73, -182047.23, -182194.00, 187500.00, 0.000, 0.000, 0.000, 16:13:38.382, 1578579218382
165, -183659.63, -181056.66, -187500.02, -12486.62, -187500.02, 28017.93, -187500.02, -187500.02, 0.000, 0.000, 0.000, 16:13:38.382, 1578579218382
166, -181970.66, -181959.89, -182130.91, -182137.59, -182107.28, -182060.61, -182207.34, 187500.00, 0.000, 0.000, 0.000, 16:13:38.382, 1578579218382
167, -183658.75, -181054.88, -187500.02, -13548.35, -187500.02, 26962.82, -187500.02, -187500.02, 0.000, 0.000, 0.000, 16:13:38.382, 1578579218382
168, -181981.22, -181970.47, -182141.50, -182148.09, -182117.72, -182071.09, -182217.89, 187500.00, 0.002, 0.038, 0.968, 16:13:38.382, 1578579218382
169, -183657.06, -181052.28, -187500.02, -14535.61, -187500.02, 26001.43, -187500.02, -187500.02, 0.000, 0.000, 0.000, 16:13:38.382, 1578579218382
170, -181991.45, -181980.70, -182151.73, -182158.38, -182127.97, -182081.33, -182228.30, 187500.00, 0.000, 0.000, 0.000, 16:13:38.382, 1578579218382
171, -183659.52, -181053.91, -187500.02, -15143.66, -187500.02, 25395.87, -187500.02, -187500.02, 0.000, 0.000, 0.000, 16:13:38.382, 1578579218382
172, -182003.30, -181992.45, -182163.61, -182170.11, -182139.75, -182093.11, -182240.05, 187500.00, 0.000, 0.000, 0.000, 16:13:38.382, 1578579218382
173, -183658.80, -181052.16, -187500.02, -16203.61, -187500.02, 24389.31, -187500.02, -187500.02, 0.000, 0.000, 0.000, 16:13:38.382, 1578579218382
174, -182014.00, -182003.05, -182174.22, -182180.81, -182150.44, -182103.80, -182250.78, 187500.00, 0.000, 0.000, 0.000, 16:13:38.383, 1578579218383
175, -183662.27, -181054.83, -187500.02, -16727.40, -187500.02, 23884.49, -187500.02, -187500.02, 0.000, 0.000, 0.000, 16:13:38.383, 1578579218383
176, -182024.84, -182013.92, -182185.06, -182191.64, -182161.22, -182114.59, -182261.59, 187500.00, 0.000, 0.000, 0.000, 16:13:38.383, 1578579218383
177, -183659.86, -181051.50, -187500.02, -17874.96, -187500.02, 22757.70, -187500.02, -187500.02, 0.000, 0.000, 0.000, 16:13:38.383, 1578579218383
178, -182035.31, -182024.52, -182195.67, -182202.27, -182171.77, -182125.22, -182272.14, 187500.00, 0.002, 0.040, 0.970, 16:13:38.383, 1578579218383
179, -183658.95, -181049.70, -187500.02, -18685.19, -187500.02, 21952.36, -187500.02, -187500.02, 0.000, 0.000, 0.000, 16:13:38.383, 1578579218383
180, -182045.19, -182034.39, -182205.58, -182212.22, -182181.70, -182135.08, -182282.02, 187500.00, 0.000, 0.000, 0.000, 16:13:38.383, 1578579218383
181, -183657.84, -181047.63, -187500.02, -19730.87, -187500.02, 20954.47, -187500.02, -187500.02, 0.000, 0.000, 0.000, 16:13:38.383, 1578579218383
182, -182058.28, -182047.44, -182218.61, -182225.27, -182194.78, -182148.20, -182295.13, 187500.00, 0.000, 0.000, 0.000, 16:13:38.383, 1578579218383
183, -183658.02, -181046.94, -187500.02, -20715.08, -187500.02, 19976.51, -187500.02, -187500.02, 0.000, 0.000, 0.000, 16:13:38.383, 1578579218383
184, -182070.48, -182059.72, -182230.84, -182237.34, -182206.98, -182160.44, -182307.33, 187500.00, 0.000, 0.000, 0.000, 16:13:38.383, 1578579218383
185, -183657.50, -181045.44, -187500.02, -21802.43, -187500.02, 18921.04, -187500.02, -187500.02, 0.000, 0.000, 0.000, 16:13:38.383, 1578579218383
186, -182082.53, -182071.69, -182242.81, -182249.41, -182218.98, -182172.44, -182319.34, 187500.00, 0.000, 0.000, 0.000, 16:13:38.383, 1578579218383
187, -183658.84, -181045.97, -187500.02, -22478.05, -187500.02, 18265.55, -187500.02, -187500.02, 0.000, 0.000, 0.000, 16:13:38.383, 1578579218383
188, -182090.31, -182079.53, -182250.63, -182257.38, -182226.72, -182180.19, -182327.05, 187500.00, 0.004, 0.046, 0.974, 16:13:38.383, 1578579218383
189, -183656.34, -181042.59, -187500.02, -23417.38, -187500.02, 17350.52, -187500.02, -187500.02, 0.000, 0.000, 0.000, 16:13:38.383, 1578579218383
190, -182101.27, -182090.45, -182261.64, -182268.39, -182237.77, -182191.20, -182338.13, 187500.00, 0.000, 0.000, 0.000, 16:13:38.384, 1578579218384
191, -183657.33, -181042.69, -187500.02, -24172.00, -187500.02, 16611.37, -187500.02, -187500.02, 0.000, 0.000, 0.000, 16:13:38.384, 1578579218384
192, -182111.22, -182100.39, -182271.56, -182278.31, -182247.69, -182201.11, -182348.03, 187500.00, 0.000, 0.000, 0.000, 16:13:38.385, 1578579218385
193, -183660.39, -181044.72, -187500.02, -24941.08, -187500.02, 15880.04, -187500.02, -187500.02, 0.000, 0.000, 0.000, 16:13:38.385, 1578579218385
194, -182125.86, -182115.06, -182286.22, -182292.97, -182262.42, -182215.84, -182362.73, 187500.00, 0.000, 0.000, 0.000, 16:13:38.385, 1578579218385
195, -183659.86, -181043.36, -187500.02, -26060.19, -187500.02, 14775.73, -187500.02, -187500.02, 0.000, 0.000, 0.000, 16:13:38.385, 1578579218385
196, -182137.59, -182126.83, -182297.92, -182304.59, -182274.11, -182227.58, -182374.50, 187500.00, 0.000, 0.000, 0.000, 16:13:38.385, 1578579218385
197, -183658.69, -181041.17, -187500.02, -27006.18, -187500.02, 13841.00, -187500.02, -187500.02, 0.004, 0.046, 0.966, 16:13:38.385, 1578579218385
198, -182147.94, -182137.11, -182308.31, -182315.02, -182284.50, -182237.91, -182384.84, 187500.00, 0.000, 0.000, 0.000, 16:13:38.385, 1578579218385
199, -183658.47, -181040.14, -187500.02, -27884.85, -187500.02, 12986.03, -187500.02, -187500.02, 0.000, 0.000, 0.000, 16:13:38.386, 1578579218386
200, -182156.19, -182145.44, -182316.56, -182323.27, -182292.70, -182246.08, -182393.11, 187500.00, 0.000, 0.000, 0.000, 16:13:38.386, 1578579218386
201, -183660.61, -181041.39, -187500.02, -28257.32, -187500.02, 12651.74, -187500.02, -187500.02, 0.000, 0.000, 0.000, 16:13:38.386, 1578579218386
202, -182164.16, -182153.33, -182324.47, -182331.22, -182300.69, -182254.03, -182401.03, 187500.00, 0.000, 0.000, 0.000, 16:13:38.386, 1578579218386
203, -183664.36, -181044.20, -187500.02, -28706.66, -187500.02, 12231.28, -187500.02, -187500.02, 0.000, 0.000, 0.000, 16:13:38.386, 1578579218386
204, -182174.42, -182163.56, -182334.70, -182341.39, -182310.95, -182264.28, -182411.33, 187500.00, 0.000, 0.000, 0.000, 16:13:38.386, 1578579218386
205, -183663.31, -181042.16, -187500.02, -29678.47, -187500.02, 11251.02, -187500.02, -187500.02, 0.000, 0.000, 0.000, 16:13:38.386, 1578579218386
206, -182186.83, -182176.03, -182347.20, -182353.86, -182323.31, -182276.80, -182423.75, 187500.00, 0.000, 0.000, 0.000, 16:13:38.386, 1578579218386
207, -183663.77, -181041.61, -187500.02, -30610.29, -187500.02, 10354.74, -187500.02, -187500.02, 0.002, 0.036, 0.978, 16:13:38.386, 1578579218386
208, -182196.44, -182185.59, -182356.83, -182363.50, -182333.05, -182286.36, -182433.44, 187500.00, 0.000, 0.000, 0.000, 16:13:38.386, 1578579218386
209, -183660.75, -181037.59, -187500.02, -31681.72, -187500.02, 9326.82, -187500.02, -187500.02, 0.000, 0.000, 0.000, 16:13:38.857, 1578579218857
210, -182208.55, -182197.72, -182368.92, -182375.59, -182345.13, -182298.42, -182445.48, 187500.00, 0.000, 0.000, 0.000, 16:13:38.857, 1578579218857
211, -183662.47, -181038.34, -187500.02, -32600.80, -187500.02, 8415.45, -187500.02, -187500.02, 0.000, 0.000, 0.000, 16:13:38.859, 1578579218859
212, -182221.23, -182210.41, -182381.64, -182388.34, -182357.81, -182311.17, -182458.16, 187500.00, 0.000, 0.000, 0.000, 16:13:38.859, 1578579218859
213, -183662.11, -181037.03, -187500.02, -33556.27, -187500.02, 7481.64, -187500.02, -187500.02, 0.000, 0.000, 0.000, 16:13:38.859, 1578579218859
214, -182231.95, -182221.20, -182392.47, -182399.03, -182368.56, -182321.92, -182469.02, 187500.00, 0.000, 0.000, 0.000, 16:13:38.859, 1578579218859
215, -183666.05, -181039.95, -187500.02, -34043.34, -187500.02, 7018.31, -187500.02, -187500.02, 0.000, 0.000, 0.000, 16:13:38.859, 1578579218859
216, -182241.14, -182230.34, -182401.66, -182408.27, -182377.56, -182331.08, -182478.14, 187500.00, 0.000, 0.000, 0.000, 16:13:38.859, 1578579218859
217, -183665.91, -181038.94, -187500.02, -34710.74, -187500.02, 6390.03, -187500.02, -187500.02, 0.002, 0.040, 0.976, 16:13:38.859, 1578579218859
218, -182248.72, -182237.88, -182409.23, -182415.98, -182385.28, -182338.69, -182485.77, 187500.00, 0.000, 0.000, 0.000, 16:13:38.859, 1578579218859
219, -183667.23, -181039.36, -187500.02, -35397.23, -187500.02, 5704.21, -187500.02, -187500.02, 0.000, 0.000, 0.000, 16:13:38.859, 1578579218859
220, -182262.64, -182251.95, -182423.27, -182429.86, -182399.34, -182352.70, -182499.86, 187500.00, 0.000, 0.000, 0.000, 16:13:38.859, 1578579218859
221, -183667.50, -181038.59, -187500.02, -36533.86, -187500.02, 4581.57, -187500.02, -187500.02, 0.000, 0.000, 0.000, 16:13:38.859, 1578579218859
222, -182274.14, -182263.30, -182434.64, -182441.28, -182410.77, -182364.02, -182511.22, 187500.00, 0.000, 0.000, 0.000, 16:13:38.859, 1578579218859
223, -183668.17, -181038.23, -187500.02, -37292.23, -187500.02, 3850.11, -187500.02, -187500.02, 0.000, 0.000, 0.000, 16:13:38.859, 1578579218859
224, -182282.67, -182271.89, -182443.09, -182449.81, -182419.23, -182372.61, -182519.84, 187500.00, 0.000, 0.000, 0.000, 16:13:38.859, 1578579218859
225, -183668.33, -181037.50, -187500.02, -37850.00, -187500.02, 3322.45, -187500.02, -187500.02, 0.000, 0.000, 0.000, 16:13:38.859, 1578579218859
226, -182291.41, -182280.45, -182451.73, -182458.33, -182427.88, -182381.31, -182528.36, 187500.00, 0.000, 0.000, 0.000, 16:13:38.859, 1578579218859
227, -183666.73, -181034.84, -187500.02, -38750.57, -187500.02, 2459.83, -187500.02, -187500.02, 0.002, 0.040, 0.976, 16:13:38.860, 1578579218860
228, -182301.30, -182290.45, -182461.80, -182468.34, -182437.80, -182391.25, -182538.42, 187500.00, 0.000, 0.000, 0.000, 16:13:38.860, 1578579218860
229, -183666.63, -181033.83, -187500.02, -39868.96, -187500.02, 1339.07, -187500.02, -187500.02, 0.000, 0.000, 0.000, 16:13:38.860, 1578579218860
230, -182314.56, -182303.61, -182474.94, -182481.69, -182451.09, -182404.52, -182551.67, 187500.00, 0.000, 0.000, 0.000, 16:13:38.860, 1578579218860
231, -183667.73, -181033.97, -187500.02, -40571.36, -187500.02, 650.26, -187500.02, -187500.02, 0.000, 0.000, 0.000, 16:13:38.860, 1578579218860
232, -182325.88, -182314.95, -182486.34, -182493.03, -182462.42, -182415.75, -182562.97, 187500.00, 0.000, 0.000, 0.000, 16:13:38.860, 1578579218860
233, -183668.56, -181033.64, -187500.02, -41456.92, -187500.02, -195.13, -187500.02, -187500.02, 0.000, 0.000, 0.000, 16:13:38.860, 1578579218860
234, -182335.36, -182324.47, -182495.81, -182502.48, -182471.98, -182425.41, -182572.38, 187500.00, 0.000, 0.000, 0.000, 16:13:38.860, 1578579218860
235, -183666.33, -181030.48, -187500.02, -42433.11, -187500.02, -1153.31, -187500.02, -187500.02, 0.000, 0.000, 0.000, 16:13:38.860, 1578579218860
236, -182345.30, -182334.38, -182505.77, -182512.36, -182481.92, -182435.27, -182582.31, 187500.00, 0.000, 0.000, 0.000, 16:13:38.860, 1578579218860
237, -183667.41, -181030.50, -187500.02, -43025.05, -187500.02, -1729.29, -187500.02, -187500.02, 0.010, 0.038, 0.978, 16:13:38.860, 1578579218860
238, -182353.75, -182342.86, -182514.22, -182520.83, -182490.39, -182443.72, -182590.83, 187500.00, 0.000, 0.000, 0.000, 16:13:38.860, 1578579218860
239, -183667.00, -181028.97, -187500.02, -43975.07, -187500.02, -2650.56, -187500.02, -187500.02, 0.000, 0.000, 0.000, 16:13:38.860, 1578579218860
240, -182366.64, -182355.73, -182527.06, -182533.81, -182503.28, -182456.55, -182603.78, 187500.00, 0.000, 0.000, 0.000, 16:13:38.860, 1578579218860
241, -183666.05, -181026.97, -187500.02, -45007.38, -187500.02, -3670.00, -187500.02, -187500.02, 0.000, 0.000, 0.000, 16:13:38.860, 1578579218860
242, -182377.48, -182366.61, -182537.92, -182544.59, -182514.03, -182467.44, -182614.64, 187500.00, 0.000, 0.000, 0.000, 16:13:38.860, 1578579218860
243, -183666.80, -181026.77, -187500.02, -45832.70, -187500.02, -4492.61, -187500.02, -187500.02, 0.000, 0.000, 0.000, 16:13:38.860, 1578579218860
244, -182388.66, -182377.59, -182549.08, -182555.63, -182525.23, -182478.45, -182625.66, 187500.00, 0.000, 0.000, 0.000, 16:13:38.860, 1578579218860
245, -183667.08, -181025.92, -187500.02, -46725.79, -187500.02, -5377.09, -187500.02, -187500.02, 0.000, 0.000, 0.000, 16:13:38.860, 1578579218860
246, -182399.69, -182388.80, -182560.19, -182566.81, -182536.30, -182489.56, -182636.83, 187500.00, 0.010, 0.036, 0.970, 16:13:38.860, 1578579218860
247, -183666.80, -181024.56, -187500.02, -47497.16, -187500.02, -6131.64, -187500.02, -187500.02, 0.000, 0.000, 0.000, 16:13:38.860, 1578579218860
248, -182408.02, -182397.14, -182568.39, -182575.13, -182544.59, -182497.92, -182645.19, 187500.00, 0.000, 0.000, 0.000, 16:13:38.860, 1578579218860
249, -183665.34, -181022.06, -187500.02, -48431.94, -187500.02, -7040.80, -187500.02, -187500.02, 0.000, 0.000, 0.000, 16:13:38.860, 1578579218860
250, -182420.11, -182409.27, -182580.58, -182587.19, -182556.72, -182510.03, -182657.31, 187500.00, 0.000, 0.000, 0.000, 16:13:38.860, 1578579218860
251, -183665.03, -181020.63, -187500.02, -49443.20, -187500.02, -8033.62, -187500.02, -187500.02, 0.000, 0.000, 0.000, 16:13:38.860, 1578579218860
252, -182429.75, -182418.81, -182590.09, -182596.84, -182566.19, -182519.63, -182666.81, 187500.00, 0.000, 0.000, 0.000, 16:13:38.860, 1578579218860
253, -183667.16, -181021.36, -187500.02, -49985.79, -187500.02, -8538.46, -187500.02, -187500.02, 0.000, 0.000, 0.000, 16:13:38.860, 1578579218860
254, -182440.75, -182429.81, -182601.20, -182607.89, -182577.31, -182530.59, -182677.88, 187500.00, 0.000, 0.000, 0.000, 16:13:38.860, 1578579218860
255, -183669.75, -181022.84, -187500.02, -50762.29, -187500.02, -9313.08, -187500.02, -187500.02, 0.000, 0.000, 0.000, 16:13:38.860, 1578579218860
0, -182450.78, -182439.88, -182611.22, -182617.97, -182587.34, -182540.70, -182687.89, 187500.00, 0.008, 0.038, 0.964, 16:13:38.860, 1578579218860
1, -183668.91, -181020.98, -187500.02, -51529.75, -187500.02, -10057.26, -187500.02, -187500.02, 0.000, 0.000, 0.000, 16:13:38.860, 1578579218860
2, -182460.09, -182449.19, -182620.55, -182627.27, -182596.63, -182550.09, -182697.25, 187500.00, 0.000, 0.000, 0.000, 16:13:38.860, 1578579218860
3, -183670.92, -181021.70, -187500.02, -52266.98, -187500.02, -10752.37, -187500.02, -187500.02, 0.000, 0.000, 0.000, 16:13:38.860, 1578579218860
4, -182471.33, -182460.30, -182631.67, -182638.28, -182607.80, -182561.17, -182708.45, 187500.00, 0.000, 0.000, 0.000, 16:13:38.860, 1578579218860
5, -183671.23, -181020.88, -187500.02, -52986.37, -187500.02, -11478.45, -187500.02, -187500.02, 0.000, 0.000, 0.000, 16:13:38.860, 1578579218860
6, -182480.89, -182470.05, -182641.34, -182647.98, -182617.52, -182570.83, -182718.13, 187500.00, 0.000, 0.000, 0.000, 16:13:38.860, 1578579218860
7, -183670.41, -181018.88, -187500.02, -53905.36, -187500.02, -12381.95, -187500.02, -187500.02, 0.000, 0.000, 0.000, 16:13:38.860, 1578579218860
8, -182490.50, -182479.69, -182651.05, -182657.69, -182627.17, -182580.36, -182727.69, 187500.00, 0.000, 0.000, 0.000, 16:13:38.861, 1578579218861
9, -183670.80, -181018.17, -187500.02, -54739.20, -187500.02, -13186.54, -187500.02, -187500.02, 0.000, 0.000, 0.000, 16:13:38.861, 1578579218861
10, -182503.55, -182492.63, -182664.00, -182670.67, -182640.09, -182593.45, -182740.64, 187500.00, 0.006, 0.034, 0.970, 16:13:38.861, 1578579218861
11, -183672.66, -181018.80, -187500.02, -55578.59, -187500.02, -14005.33, -187500.02, -187500.02, 0.000, 0.000, 0.000, 16:13:38.861, 1578579218861
12, -182513.77, -182502.92, -182674.34, -182681.00, -182650.41, -182603.69, -182751.03, 187500.00, 0.000, 0.000, 0.000, 16:13:38.861, 1578579218861
13, -183672.06, -181016.94, -187500.02, -56390.36, -187500.02, -14793.32, -187500.02, -187500.02, 0.000, 0.000, 0.000, 16:13:38.862, 1578579218862
14, -182522.69, -182511.86, -182683.22, -182689.81, -182659.33, -182612.63, -182759.95, 187500.00, 0.000, 0.000, 0.000, 16:13:38.862, 1578579218862
15, -183671.09, -181014.67, -187500.02, -57225.54, -187500.02, -15605.88, -187500.02, -187500.02, 0.000, 0.000, 0.000, 16:13:38.862, 1578579218862
16, -182531.73, -182520.89, -182692.30, -182698.91, -182668.22, -182621.69, -182768.98, 187500.00, 0.000, 0.000, 0.000, 16:13:38.862, 1578579218862
17, -183674.92, -181017.25, -187500.02, -57730.20, -187500.02, -16078.44, -187500.02, -187500.02, 0.000, 0.000, 0.000, 16:13:38.862, 1578579218862
18, -182543.56, -182532.70, -182704.14, -182710.70, -182680.17, -182633.48, -182780.88, 187500.00, 0.000, 0.000, 0.000, 16:13:38.862, 1578579218862
19, -183677.48, -181018.61, -187500.02, -58423.10, -187500.02, -16773.55, -187500.02, -187500.02, 0.000, 0.000, 0.000, 16:13:38.862, 1578579218862
20, -182553.38, -182542.56, -182713.92, -182720.52, -182689.94, -182643.30, -182790.61, 187500.00, 0.010, 0.032, 0.976, 16:13:38.862, 1578579218862
21, -183676.17, -181015.84, -187500.02, -59332.91, -187500.02, -17635.41, -187500.02, -187500.02, 0.000, 0.000, 0.000, 16:13:38.862, 1578579218862
22, -182564.61, -182553.84, -182725.22, -182731.88, -182701.25, -182654.61, -182801.91, 187500.00, 0.000, 0.000, 0.000, 16:13:38.862, 1578579218862
23, -183674.88, -181013.23, -187500.02, -60336.27, -187500.02, -18620.10, -187500.02, -187500.02, 0.000, 0.000, 0.000, 16:13:38.862, 1578579218862
24, -182573.09, -182562.25, -182733.69, -182740.22, -182709.67, -182663.05, -182810.33, 187500.00, 0.000, 0.000, 0.000, 16:13:38.863, 1578579218863
25, -183677.08, -181014.17, -187500.02, -60916.13, -187500.02, -19157.57, -187500.02, -187500.02, 0.000, 0.000, 0.000, 16:13:38.863, 1578579218863
26, -182583.73, -182572.95, -182744.33, -182750.97, -182720.31, -182673.77, -182821.06, 187500.00, 0.000, 0.000, 0.000, 16:13:38.863, 1578579218863
27, -183677.11, -181012.84, -187500.02, -61790.95, -187500.02, -20061.25, -187500.02, -187500.02, 0.000, 0.000, 0.000, 16:13:38.863, 1578579218863
28, -182594.45, -182583.64, -182754.97, -182761.72, -182731.11, -182684.44, -182831.83, 187500.00, 0.000, 0.000, 0.000, 16:13:38.863, 1578579218863
29, -183680.55, -181014.80, -187500.02, -62274.37, -187500.02, -20495.95, -187500.02, -187500.02, 0.008, 0.030, 0.964, 16:13:38.863, 1578579218863
30, -182605.28, -182594.41, -182765.88, -182772.52, -182741.94, -182695.28, -182842.56, 187500.00, 0.000, 0.000, 0.000, 16:13:38.863, 1578579218863
31, -183679.33, -181012.27, -187500.02, -63343.50, -187500.02, -21517.96, -187500.02, -187500.02, 0.000, 0.000, 0.000, 16:13:38.863, 1578579218863
32, -182615.13, -182604.42, -182775.64, -182782.45, -182751.86, -182705.19, -182852.47, 187500.00, 0.000, 0.000, 0.000, 16:13:38.863, 1578579218863
33, -183680.66, -181012.17, -187500.02, -64151.14, -187500.02, -22317.01, -187500.02, -187500.02, 0.000, 0.000, 0.000, 16:13:38.863, 1578579218863
34, -182625.80, -182615.13, -182786.34, -182793.09, -182762.55, -182715.92, -182863.06, 187500.00, 0.000, 0.000, 0.000, 16:13:38.864, 1578579218864
35, -183680.11, -181010.23, -187500.02, -64820.53, -187500.02, -22941.61, -187500.02, -187500.02, 0.000, 0.000, 0.000, 16:13:38.864, 1578579218864
36, -182634.36, -182623.56, -182794.84, -182801.59, -182770.98, -182724.39, -182871.58, 187500.00, 0.000, 0.000, 0.000, 16:13:38.864, 1578579218864
37, -183678.66, -181007.27, -187500.02, -65845.48, -187500.02, -23966.77, -187500.02, -187500.02, 0.000, 0.000, 0.000, 16:13:38.864, 1578579218864
38, -182645.98, -182635.20, -182806.48, -182813.19, -182782.59, -182735.89, -182883.17, 187500.00, 0.000, 0.000, 0.000, 16:13:38.864, 1578579218864
39, -183675.98, -181003.27, -187500.02, -66944.16, -187500.02, -25085.34, -187500.02, -187500.02, 0.010, 0.032, 0.970, 16:13:38.864, 1578579218864
40, -182656.38, -182645.55, -182816.98, -182823.70, -182793.08, -182746.45, -182893.70, 187500.00, 0.000, 0.000, 0.000, 16:13:38.864, 1578579218864
41, -183676.95, -181002.70, -187500.02, -67730.70, -187500.02, -25813.00, -187500.02, -187500.02, 0.000, 0.000, 0.000, 16:13:38.864, 1578579218864
42, -182667.34, -182656.59, -182827.89, -182834.69, -182804.14, -182757.28, -182904.67, 187500.00, 0.000, 0.000, 0.000, 16:13:38.864, 1578579218864
