%OpenBCI Raw EEG Data
%Number of channels = 8
%Sample Rate = 250.0 Hz
%First Column = SampleIndex
%Last Column = Timestamp 
%Other Columns = EEG data in microvolts followed by Accel Data (in G) interleaved with Aux Data
0, -91523.22, -89744.89, -91940.86, -91797.88, -93750.01, -93750.01, -93750.01, -62066.48, -0.002, -0.010, 0.486, 16:30:45.401, 1578580245401
1, -113466.91, -65070.42, -173644.58, -173322.47, -102664.53, -96350.27, -173283.39, -173878.48, 0.000, 0.000, 0.000, 16:30:45.401, 1578580245401
2, -183038.42, -179480.70, -183873.22, -183587.08, -187500.02, -187500.02, -187500.02, -124096.77, 0.000, 0.000, 0.000, 16:30:45.401, 1578580245401
3, -113745.14, -65293.85, -173636.55, -173312.73, -102935.99, -96616.98, -173277.27, -173873.98, 0.000, 0.000, 0.000, 16:30:45.401, 1578580245401
4, -183031.19, -179474.20, -183865.13, -183581.05, -187500.02, -187500.02, -187500.02, -124051.91, 0.000, 0.000, 0.000, 16:30:45.401, 1578580245401
5, -114023.48, -65517.27, -173635.67, -173311.75, -103207.01, -96883.56, -173274.41, -173868.67, 0.000, 0.000, 0.000, 16:30:45.401, 1578580245401
6, -183024.92, -179468.75, -183858.05, -183576.38, -187500.02, -187500.02, -187500.02, -124007.95, -0.002, -0.012, 0.738, 16:30:45.401, 1578580245401
7, -114302.46, -65743.74, -173630.14, -173304.67, -103478.63, -97149.89, -173268.84, -173864.64, 0.000, 0.000, 0.000, 16:30:45.401, 1578580245401
8, -183017.42, -179459.25, -183850.20, -183567.27, -187500.02, -187500.02, -187500.02, -123963.33, 0.000, 0.000, 0.000, 16:30:45.402, 1578580245402
9, -114580.38, -65964.29, -173623.72, -173300.63, -103746.04, -97412.38, -173264.50, -173858.05, 0.000, 0.000, 0.000, 16:30:45.402, 1578580245402
10, -183009.81, -179451.89, -183841.86, -183560.34, -187500.02, -187500.02, -187500.02, -123918.47, 0.000, 0.000, 0.000, 16:30:45.402, 1578580245402
11, -114858.28, -66188.90, -173619.41, -173298.33, -104014.47, -97676.77, -173258.36, -173854.92, 0.000, 0.000, 0.000, 16:30:45.402, 1578580245402
12, -183002.06, -179441.56, -183833.70, -183550.39, -187500.02, -187500.02, -187500.02, -123873.81, 0.000, 0.000, 0.000, 16:30:45.402, 1578580245402
13, -115139.64, -66415.97, -173612.94, -173290.03, -104286.77, -97944.16, -173253.55, -173849.83, 0.000, 0.000, 0.000, 16:30:45.402, 1578580245402
14, -182994.94, -179433.88, -183825.84, -183543.11, -187500.02, -187500.02, -187500.02, -123830.16, 0.000, 0.000, 0.000, 16:30:45.402, 1578580245402
15, -115418.99, -66639.49, -173607.63, -173286.44, -104558.41, -98209.23, -173247.92, -173844.06, 0.000, 0.000, 0.000, 16:30:45.402, 1578580245402
16, -182985.91, -179424.38, -183816.20, -183534.13, -187500.02, -187500.02, -187500.02, -123784.59, 0.000, -0.014, 0.856, 16:30:45.402, 1578580245402
17, -115694.91, -66858.54, -173604.31, -173281.73, -104824.18, -98473.06, -173242.58, -173837.84, 0.000, 0.000, 0.000, 16:30:45.402, 1578580245402
18, -182976.47, -179412.03, -183806.38, -183521.92, -187500.02, -187500.02, -187500.02, -123739.37, 0.000, 0.000, 0.000, 16:30:45.402, 1578580245402
19, -115971.30, -67081.65, -173596.98, -173272.66, -105093.07, -98740.15, -173236.55, -173832.50, 0.000, 0.000, 0.000, 16:30:45.403, 1578580245403
20, -182968.42, -179403.34, -183797.73, -183513.83, -187500.02, -187500.02, -187500.02, -123695.66, 0.000, 0.000, 0.000, 16:30:45.403, 1578580245403
21, -116252.31, -67307.98, -173593.97, -173273.47, -105365.13, -99006.65, -173232.67, -173828.42, 0.000, 0.000, 0.000, 16:30:45.403, 1578580245403
22, -182960.75, -179394.02, -183789.38, -183504.86, -187500.02, -187500.02, -187500.02, -123652.57, 0.000, 0.000, 0.000, 16:30:45.403, 1578580245403
23, -116531.38, -67533.76, -173588.95, -173265.69, -105637.49, -99272.45, -173229.05, -173824.22, 0.000, 0.000, 0.000, 16:30:45.403, 1578580245403
24, -182953.66, -179387.61, -183781.38, -183499.13, -187500.02, -187500.02, -187500.02, -123610.09, 0.000, 0.000, 0.000, 16:30:45.403, 1578580245403
25, -116807.73, -67755.87, -173582.45, -173257.95, -105908.51, -99537.57, -173222.61, -173817.08, 0.000, 0.000, 0.000, 16:30:45.403, 1578580245403
26, -182943.69, -179374.80, -183771.03, -183486.42, -187500.02, -187500.02, -187500.02, -123565.34, -0.002, -0.018, 0.918, 16:30:45.403, 1578580245403
27, -117086.46, -67977.91, -173580.73, -173258.52, -106182.43, -99802.37, -173217.39, -173810.80, 0.000, 0.000, 0.000, 16:30:45.403, 1578580245403
28, -182936.80, -179369.55, -183763.09, -183482.06, -187500.02, -187500.02, -187500.02, -123523.47, 0.000, 0.000, 0.000, 16:30:45.403, 1578580245403
29, -117368.38, -68202.63, -173575.03, -173254.59, -106458.34, -100069.07, -173213.09, -173806.64, 0.000, 0.000, 0.000, 16:30:45.403, 1578580245403
30, -182928.89, -179361.45, -183754.41, -183474.48, -187500.02, -187500.02, -187500.02, -123480.62, 0.000, 0.000, 0.000, 16:30:45.403, 1578580245403
31, -117647.87, -68428.48, -173568.11, -173249.89, -106731.30, -100336.33, -173209.20, -173803.92, 0.000, 0.000, 0.000, 16:30:45.404, 1578580245404
32, -182919.63, -179348.77, -183744.70, -183461.75, -187500.02, -187500.02, -187500.02, -123437.17, 0.000, 0.000, 0.000, 16:30:45.404, 1578580245404
33, -117926.75, -68652.91, -173566.16, -173240.03, -107004.01, -100599.19, -173205.05, -173799.31, 0.000, 0.000, 0.000, 16:30:45.404, 1578580245404
34, -182911.98, -179342.70, -183736.09, -183456.61, -187500.02, -187500.02, -187500.02, -123395.23, 0.000, 0.000, 0.000, 16:30:45.404, 1578580245404
35, -118207.13, -68879.24, -173555.39, -173232.47, -107276.19, -100864.37, -173197.98, -173794.58, 0.000, 0.000, 0.000, 16:30:45.404, 1578580245404
36, -182900.91, -179328.91, -183724.52, -183443.02, -187500.02, -187500.02, -187500.02, -123350.31, 0.002, -0.020, 0.944, 16:30:45.404, 1578580245404
37, -118492.38, -69105.96, -173552.58, -173226.34, -107551.83, -101131.13, -173193.31, -173786.27, 0.000, 0.000, 0.000, 16:30:45.404, 1578580245404
38, -182893.50, -179321.64, -183716.41, -183436.30, -187500.02, -187500.02, -187500.02, -123309.20, 0.000, 0.000, 0.000, 16:30:45.404, 1578580245404
39, -118772.85, -69328.36, -173549.67, -173226.50, -107821.05, -101394.08, -173190.41, -173784.25, 0.000, 0.000, 0.000, 16:30:45.404, 1578580245404
40, -182885.34, -179314.66, -183707.42, -183430.05, -187500.02, -187500.02, -187500.02, -123267.36, 0.000, 0.000, 0.000, 16:30:45.404, 1578580245404
41, -119050.46, -69549.93, -173542.31, -173220.72, -108088.34, -101656.91, -173183.33, -173781.28, 0.000, 0.000, 0.000, 16:30:45.404, 1578580245404
42, -182875.13, -179302.02, -183696.55, -183417.78, -187500.02, -187500.02, -187500.02, -123223.69, 0.000, 0.000, 0.000, 16:30:45.405, 1578580245405
43, -119331.45, -69775.41, -173538.41, -173210.64, -108359.17, -101922.81, -173177.33, -173771.58, 0.000, 0.000, 0.000, 16:30:45.405, 1578580245405
44, -182866.86, -179292.77, -183687.59, -183408.80, -187500.02, -187500.02, -187500.02, -123182.36, 0.000, 0.000, 0.000, 16:30:45.405, 1578580245405
45, -119613.48, -70002.76, -173530.42, -173207.70, -108634.39, -102191.57, -173171.97, -173765.86, 0.000, 0.000, 0.000, 16:30:45.405, 1578580245405
46, -182857.69, -179283.06, -183677.67, -183399.64, -187500.02, -187500.02, -187500.02, -123140.23, 0.002, -0.014, 0.962, 16:30:45.405, 1578580245405
47, -119893.88, -70226.20, -173529.97, -173204.72, -108905.92, -102458.63, -173169.63, -173766.39, 0.000, 0.000, 0.000, 16:30:45.405, 1578580245405
48, -182848.94, -179275.22, -183667.91, -183392.56, -187500.02, -187500.02, -187500.02, -123098.36, 0.000, 0.000, 0.000, 16:30:45.405, 1578580245405
49, -120170.59, -70449.12, -173524.63, -173204.02, -109172.35, -102720.77, -173165.84, -173759.23, 0.000, 0.000, 0.000, 16:30:45.405, 1578580245405
50, -182839.23, -179265.19, -183657.50, -183383.08, -187500.02, -187500.02, -187500.02, -123055.91, 0.000, 0.000, 0.000, 16:30:45.405, 1578580245405
51, -120446.91, -70672.52, -173520.03, -173201.77, -109439.73, -102989.62, -173159.36, -173753.83, 0.000, 0.000, 0.000, 16:30:45.405, 1578580245405
52, -182831.75, -179258.80, -183649.22, -183377.38, -187500.02, -187500.02, -187500.02, -123015.46, 0.000, 0.000, 0.000, 16:30:45.405, 1578580245405
53, -120728.27, -70901.61, -173515.78, -173192.11, -109712.80, -103256.27, -173153.95, -173748.80, 0.000, 0.000, 0.000, 16:30:45.405, 1578580245405
54, -182821.91, -179246.88, -183638.81, -183365.88, -187500.02, -187500.02, -187500.02, -122973.15, 0.000, 0.000, 0.000, 16:30:45.406, 1578580245406
55, -121010.93, -71130.20, -173508.25, -173185.84, -109980.91, -103520.11, -173149.02, -173744.84, 0.000, -0.012, 0.974, 16:30:45.406, 1578580245406
56, -182811.27, -179233.38, -183627.58, -183352.58, -187500.02, -187500.02, -187500.02, -122930.52, 0.000, 0.000, 0.000, 16:30:45.406, 1578580245406
57, -121289.08, -71351.52, -173503.44, -173181.72, -110247.56, -103781.90, -173141.91, -173737.80, 0.000, 0.000, 0.000, 16:30:45.406, 1578580245406
58, -182802.58, -179225.28, -183617.89, -183345.03, -187500.02, -187500.02, -187500.02, -122889.75, 0.000, 0.000, 0.000, 16:30:45.406, 1578580245406
59, -121571.18, -71577.26, -173496.38, -173172.13, -110518.80, -104049.73, -173135.91, -173729.69, 0.000, 0.000, 0.000, 16:30:45.406, 1578580245406
60, -182791.75, -179210.20, -183606.75, -183329.78, -187500.02, -187500.02, -187500.02, -122847.91, 0.000, 0.000, 0.000, 16:30:45.406, 1578580245406
61, -121857.46, -71806.67, -173488.67, -173164.55, -110794.87, -104319.30, -173129.13, -173725.94, 0.000, 0.000, 0.000, 16:30:45.407, 1578580245407
62, -182781.11, -179201.59, -183595.23, -183322.08, -187500.02, -187500.02, -187500.02, -122805.95, 0.000, 0.000, 0.000, 16:30:45.407, 1578580245407
63, -122140.21, -72030.84, -173486.97, -173161.58, -111064.56, -104583.65, -173126.75, -173721.75, 0.000, 0.000, 0.000, 16:30:45.407, 1578580245407
64, -182773.30, -179193.97, -183586.45, -183315.09, -187500.02, -187500.02, -187500.02, -122766.86, 0.000, 0.000, 0.000, 16:30:45.407, 1578580245407
65, -122415.31, -72248.57, -173482.59, -173164.28, -111329.07, -104843.11, -173122.33, -173721.64, -0.004, -0.014, 0.974, 16:30:45.408, 1578580245408
66, -182763.56, -179182.08, -183575.98, -183303.52, -187500.02, -187500.02, -187500.02, -122726.23, 0.000, 0.000, 0.000, 16:30:45.408, 1578580245408
67, -122699.00, -72477.97, -173473.69, -173150.23, -111602.03, -105110.55, -173114.41, -173709.38, 0.000, 0.000, 0.000, 16:30:45.408, 1578580245408
68, -182752.13, -179171.98, -183563.58, -183294.17, -187500.02, -187500.02, -187500.02, -122684.05, 0.000, 0.000, 0.000, 16:30:45.408, 1578580245408
69, -122981.44, -72704.27, -173472.63, -173151.22, -111869.67, -105377.23, -173110.81, -173707.27, 0.000, 0.000, 0.000, 16:30:45.408, 1578580245408
70, -182743.77, -179164.38, -183554.28, -183287.38, -187500.02, -187500.02, -187500.02, -122644.53, 0.000, 0.000, 0.000, 16:30:45.408, 1578580245408
71, -123260.26, -72928.69, -173467.22, -173144.98, -112140.93, -105642.21, -173107.22, -173705.92, 0.000, 0.000, 0.000, 16:30:45.408, 1578580245408
72, -182735.16, -179156.33, -183544.97, -183280.00, -187500.02, -187500.02, -187500.02, -122604.86, 0.000, 0.000, 0.000, 16:30:45.408, 1578580245408
73, -123535.77, -73151.53, -173459.91, -173141.17, -112410.56, -105903.59, -173101.00, -173697.50, 0.000, 0.000, 0.000, 16:30:45.408, 1578580245408
74, -182724.55, -179141.94, -183533.81, -183265.56, -187500.02, -187500.02, -187500.02, -122563.80, 0.000, 0.000, 0.000, 16:30:45.408, 1578580245408
75, -123816.10, -73377.29, -173453.17, -173138.11, -112680.80, -106169.48, -173093.58, -173688.92, -0.004, -0.010, 0.974, 16:30:45.409, 1578580245409
76, -182712.27, -179129.33, -183520.91, -183253.45, -187500.02, -187500.02, -187500.02, -122521.51, 0.000, 0.000, 0.000, 16:30:45.409, 1578580245409
77, -124098.31, -73609.70, -173446.17, -173125.34, -112953.71, -106439.43, -173086.56, -173680.45, 0.000, 0.000, 0.000, 16:30:45.409, 1578580245409
78, -182704.00, -179119.25, -183511.84, -183243.66, -187500.02, -187500.02, -187500.02, -122483.45, 0.000, 0.000, 0.000, 16:30:45.409, 1578580245409
79, -124377.53, -73836.41, -173443.94, -173122.14, -113224.10, -106705.15, -173086.19, -173683.02, 0.000, 0.000, 0.000, 16:30:45.409, 1578580245409
80, -182695.39, -179109.94, -183502.42, -183234.78, -187500.02, -187500.02, -187500.02, -122445.18, 0.000, 0.000, 0.000, 16:30:45.410, 1578580245410
81, -124653.77, -74060.60, -173440.72, -173117.89, -113493.51, -106968.07, -173079.28, -173674.36, 0.000, 0.000, 0.000, 16:30:45.410, 1578580245410
82, -182685.50, -179101.81, -183491.47, -183227.50, -187500.02, -187500.02, -187500.02, -122405.63, 0.000, 0.000, 0.000, 16:30:45.410, 1578580245410
83, -124931.59, -74287.41, -173434.42, -173113.45, -113764.34, -107229.70, -173075.94, -173672.98, 0.000, 0.000, 0.000, 16:30:45.410, 1578580245410
84, -182676.23, -179091.78, -183481.48, -183218.11, -187500.02, -187500.02, -187500.02, -122366.84, 0.000, 0.000, 0.000, 16:30:45.410, 1578580245410
85, -125214.40, -74513.72, -173429.22, -173107.38, -114038.69, -107496.58, -173070.02, -173668.22, -0.002, -0.006, 0.976, 16:30:45.410, 1578580245410
86, -182667.14, -179081.30, -183471.84, -183207.88, -187500.02, -187500.02, -187500.02, -122328.43, 0.000, 0.000, 0.000, 16:30:45.410, 1578580245410
87, -125495.81, -74738.55, -173425.45, -173102.45, -114309.95, -107761.63, -173066.09, -173661.97, 0.000, 0.000, 0.000, 16:30:45.410, 1578580245410
88, -182656.89, -179068.89, -183460.86, -183195.73, -187500.02, -187500.02, -187500.02, -122289.30, 0.000, 0.000, 0.000, 16:30:45.411, 1578580245411
89, -125770.69, -74960.44, -173419.67, -173098.92, -114578.37, -108022.69, -173059.14, -173654.73, 0.000, 0.000, 0.000, 16:30:45.411, 1578580245411
90, -182645.91, -179057.78, -183449.02, -183185.17, -187500.02, -187500.02, -187500.02, -122249.71, 0.000, 0.000, 0.000, 16:30:45.412, 1578580245412
91, -126049.09, -75182.30, -173414.17, -173093.28, -114848.73, -108288.41, -173054.23, -173650.88, 0.000, 0.000, 0.000, 16:30:45.412, 1578580245412
92, -182635.69, -179049.97, -183437.77, -183178.16, -187500.02, -187500.02, -187500.02, -122210.70, 0.000, 0.000, 0.000, 16:30:45.412, 1578580245412
93, -126329.38, -75409.09, -173410.11, -173085.80, -115119.26, -108556.07, -173050.16, -173645.78, 0.000, 0.000, 0.000, 16:30:45.412, 1578580245412
94, -182625.81, -179040.27, -183427.13, -183169.03, -187500.02, -187500.02, -187500.02, -122171.77, 0.000, -0.010, 0.978, 16:30:45.412, 1578580245412
95, -126608.93, -75635.02, -173408.16, -173084.45, -115389.13, -108818.57, -173045.66, -173642.58, 0.000, 0.000, 0.000, 16:30:45.412, 1578580245412
96, -182617.20, -179032.75, -183417.63, -183162.41, -187500.02, -187500.02, -187500.02, -122134.17, 0.000, 0.000, 0.000, 16:30:45.412, 1578580245412
97, -126884.19, -75857.57, -173405.36, -173082.02, -115655.16, -109075.10, -173043.44, -173639.86, 0.000, 0.000, 0.000, 16:30:45.412, 1578580245412
98, -182608.20, -179021.06, -183407.97, -183150.97, -187500.02, -187500.02, -187500.02, -122096.47, 0.000, 0.000, 0.000, 16:30:45.412, 1578580245412
99, -127163.95, -76081.20, -173399.55, -173077.38, -115924.19, -109335.79, -173036.11, -173631.78, 0.000, 0.000, 0.000, 16:30:45.413, 1578580245413
100, -182598.88, -179013.45, -183397.80, -183144.36, -187500.02, -187500.02, -187500.02, -122058.47, 0.000, 0.000, 0.000, 16:30:45.413, 1578580245413
101, -127447.25, -76308.12, -173394.02, -173067.98, -116195.30, -109599.31, -173033.83, -173631.45, 0.000, 0.000, 0.000, 16:30:45.413, 1578580245413
102, -182588.69, -179001.66, -183386.98, -183132.70, -187500.02, -187500.02, -187500.02, -122019.80, 0.000, 0.000, 0.000, 16:30:45.413, 1578580245413
103, -127727.50, -76536.08, -173389.61, -173063.41, -116463.25, -109863.72, -173027.50, -173622.80, 0.000, 0.000, 0.000, 16:30:45.413, 1578580245413
104, -182579.23, -178991.53, -183376.70, -183123.13, -187500.02, -187500.02, -187500.02, -121981.94, 0.000, -0.016, 0.976, 16:30:45.413, 1578580245413
105, -128006.13, -76758.99, -173380.98, -173058.83, -116731.18, -110128.31, -173019.63, -173614.00, 0.000, 0.000, 0.000, 16:30:45.413, 1578580245413
106, -182567.59, -178978.22, -183364.52, -183110.20, -187500.02, -187500.02, -187500.02, -121942.42, 0.000, 0.000, 0.000, 16:30:45.414, 1578580245414
107, -128286.27, -76983.27, -173378.19, -173052.42, -116999.53, -110393.88, -173015.27, -173612.20, 0.000, 0.000, 0.000, 16:30:45.414, 1578580245414
108, -182559.20, -178969.72, -183355.33, -183102.22, -187500.02, -187500.02, -187500.02, -121906.12, 0.000, 0.000, 0.000, 16:30:45.414, 1578580245414
109, -128567.43, -77208.24, -173369.41, -173048.58, -117270.50, -110659.52, -173011.81, -173604.55, 0.000, 0.000, 0.000, 16:30:45.414, 1578580245414
110, -182547.47, -178955.97, -183342.92, -183088.67, -187500.02, -187500.02, -187500.02, -121867.07, 0.000, 0.000, 0.000, 16:30:45.414, 1578580245414
111, -128845.45, -77433.05, -173366.69, -173044.45, -117540.80, -110927.26, -173005.88, -173601.91, 0.000, 0.000, 0.000, 16:30:45.414, 1578580245414
112, -182536.88, -178946.58, -183331.45, -183080.06, -187500.02, -187500.02, -187500.02, -121828.91, 0.000, 0.000, 0.000, 16:30:45.414, 1578580245414
113, -129125.17, -77657.00, -173360.84, -173033.70, -117805.96, -111192.21, -173000.73, -173598.66, 0.000, 0.000, 0.000, 16:30:45.415, 1578580245415
114, -182529.53, -178940.06, -183323.23, -183074.42, -187500.02, -187500.02, -187500.02, -121793.89, 0.000, -0.014, 0.974, 16:30:45.415, 1578580245415
115, -129402.11, -77879.11, -173357.02, -173038.03, -118072.28, -111455.34, -172998.03, -173594.06, 0.000, 0.000, 0.000, 16:30:45.415, 1578580245415
116, -182519.16, -178929.70, -183312.17, -183064.58, -187500.02, -187500.02, -187500.02, -121756.09, 0.000, 0.000, 0.000, 16:30:45.415, 1578580245415
117, -129684.50, -78108.59, -173353.50, -173033.59, -118345.45, -111721.64, -172991.67, -173587.75, 0.000, 0.000, 0.000, 16:30:45.415, 1578580245415
118, -182509.77, -178918.69, -183302.14, -183053.83, -187500.02, -187500.02, -187500.02, -121719.46, 0.000, 0.000, 0.000, 16:30:45.415, 1578580245415
119, -129964.55, -78334.34, -173349.34, -173025.66, -118615.49, -111984.72, -172988.73, -173583.38, 0.000, 0.000, 0.000, 16:30:45.415, 1578580245415
120, -182500.16, -178906.28, -183291.98, -183041.58, -187500.02, -187500.02, -187500.02, -121683.05, 0.000, 0.000, 0.000, 16:30:45.881, 1578580245881
121, -130243.30, -78558.51, -173342.33, -173016.98, -118879.80, -112247.48, -172981.59, -173579.39, 0.000, 0.000, 0.000, 16:30:45.881, 1578580245881
122, -182490.09, -178896.97, -183281.03, -183032.86, -187500.02, -187500.02, -187500.02, -121646.28, 0.000, 0.000, 0.000, 16:30:45.881, 1578580245881
123, -130523.23, -78782.68, -173338.23, -173015.22, -119145.79, -112509.49, -172977.17, -173572.22, 0.000, 0.000, 0.000, 16:30:45.881, 1578580245881
124, -182480.63, -178888.05, -183270.80, -183024.59, -187500.02, -187500.02, -187500.02, -121610.16, 0.000, -0.014, 0.980, 16:30:45.881, 1578580245881
125, -130806.34, -79009.32, -173332.47, -173009.20, -119420.05, -112776.15, -172972.50, -173567.17, 0.000, 0.000, 0.000, 16:30:45.881, 1578580245881
126, -182469.42, -178876.83, -183258.75, -183014.09, -187500.02, -187500.02, -187500.02, -121572.05, 0.000, 0.000, 0.000, 16:30:45.881, 1578580245881
127, -131085.64, -79233.71, -173331.30, -173009.36, -119688.65, -113041.09, -172969.23, -173565.61, 0.000, 0.000, 0.000, 16:30:45.881, 1578580245881
128, -182461.22, -178869.50, -183249.66, -183007.36, -187500.02, -187500.02, -187500.02, -121536.98, 0.000, 0.000, 0.000, 16:30:45.882, 1578580245882
129, -131364.70, -79452.80, -173324.92, -173003.91, -119954.95, -113303.58, -172962.70, -173559.84, 0.000, 0.000, 0.000, 16:30:45.882, 1578580245882
130, -182450.56, -178856.63, -183238.64, -182994.70, -187500.02, -187500.02, -187500.02, -121499.92, 0.000, 0.000, 0.000, 16:30:45.882, 1578580245882
131, -131644.86, -79676.39, -173318.45, -172992.86, -120224.13, -113566.86, -172954.95, -173554.70, 0.000, 0.000, 0.000, 16:30:45.882, 1578580245882
132, -182440.09, -178842.78, -183227.59, -182980.92, -187500.02, -187500.02, -187500.02, -121463.48, 0.000, 0.000, 0.000, 16:30:45.882, 1578580245882
133, -131926.05, -79904.96, -173313.81, -172991.91, -120496.30, -113832.96, -172953.48, -173546.98, -0.004, -0.016, 0.980, 16:30:45.882, 1578580245882
134, -182431.72, -178835.16, -183218.16, -182973.94, -187500.02, -187500.02, -187500.02, -121429.27, 0.000, 0.000, 0.000, 16:30:45.882, 1578580245882
135, -132203.72, -80128.79, -173310.02, -172989.27, -120763.70, -114095.55, -172949.80, -173549.05, 0.000, 0.000, 0.000, 16:30:45.882, 1578580245882
136, -182421.08, -178824.36, -183206.78, -182963.75, -187500.02, -187500.02, -187500.02, -121392.84, 0.000, 0.000, 0.000, 16:30:45.882, 1578580245882
137, -132481.22, -80350.96, -173305.47, -172980.19, -121029.64, -114357.27, -172944.20, -173542.83, 0.000, 0.000, 0.000, 16:30:45.882, 1578580245882
138, -182410.70, -178814.73, -183195.56, -182954.72, -187500.02, -187500.02, -187500.02, -121356.40, 0.000, 0.000, 0.000, 16:30:45.882, 1578580245882
139, -132763.77, -80574.84, -173301.11, -172981.08, -121298.24, -114623.05, -172936.20, -173534.73, 0.000, 0.000, 0.000, 16:30:45.882, 1578580245882
140, -182400.63, -178801.98, -183184.81, -182942.20, -187500.02, -187500.02, -187500.02, -121320.84, 0.000, 0.000, 0.000, 16:30:45.883, 1578580245883
141, -133045.78, -80799.97, -173295.89, -172974.09, -121571.38, -114888.61, -172934.14, -173530.22, 0.000, 0.000, 0.000, 16:30:45.883, 1578580245883
142, -182389.80, -178791.00, -183173.34, -182931.72, -187500.02, -187500.02, -187500.02, -121284.83, 0.000, 0.000, 0.000, 16:30:45.883, 1578580245883
143, -133326.56, -81023.88, -173292.13, -172965.27, -121841.55, -115151.42, -172930.09, -173525.08, -0.006, -0.020, 0.970, 16:30:45.883, 1578580245883
144, -182379.72, -178782.19, -183162.23, -182923.73, -187500.02, -187500.02, -187500.02, -121249.20, 0.000, 0.000, 0.000, 16:30:45.883, 1578580245883
145, -133599.19, -81245.55, -173286.66, -172963.48, -122107.87, -115411.82, -172924.17, -173519.20, 0.000, 0.000, 0.000, 16:30:45.883, 1578580245883
146, -182369.06, -178770.63, -183150.70, -182912.59, -187500.02, -187500.02, -187500.02, -121212.90, 0.000, 0.000, 0.000, 16:30:45.883, 1578580245883
147, -133877.88, -81468.20, -173280.97, -172962.48, -122376.78, -115676.48, -172917.77, -173514.80, 0.000, 0.000, 0.000, 16:30:45.883, 1578580245883
148, -182359.05, -178760.33, -183139.95, -182902.80, -187500.02, -187500.02, -187500.02, -121177.41, 0.000, 0.000, 0.000, 16:30:45.883, 1578580245883
149, -134159.34, -81691.33, -173277.02, -172956.52, -122649.77, -115944.40, -172914.09, -173512.56, 0.000, 0.000, 0.000, 16:30:45.883, 1578580245883
150, -182348.19, -178747.59, -183128.42, -182890.19, -187500.02, -187500.02, -187500.02, -121141.29, 0.000, 0.000, 0.000, 16:30:45.883, 1578580245883
151, -134441.36, -81916.88, -173270.89, -172946.64, -122922.88, -116212.91, -172908.28, -173505.75, 0.000, 0.000, 0.000, 16:30:45.883, 1578580245883
152, -182336.98, -178735.70, -183116.48, -182878.66, -187500.02, -187500.02, -187500.02, -121105.19, 0.000, 0.000, 0.000, 16:30:45.883, 1578580245883
153, -134717.80, -82135.62, -173266.66, -172942.70, -123189.73, -116473.35, -172905.53, -173500.45, 0.000, -0.020, 0.978, 16:30:45.883, 1578580245883
154, -182326.69, -178726.94, -183105.13, -182870.72, -187500.02, -187500.02, -187500.02, -121069.88, 0.000, 0.000, 0.000, 16:30:45.884, 1578580245884
155, -134994.52, -82359.42, -173261.00, -172939.47, -123457.13, -116739.55, -172898.03, -173492.92, 0.000, 0.000, 0.000, 16:30:45.884, 1578580245884
156, -182316.64, -178716.30, -183094.28, -182860.58, -187500.02, -187500.02, -187500.02, -121034.29, 0.000, 0.000, 0.000, 16:30:45.884, 1578580245884
157, -135275.25, -82583.73, -173255.30, -172935.80, -123726.38, -117006.80, -172894.27, -173492.61, 0.000, 0.000, 0.000, 16:30:45.884, 1578580245884
158, -182306.41, -178703.98, -183083.33, -182848.55, -187500.02, -187500.02, -187500.02, -120998.84, 0.000, 0.000, 0.000, 16:30:45.884, 1578580245884
159, -135556.03, -82810.13, -173250.73, -172932.45, -123993.26, -117272.94, -172889.02, -173481.34, 0.000, 0.000, 0.000, 16:30:45.884, 1578580245884
160, -182294.31, -178692.64, -183070.34, -182837.75, -187500.02, -187500.02, -187500.02, -120961.91, 0.000, 0.000, 0.000, 16:30:45.884, 1578580245884
161, -135834.34, -83034.36, -173242.70, -172921.36, -124261.37, -117535.86, -172883.20, -173477.89, 0.000, 0.000, 0.000, 16:30:45.884, 1578580245884
162, -182284.50, -178681.94, -183059.70, -182827.58, -187500.02, -187500.02, -187500.02, -120926.84, 0.000, 0.000, 0.000, 16:30:45.884, 1578580245884
163, -136113.09, -83260.24, -173238.38, -172914.55, -124531.31, -117802.52, -172876.59, -173473.25, -0.002, -0.016, 0.972, 16:30:45.884, 1578580245884
164, -182273.66, -178669.11, -183048.11, -182814.64, -187500.02, -187500.02, -187500.02, -120890.70, 0.000, 0.000, 0.000, 16:30:45.884, 1578580245884
165, -136390.91, -83486.91, -173238.59, -172916.64, -124802.08, -118069.84, -172873.58, -173471.81, 0.000, 0.000, 0.000, 16:30:45.884, 1578580245884
166, -182264.55, -178663.05, -183037.88, -182809.64, -187500.02, -187500.02, -187500.02, -120856.93, 0.000, 0.000, 0.000, 16:30:45.884, 1578580245884
167, -136669.06, -83714.45, -173231.27, -172910.34, -125070.95, -118333.91, -172870.86, -173466.16, 0.000, 0.000, 0.000, 16:30:45.884, 1578580245884
168, -182254.03, -178650.52, -183026.72, -182797.41, -187500.02, -187500.02, -187500.02, -120820.92, 0.000, 0.000, 0.000, 16:30:45.885, 1578580245885
169, -136945.72, -83938.42, -173225.25, -172902.34, -125338.23, -118598.69, -172864.67, -173460.75, 0.000, 0.000, 0.000, 16:30:45.885, 1578580245885
170, -182243.28, -178638.17, -183015.19, -182785.31, -187500.02, -187500.02, -187500.02, -120785.02, 0.000, 0.000, 0.000, 16:30:45.885, 1578580245885
171, -137222.92, -84162.97, -173222.03, -172902.77, -125608.73, -118863.42, -172858.89, -173455.44, 0.000, 0.000, 0.000, 16:30:45.885, 1578580245885
172, -182233.88, -178631.38, -183004.88, -182779.59, -187500.02, -187500.02, -187500.02, -120755.12, -0.002, -0.020, 0.978, 16:30:45.885, 1578580245885
173, -137504.59, -84393.19, -173214.56, -172893.53, -125880.77, -119128.91, -172858.58, -173448.56, 0.000, 0.000, 0.000, 16:30:45.885, 1578580245885
174, -182222.41, -178617.81, -182993.08, -182766.41, -187500.02, -187500.02, -187500.02, -120722.88, 0.000, 0.000, 0.000, 16:30:45.885, 1578580245885
175, -137781.78, -84618.54, -173211.91, -172893.48, -126150.24, -119390.14, -172851.23, -173447.98, 0.000, 0.000, 0.000, 16:30:45.885, 1578580245885
176, -182212.38, -178607.48, -182982.30, -182756.63, -187500.02, -187500.02, -187500.02, -120690.05, 0.000, 0.000, 0.000, 16:30:45.885, 1578580245885
177, -138056.27, -84838.28, -173208.59, -172885.06, -126415.23, -119651.84, -172847.13, -173447.08, 0.000, 0.000, 0.000, 16:30:45.885, 1578580245885
178, -182202.55, -178597.58, -182971.75, -182747.28, -187500.02, -187500.02, -187500.02, -120657.62, 0.000, 0.000, 0.000, 16:30:45.885, 1578580245885
179, -138330.89, -85057.10, -173204.58, -172886.00, -126680.54, -119915.48, -172841.98, -173439.50, 0.000, 0.000, 0.000, 16:30:45.885, 1578580245885
180, -182190.11, -178586.88, -182958.44, -182737.53, -187500.02, -187500.02, -187500.02, -120621.72, 0.000, 0.000, 0.000, 16:30:45.886, 1578580245886
181, -138611.72, -85284.13, -173198.56, -172875.03, -126953.05, -120183.49, -172838.17, -173433.17, 0.000, 0.000, 0.000, 16:30:45.886, 1578580245886
182, -182182.02, -178577.63, -182949.69, -182728.61, -187500.02, -187500.02, -187500.02, -120590.72, 0.000, -0.022, 0.978, 16:30:45.886, 1578580245886
183, -138889.42, -85504.25, -173195.59, -172871.88, -127218.13, -120449.21, -172833.27, -173430.00, 0.000, 0.000, 0.000, 16:30:45.886, 1578580245886
184, -182172.45, -178567.20, -182939.41, -182718.67, -187500.02, -187500.02, -187500.02, -120558.24, 0.000, 0.000, 0.000, 16:30:45.886, 1578580245886
185, -139165.48, -85721.40, -173189.92, -172865.97, -127484.27, -120714.37, -172828.67, -173426.58, 0.000, 0.000, 0.000, 16:30:45.886, 1578580245886
186, -182162.86, -178554.16, -182929.48, -182705.72, -187500.02, -187500.02, -187500.02, -120526.34, 0.000, 0.000, 0.000, 16:30:45.886, 1578580245886
187, -139444.38, -85943.69, -173184.08, -172862.27, -127756.29, -120981.85, -172821.27, -173416.42, 0.000, 0.000, 0.000, 16:30:45.886, 1578580245886
188, -182149.97, -178539.30, -182915.83, -182691.16, -187500.02, -187500.02, -187500.02, -120491.59, 0.000, 0.000, 0.000, 16:30:45.886, 1578580245886
189, -139725.28, -86168.12, -173180.44, -172859.84, -128029.40, -121248.91, -172816.50, -173413.66, 0.000, 0.000, 0.000, 16:30:45.886, 1578580245886
190, -182138.95, -178530.59, -182903.80, -182683.34, -187500.02, -187500.02, -187500.02, -120458.04, 0.000, 0.000, 0.000, 16:30:45.886, 1578580245886
191, -140003.61, -86387.97, -173174.56, -172854.48, -128298.78, -121514.80, -172812.97, -173411.13, 0.000, 0.000, 0.000, 16:30:45.886, 1578580245886
192, -182128.06, -178521.00, -182891.98, -182674.34, -187500.02, -187500.02, -187500.02, -120424.31, 0.000, -0.020, 0.980, 16:30:45.886, 1578580245886
193, -140278.50, -86607.02, -173170.48, -172849.86, -128564.01, -121776.62, -172811.72, -173406.84, 0.000, 0.000, 0.000, 16:30:45.886, 1578580245886
194, -182118.31, -178511.28, -182881.52, -182665.31, -187500.02, -187500.02, -187500.02, -120391.77, 0.000, 0.000, 0.000, 16:30:45.887, 1578580245887
195, -140558.05, -86829.30, -173161.22, -172838.02, -128833.73, -122044.27, -172803.19, -173396.83, 0.000, 0.000, 0.000, 16:30:45.887, 1578580245887
196, -182106.05, -178496.27, -182868.80, -182650.38, -187500.02, -187500.02, -187500.02, -120357.19, 0.000, 0.000, 0.000, 16:30:45.887, 1578580245887
197, -140840.45, -87053.67, -173158.63, -172834.61, -129103.60, -122314.38, -172796.95, -173391.06, 0.000, 0.000, 0.000, 16:30:45.887, 1578580245887
198, -182096.48, -178486.14, -182858.41, -182640.67, -187500.02, -187500.02, -187500.02, -120325.23, 0.000, 0.000, 0.000, 16:30:45.887, 1578580245887
199, -141119.41, -87273.61, -173155.83, -172831.27, -129370.44, -122580.16, -172795.11, -173391.08, 0.000, 0.000, 0.000, 16:30:45.887, 1578580245887
200, -182086.98, -178476.73, -182848.03, -182631.81, -187500.02, -187500.02, -187500.02, -120293.35, 0.000, 0.000, 0.000, 16:30:45.887, 1578580245887
201, -141397.73, -87493.42, -173148.92, -172827.97, -129634.48, -122845.16, -172788.77, -173387.34, 0.000, 0.000, 0.000, 16:30:45.887, 1578580245887
202, -182074.83, -178462.94, -182835.30, -182618.38, -187500.02, -187500.02, -187500.02, -120259.06, -0.004, -0.018, 0.978, 16:30:45.887, 1578580245887
203, -141678.03, -87715.06, -173144.83, -172822.41, -129902.81, -123114.34, -172781.95, -173377.52, 0.000, 0.000, 0.000, 16:30:45.887, 1578580245887
204, -182063.56, -178451.11, -182823.20, -182607.08, -187500.02, -187500.02, -187500.02, -120225.83, 0.000, 0.000, 0.000, 16:30:45.887, 1578580245887
205, -141958.78, -87936.77, -173139.69, -172820.38, -130174.52, -123382.19, -172778.83, -173373.28, 0.000, 0.000, 0.000, 16:30:45.887, 1578580245887
206, -182052.98, -178440.09, -182811.78, -182596.41, -187500.02, -187500.02, -187500.02, -120193.15, 0.000, 0.000, 0.000, 16:30:45.887, 1578580245887
207, -142238.98, -88160.59, -173135.67, -172817.02, -130444.09, -123648.39, -172772.86, -173368.80, 0.000, 0.000, 0.000, 16:30:45.887, 1578580245887
208, -182043.58, -178430.22, -182801.44, -182587.03, -187500.02, -187500.02, -187500.02, -120161.92, 0.000, 0.000, 0.000, 16:30:45.887, 1578580245887
209, -142516.59, -88383.11, -173131.33, -172809.36, -130709.17, -123908.45, -172771.41, -173369.02, 0.000, 0.000, 0.000, 16:30:45.888, 1578580245888
210, -182030.88, -178417.09, -182787.95, -182574.42, -187500.02, -187500.02, -187500.02, -120127.52, 0.000, 0.000, 0.000, 16:30:45.888, 1578580245888
211, -142795.33, -88604.91, -173122.77, -172800.23, -130978.31, -124171.42, -172764.58, -173356.34, -0.006, -0.018, 0.972, 16:30:45.888, 1578580245888
212, -182018.98, -178406.88, -182775.11, -182565.11, -187500.02, -187500.02, -187500.02, -120093.70, 0.000, 0.000, 0.000, 16:30:45.888, 1578580245888
213, -143072.06, -88829.00, -173118.70, -172799.92, -131248.97, -124437.61, -172756.06, -173354.64, 0.000, 0.000, 0.000, 16:30:45.888, 1578580245888
214, -182007.61, -178395.22, -182763.03, -182553.83, -187500.02, -187500.02, -187500.02, -120060.23, 0.000, 0.000, 0.000, 16:30:45.888, 1578580245888
215, -143349.91, -89052.01, -173113.81, -172792.69, -131519.25, -124703.33, -172752.47, -173348.92, 0.000, 0.000, 0.000, 16:30:45.888, 1578580245888
216, -181998.56, -178385.38, -182753.16, -182544.50, -187500.02, -187500.02, -187500.02, -120029.20, 0.000, 0.000, 0.000, 16:30:45.888, 1578580245888
217, -143623.28, -89270.72, -173111.22, -172790.09, -131783.75, -124963.44, -172751.33, -173348.25, 0.000, 0.000, 0.000, 16:30:45.888, 1578580245888
218, -181987.42, -178372.64, -182741.38, -182532.16, -187500.02, -187500.02, -187500.02, -119996.23, 0.000, 0.000, 0.000, 16:30:45.888, 1578580245888
219, -143898.61, -89493.70, -173103.59, -172787.11, -132053.20, -125226.56, -172742.02, -173340.36, 0.000, 0.000, 0.000, 16:30:45.888, 1578580245888
220, -181977.02, -178359.83, -182730.47, -182519.33, -187500.02, -187500.02, -187500.02, -119964.85, 0.000, 0.000, 0.000, 16:30:45.888, 1578580245888
221, -144178.09, -89718.18, -173103.48, -172782.22, -132324.09, -125493.57, -172742.44, -173337.28, -0.002, -0.024, 0.974, 16:30:45.888, 1578580245888
222, -181967.36, -178350.28, -182719.94, -182510.34, -187500.02, -187500.02, -187500.02, -119934.09, 0.000, 0.000, 0.000, 16:30:45.888, 1578580245888
223, -144456.66, -89940.04, -173097.61, -172776.30, -132592.83, -125760.52, -172736.36, -173331.72, 0.000, 0.000, 0.000, 16:30:45.888, 1578580245888
224, -181954.73, -178338.50, -182706.33, -182499.33, -187500.02, -187500.02, -187500.02, -119900.12, 0.000, 0.000, 0.000, 16:30:45.889, 1578580245889
225, -144732.02, -90159.70, -173093.47, -172773.59, -132857.41, -126023.24, -172730.72, -173324.27, 0.000, 0.000, 0.000, 16:30:45.889, 1578580245889
226, -181942.67, -178328.22, -182693.34, -182489.97, -187500.02, -187500.02, -187500.02, -119866.37, 0.000, 0.000, 0.000, 16:30:45.889, 1578580245889
227, -145011.70, -90381.13, -173083.59, -172765.20, -133126.14, -126289.25, -172722.52, -173319.78, 0.000, 0.000, 0.000, 16:30:45.889, 1578580245889
228, -181930.47, -178314.36, -182680.48, -182476.42, -187500.02, -187500.02, -187500.02, -119832.57, 0.000, 0.000, 0.000, 16:30:45.889, 1578580245889
229, -145291.94, -90605.01, -173081.70, -172759.95, -133398.16, -126559.41, -172718.00, -173314.55, 0.000, 0.000, 0.000, 16:30:45.889, 1578580245889
230, -181920.17, -178304.64, -182669.33, -182467.20, -187500.02, -187500.02, -187500.02, -119800.63, 0.000, 0.000, 0.000, 16:30:45.889, 1578580245889
231, -145567.03, -90825.02, -173072.30, -172754.58, -133667.08, -126825.00, -172713.47, -173309.36, 0.000, -0.024, 0.970, 16:30:45.889, 1578580245889
232, -181908.59, -178292.50, -182657.06, -182455.67, -187500.02, -187500.02, -187500.02, -119767.73, 0.000, 0.000, 0.000, 16:30:45.889, 1578580245889
233, -145841.06, -91045.24, -173070.02, -172751.52, -133932.70, -127087.79, -172712.23, -173306.64, 0.000, 0.000, 0.000, 16:30:45.889, 1578580245889
234, -181897.17, -178278.94, -182644.97, -182442.31, -187500.02, -187500.02, -187500.02, -119735.20, 0.000, 0.000, 0.000, 16:30:45.889, 1578580245889
235, -146120.48, -91267.22, -173063.50, -172741.36, -134201.39, -127353.84, -172703.08, -173299.50, 0.000, 0.000, 0.000, 16:30:45.889, 1578580245889
236, -181887.41, -178268.67, -182634.25, -182432.52, -187500.02, -187500.02, -187500.02, -119704.41, 0.000, 0.000, 0.000, 16:30:45.889, 1578580245889
237, -146400.70, -91492.37, -173058.20, -172734.59, -134474.58, -127622.13, -172700.80, -173292.67, 0.000, 0.000, 0.000, 16:30:45.889, 1578580245889
238, -181876.42, -178257.55, -182622.47, -182421.95, -187500.02, -187500.02, -187500.02, -119672.40, 0.000, 0.000, 0.000, 16:30:45.889, 1578580245889
239, -146679.19, -91713.92, -173056.20, -172733.92, -134743.55, -127887.55, -172696.36, -173293.69, 0.000, 0.000, 0.000, 16:30:45.889, 1578580245889
240, -181866.17, -178248.34, -182611.31, -182413.55, -187500.02, -187500.02, -187500.02, -119640.88, 0.000, 0.000, 0.000, 16:30:46.360, 1578580246360
241, -146954.53, -91931.73, -173050.27, -172729.73, -135011.45, -128151.58, -172690.33, -173283.70, 0.000, -0.022, 0.984, 16:30:46.360, 1578580246360
242, -181853.77, -178232.58, -182598.34, -182397.72, -187500.02, -187500.02, -187500.02, -119608.00, 0.000, 0.000, 0.000, 16:30:46.360, 1578580246360
243, -147231.41, -92150.74, -173045.66, -172723.03, -135282.30, -128417.77, -172684.41, -173279.86, 0.000, 0.000, 0.000, 16:30:46.360, 1578580246360
244, -181841.88, -178220.56, -182585.67, -182386.30, -187500.02, -187500.02, -187500.02, -119575.46, 0.000, 0.000, 0.000, 16:30:46.360, 1578580246360
245, -147512.66, -92375.22, -173041.44, -172718.61, -135556.23, -128685.42, -172681.17, -173274.83, 0.000, 0.000, 0.000, 16:30:46.361, 1578580246361
246, -181832.58, -178211.23, -182575.48, -182377.52, -187500.02, -187500.02, -187500.02, -119545.53, 0.000, 0.000, 0.000, 16:30:46.361, 1578580246361
247, -147791.61, -92598.00, -173032.88, -172714.30, -135826.61, -128951.14, -172672.70, -173269.39, 0.000, 0.000, 0.000, 16:30:46.362, 1578580246362
248, -181819.44, -178195.14, -182561.53, -182361.64, -187500.02, -187500.02, -187500.02, -119512.38, 0.000, 0.000, 0.000, 16:30:46.362, 1578580246362
249, -148067.36, -92815.95, -173029.25, -172708.64, -136094.47, -129216.23, -172668.14, -173264.33, 0.000, 0.000, 0.000, 16:30:46.362, 1578580246362
250, -181807.39, -178183.19, -182548.55, -182350.27, -187500.02, -187500.02, -187500.02, -119480.27, 0.000, 0.000, 0.000, 16:30:46.362, 1578580246362
251, -148345.11, -93035.34, -173021.81, -172701.75, -136363.55, -129483.30, -172661.47, -173256.34, -0.002, -0.018, 0.976, 16:30:46.362, 1578580246362
252, -181793.61, -178167.81, -182534.16, -182335.25, -187500.02, -187500.02, -187500.02, -119446.98, 0.000, 0.000, 0.000, 16:30:46.362, 1578580246362
253, -148629.89, -93258.54, -173017.77, -172697.33, -136638.73, -129753.93, -172655.34, -173251.38, 0.000, 0.000, 0.000, 16:30:46.362, 1578580246362
254, -181782.48, -178157.28, -182521.92, -182325.23, -187500.02, -187500.02, -187500.02, -119415.94, 0.000, 0.000, 0.000, 16:30:46.362, 1578580246362
255, -148911.00, -93481.83, -173012.20, -172690.00, -136914.44, -130020.70, -172649.06, -173248.05, 0.000, 0.000, 0.000, 16:30:46.362, 1578580246362
0, -181769.70, -178142.45, -182508.36, -182310.77, -187500.02, -187500.02, -187500.02, -119383.95, 0.000, 0.000, 0.000, 16:30:46.362, 1578580246362
1, -149187.56, -93699.83, -173008.48, -172684.83, -137184.77, -130281.77, -172646.59, -173246.44, 0.000, 0.000, 0.000, 16:30:46.362, 1578580246362
2, -181758.28, -178132.33, -182495.89, -182301.38, -187500.02, -187500.02, -187500.02, -119352.68, 0.000, 0.000, 0.000, 16:30:46.363, 1578580246363
3, -149466.98, -93923.01, -172999.75, -172675.53, -137455.17, -130550.61, -172640.89, -173236.20, 0.000, 0.000, 0.000, 16:30:46.363, 1578580246363
4, -181745.72, -178117.72, -182482.52, -182286.94, -187500.02, -187500.02, -187500.02, -119320.83, 0.000, -0.020, 0.972, 16:30:46.363, 1578580246363
5, -149748.80, -94147.58, -172996.17, -172676.27, -137727.36, -130823.17, -172635.53, -173232.34, 0.000, 0.000, 0.000, 16:30:46.363, 1578580246363
6, -181733.69, -178105.94, -182469.59, -182275.86, -187500.02, -187500.02, -187500.02, -119289.38, 0.000, 0.000, 0.000, 16:30:46.363, 1578580246363
7, -150029.33, -94372.26, -172989.31, -172668.03, -137998.38, -131093.63, -172629.09, -173228.00, 0.000, 0.000, 0.000, 16:30:46.363, 1578580246363
8, -181719.75, -178090.41, -182454.78, -182260.70, -187500.02, -187500.02, -187500.02, -119256.32, 0.000, 0.000, 0.000, 16:30:46.363, 1578580246363
9, -150307.98, -94593.92, -172984.48, -172663.89, -138267.23, -131361.75, -172622.16, -173220.83, 0.000, 0.000, 0.000, 16:30:46.363, 1578580246363
10, -181708.39, -178079.19, -182442.42, -182250.02, -187500.02, -187500.02, -187500.02, -119225.81, 0.000, 0.000, 0.000, 16:30:46.363, 1578580246363
11, -150586.05, -94817.02, -172979.14, -172660.63, -138532.89, -131630.31, -172618.77, -173213.11, 0.000, 0.000, 0.000, 16:30:46.363, 1578580246363
12, -181696.14, -178066.63, -182429.30, -182237.88, -187500.02, -187500.02, -187500.02, -119194.49, 0.000, 0.000, 0.000, 16:30:46.363, 1578580246363
13, -150871.47, -95045.23, -172977.23, -172652.02, -138807.50, -131899.66, -172613.78, -173209.45, 0.000, 0.000, 0.000, 16:30:46.363, 1578580246363
14, -181686.13, -178057.75, -182418.17, -182229.78, -187500.02, -187500.02, -187500.02, -119165.05, 0.002, -0.018, 0.974, 16:30:46.363, 1578580246363
15, -151155.98, -95271.71, -172967.69, -172649.30, -139080.44, -132166.23, -172608.80, -173204.42, 0.000, 0.000, 0.000, 16:30:46.363, 1578580246363
16, -181673.34, -178044.11, -182404.56, -182216.58, -187500.02, -187500.02, -187500.02, -119132.83, 0.000, 0.000, 0.000, 16:30:46.364, 1578580246364
17, -151436.27, -95494.54, -172963.20, -172646.83, -139349.42, -132429.00, -172603.03, -173198.20, 0.000, 0.000, 0.000, 16:30:46.364, 1578580246364
18, -181660.05, -178026.98, -182390.67, -182199.36, -187500.02, -187500.02, -187500.02, -119100.91, 0.000, 0.000, 0.000, 16:30:46.364, 1578580246364
19, -151718.09, -95718.62, -172958.42, -172636.75, -139623.23, -132697.92, -172596.00, -173194.44, 0.000, 0.000, 0.000, 16:30:46.364, 1578580246364
20, -181648.22, -178015.30, -182377.78, -182188.27, -187500.02, -187500.02, -187500.02, -119070.53, 0.000, 0.000, 0.000, 16:30:46.364, 1578580246364
21, -151996.58, -95941.10, -172955.17, -172634.25, -139895.78, -132967.66, -172594.36, -173188.03, 0.000, 0.000, 0.000, 16:30:46.364, 1578580246364
22, -181636.80, -178003.88, -182365.34, -182177.39, -187500.02, -187500.02, -187500.02, -119040.47, 0.000, 0.000, 0.000, 16:30:46.364, 1578580246364
23, -152276.44, -96166.21, -172947.02, -172628.95, -140165.33, -133233.14, -172586.02, -173180.19, 0.000, 0.000, 0.000, 16:30:46.364, 1578580246364
24, -181622.14, -177989.23, -182349.70, -182163.31, -187500.02, -187500.02, -187500.02, -119007.30, 0.000, -0.016, 0.980, 16:30:46.364, 1578580246364
25, -152554.88, -96386.64, -172941.83, -172623.05, -140432.16, -133495.28, -172580.36, -173176.19, 0.000, 0.000, 0.000, 16:30:46.364, 1578580246364
26, -181610.73, -177978.42, -182337.23, -182153.19, -187500.02, -187500.02, -187500.02, -118976.97, 0.000, 0.000, 0.000, 16:30:46.364, 1578580246364
27, -152833.67, -96608.10, -172936.98, -172615.97, -140697.72, -133761.44, -172578.78, -173172.84, 0.000, 0.000, 0.000, 16:30:46.365, 1578580246365
28, -181597.97, -177964.94, -182323.64, -182140.11, -187500.02, -187500.02, -187500.02, -118945.50, 0.000, 0.000, 0.000, 16:30:46.365, 1578580246365
29, -153117.05, -96831.24, -172930.02, -172610.00, -140968.16, -134030.69, -172571.70, -173165.97, 0.000, 0.000, 0.000, 16:30:46.365, 1578580246365
30, -181585.41, -177951.42, -182310.20, -182127.06, -187500.02, -187500.02, -187500.02, -118914.34, 0.000, 0.000, 0.000, 16:30:46.365, 1578580246365
31, -153396.64, -97052.19, -172927.11, -172606.69, -141233.38, -134295.52, -172566.55, -173161.84, 0.000, 0.000, 0.000, 16:30:46.365, 1578580246365
32, -181574.95, -177941.00, -182298.88, -182117.36, -187500.02, -187500.02, -187500.02, -118885.30, 0.000, 0.000, 0.000, 16:30:46.365, 1578580246365
33, -153672.11, -97273.09, -172920.75, -172596.86, -141500.19, -134557.66, -172560.84, -173154.02, 0.000, 0.000, 0.000, 16:30:46.365, 1578580246365
34, -181561.34, -177926.66, -182284.42, -182103.34, -187500.02, -187500.02, -187500.02, -118853.36, -0.008, -0.020, 0.978, 16:30:46.365, 1578580246365
35, -153950.14, -97493.91, -172917.33, -172598.42, -141768.33, -134820.75, -172556.13, -173149.14, 0.000, 0.000, 0.000, 16:30:46.365, 1578580246365
36, -181549.22, -177914.06, -182271.36, -182091.36, -187500.02, -187500.02, -187500.02, -118822.67, 0.000, 0.000, 0.000, 16:30:46.365, 1578580246365
37, -154234.20, -97715.68, -172911.66, -172589.28, -142038.05, -135088.50, -172550.91, -173147.88, 0.000, 0.000, 0.000, 16:30:46.366, 1578580246366
38, -181539.75, -177903.56, -182261.06, -182081.31, -187500.02, -187500.02, -187500.02, -118795.00, 0.000, 0.000, 0.000, 16:30:46.366, 1578580246366
39, -154513.56, -97935.69, -172907.48, -172587.09, -142304.44, -135353.98, -172547.27, -173143.38, 0.000, 0.000, 0.000, 16:30:46.366, 1578580246366
40, -181526.22, -177888.39, -182246.78, -182066.38, -187500.02, -187500.02, -187500.02, -118763.53, 0.000, 0.000, 0.000, 16:30:46.366, 1578580246366
41, -154790.77, -98154.44, -172901.47, -172577.20, -142570.83, -135618.17, -172543.91, -173140.23, 0.000, 0.000, 0.000, 16:30:46.366, 1578580246366
42, -181514.58, -177878.02, -182234.14, -182056.72, -187500.02, -187500.02, -187500.02, -118733.87, 0.000, 0.000, 0.000, 16:30:46.368, 1578580246368
43, -155069.94, -98375.03, -172895.08, -172574.75, -142837.81, -135884.47, -172535.66, -173132.20, -0.004, -0.024, 0.976, 16:30:46.369, 1578580246369
44, -181502.33, -177864.88, -182220.80, -182043.95, -187500.02, -187500.02, -187500.02, -118703.47, 0.000, 0.000, 0.000, 16:30:46.369, 1578580246369
45, -155353.06, -98599.89, -172891.25, -172565.44, -143110.91, -136151.59, -172530.66, -173127.55, 0.000, 0.000, 0.000, 16:30:46.369, 1578580246369
46, -181488.31, -177850.70, -182206.03, -182030.34, -187500.02, -187500.02, -187500.02, -118671.35, 0.000, 0.000, 0.000, 16:30:46.369, 1578580246369
47, -155634.91, -98824.05, -172882.64, -172560.53, -143381.58, -136416.63, -172522.92, -173118.33, 0.000, 0.000, 0.000, 16:30:46.369, 1578580246369
48, -181474.56, -177835.55, -182191.52, -182015.66, -187500.02, -187500.02, -187500.02, -118640.02, 0.000, 0.000, 0.000, 16:30:46.369, 1578580246369
49, -155911.06, -99046.16, -172879.94, -172558.02, -143648.42, -136678.63, -172518.61, -173113.63, 0.000, 0.000, 0.000, 16:30:46.369, 1578580246369
50, -181462.42, -177823.81, -182178.28, -182004.58, -187500.02, -187500.02, -187500.02, -118609.95, 0.000, 0.000, 0.000, 16:30:46.369, 1578580246369
51, -156193.16, -99268.23, -172871.50, -172552.73, -143918.09, -136942.66, -172513.95, -173108.73, 0.000, 0.000, 0.000, 16:30:46.369, 1578580246369
52, -181449.27, -177809.94, -182164.36, -181991.20, -187500.02, -187500.02, -187500.02, -118579.15, 0.000, 0.000, 0.000, 16:30:46.369, 1578580246369
53, -156475.91, -99490.43, -172869.53, -172547.59, -144188.89, -137210.83, -172509.69, -173106.39, -0.002, -0.024, 0.978, 16:30:46.369, 1578580246369
54, -181439.14, -177800.50, -182153.33, -181982.47, -187500.02, -187500.02, -187500.02, -118551.05, 0.000, 0.000, 0.000, 16:30:46.369, 1578580246369
55, -156755.30, -99711.84, -172864.14, -172539.77, -144453.94, -137473.91, -172505.39, -173103.80, 0.000, 0.000, 0.000, 16:30:46.370, 1578580246370
56, -181426.52, -177786.33, -182139.91, -181968.41, -187500.02, -187500.02, -187500.02, -118520.79, 0.000, 0.000, 0.000, 16:30:46.370, 1578580246370
57, -157030.16, -99933.20, -172860.81, -172542.31, -144716.88, -137736.98, -172500.20, -173095.92, 0.000, 0.000, 0.000, 16:30:46.370, 1578580246370
58, -181414.39, -177772.88, -182126.81, -181955.42, -187500.02, -187500.02, -187500.02, -118491.27, 0.000, 0.000, 0.000, 16:30:46.370, 1578580246370
59, -157312.20, -100158.14, -172853.39, -172533.42, -144985.92, -138003.38, -172493.70, -173087.28, 0.000, 0.000, 0.000, 16:30:46.370, 1578580246370
60, -181402.19, -177759.81, -182113.80, -181942.95, -187500.02, -187500.02, -187500.02, -118461.65, 0.000, 0.000, 0.000, 16:30:46.370, 1578580246370
61, -157596.58, -100384.56, -172846.81, -172526.52, -145255.88, -138271.64, -172486.42, -173081.70, 0.000, 0.000, 0.000, 16:30:46.370, 1578580246370
62, -181388.52, -177745.84, -182099.20, -181929.56, -187500.02, -187500.02, -187500.02, -118430.83, 0.000, 0.000, 0.000, 16:30:46.370, 1578580246370
63, -157877.89, -100605.98, -172843.48, -172520.95, -145523.52, -138534.16, -172481.70, -173079.59, 0.000, -0.024, 0.976, 16:30:46.370, 1578580246370
64, -181375.50, -177733.05, -182085.16, -181917.28, -187500.02, -187500.02, -187500.02, -118400.61, 0.000, 0.000, 0.000, 16:30:46.370, 1578580246370
65, -158156.48, -100823.33, -172838.17, -172516.64, -145787.22, -138790.33, -172478.53, -173072.53, 0.000, 0.000, 0.000, 16:30:46.370, 1578580246370
66, -181364.28, -177721.95, -182072.98, -181906.77, -187500.02, -187500.02, -187500.02, -118371.93, 0.000, 0.000, 0.000, 16:30:46.370, 1578580246370
67, -158437.50, -101045.53, -172834.05, -172513.42, -146054.31, -139052.95, -172471.59, -173068.67, 0.000, 0.000, 0.000, 16:30:46.370, 1578580246370
68, -181351.81, -177708.64, -182059.38, -181893.81, -187500.02, -187500.02, -187500.02, -118342.00, 0.000, 0.000, 0.000, 16:30:46.371, 1578580246371
69, -158718.70, -101268.17, -172829.50, -172510.59, -146322.83, -139319.80, -172466.44, -173060.88, 0.000, 0.000, 0.000, 16:30:46.371, 1578580246371
70, -181341.11, -177698.50, -182047.73, -181884.13, -187500.02, -187500.02, -187500.02, -118313.91, 0.000, 0.000, 0.000, 16:30:46.371, 1578580246371
71, -158999.20, -101488.31, -172825.00, -172502.48, -146589.47, -139584.16, -172464.20, -173059.16, 0.000, 0.000, 0.000, 16:30:46.371, 1578580246371
72, -181329.81, -177686.17, -182035.66, -181872.00, -187500.02, -187500.02, -187500.02, -118285.36, 0.000, 0.000, 0.000, 16:30:46.371, 1578580246371
73, -159278.03, -101705.26, -172819.55, -172500.20, -146853.53, -139846.03, -172457.88, -173058.13, -0.004, -0.018, 0.974, 16:30:46.371, 1578580246371
74, -181316.78, -177671.28, -182021.78, -181857.44, -187500.02, -187500.02, -187500.02, -118255.27, 0.000, 0.000, 0.000, 16:30:46.371, 1578580246371
75, -159558.38, -101925.60, -172813.75, -172494.48, -147121.50, -140109.06, -172453.94, -173052.16, 0.000, 0.000, 0.000, 16:30:46.371, 1578580246371
76, -181304.14, -177659.08, -182008.22, -181845.88, -187500.02, -187500.02, -187500.02, -118225.86, 0.000, 0.000, 0.000, 16:30:46.371, 1578580246371
77, -159838.70, -102148.43, -172806.36, -172487.80, -147387.55, -140374.56, -172448.48, -173046.27, 0.000, 0.000, 0.000, 16:30:46.371, 1578580246371
78, -181291.86, -177645.25, -181995.05, -181832.22, -187500.02, -187500.02, -187500.02, -118196.89, 0.000, 0.000, 0.000, 16:30:46.371, 1578580246371
79, -160119.28, -102371.30, -172803.66, -172480.61, -147653.58, -140639.23, -172442.78, -173037.83, 0.000, 0.000, 0.000, 16:30:46.371, 1578580246371
80, -181279.66, -177633.80, -181981.77, -181821.56, -187500.02, -187500.02, -187500.02, -118167.77, 0.000, 0.000, 0.000, 16:30:46.371, 1578580246371
81, -160396.94, -102589.92, -172801.63, -172477.34, -147914.98, -140899.41, -172441.17, -173035.52, 0.000, 0.000, 0.000, 16:30:46.372, 1578580246372
82, -181268.34, -177623.77, -181969.41, -181812.30, -187500.02, -187500.02, -187500.02, -118139.29, -0.002, -0.012, 0.972, 16:30:46.372, 1578580246372
83, -160675.33, -102806.91, -172795.92, -172475.44, -148179.13, -141161.59, -172433.52, -173031.02, 0.000, 0.000, 0.000, 16:30:46.372, 1578580246372
84, -181254.56, -177609.25, -181954.70, -181798.13, -187500.02, -187500.02, -187500.02, -118108.16, 0.000, 0.000, 0.000, 16:30:46.372, 1578580246372
85, -160959.69, -103028.93, -172788.17, -172467.69, -148448.72, -141428.77, -172426.84, -173020.33, 0.000, 0.000, 0.000, 16:30:46.372, 1578580246372
86, -181242.88, -177597.23, -181942.23, -181786.50, -187500.02, -187500.02, -187500.02, -118079.50, 0.000, 0.000, 0.000, 16:30:46.372, 1578580246372
87, -161240.20, -103246.93, -172783.05, -172462.66, -148712.86, -141691.50, -172423.91, -173020.28, 0.000, 0.000, 0.000, 16:30:46.372, 1578580246372
88, -181230.42, -177583.94, -181928.94, -181773.59, -187500.02, -187500.02, -187500.02, -118050.06, 0.000, 0.000, 0.000, 16:30:46.372, 1578580246372
89, -161515.78, -103460.25, -172781.53, -172461.09, -148975.67, -141949.02, -172418.84, -173017.84, 0.000, 0.000, 0.000, 16:30:46.372, 1578580246372
90, -181220.30, -177574.34, -181917.83, -181764.69, -187500.02, -187500.02, -187500.02, -118022.86, 0.000, 0.000, 0.000, 16:30:46.372, 1578580246372
91, -161795.25, -103679.14, -172774.48, -172452.70, -149240.58, -142210.59, -172415.42, -173010.25, 0.000, 0.000, 0.000, 16:30:46.372, 1578580246372
92, -181207.94, -177561.56, -181904.50, -181752.41, -187500.02, -187500.02, -187500.02, -117993.31, -0.004, -0.018, 0.970, 16:30:46.372, 1578580246372
93, -162079.31, -103901.84, -172771.61, -172449.80, -149508.47, -142474.55, -172409.06, -173005.63, 0.000, 0.000, 0.000, 16:30:46.372, 1578580246372
94, -181197.06, -177550.16, -181892.81, -181741.41, -187500.02, -187500.02, -187500.02, -117965.53, 0.000, 0.000, 0.000, 16:30:46.372, 1578580246372
95, -162360.39, -104121.98, -172764.27, -172446.03, -149773.27, -142735.59, -172404.66, -173003.72, 0.000, 0.000, 0.000, 16:30:46.372, 1578580246372
96, -181185.00, -177537.91, -181879.89, -181729.80, -187500.02, -187500.02, -187500.02, -117936.38, 0.000, 0.000, 0.000, 16:30:46.372, 1578580246372
97, -162639.36, -104339.23, -172759.63, -172438.61, -150036.50, -142994.63, -172400.14, -172996.17, 0.000, 0.000, 0.000, 16:30:46.372, 1578580246372
98, -181173.36, -177523.84, -181867.47, -181715.88, -187500.02, -187500.02, -187500.02, -117908.15, 0.000, 0.000, 0.000, 16:30:46.372, 1578580246372
99, -162924.39, -104562.10, -172754.09, -172434.81, -150303.56, -143256.30, -172394.06, -172991.03, 0.000, 0.000, 0.000, 16:30:46.373, 1578580246373
100, -181160.66, -177510.17, -181853.89, -181702.53, -187500.02, -187500.02, -187500.02, -117879.20, 0.000, 0.000, 0.000, 16:30:46.373, 1578580246373
101, -163211.38, -104783.74, -172751.39, -172432.23, -150570.33, -143518.78, -172390.80, -172986.27, 0.000, 0.000, 0.000, 16:30:46.373, 1578580246373
102, -181150.06, -177500.06, -181842.39, -181693.02, -187500.02, -187500.02, -187500.02, -117852.20, -0.002, -0.020, 0.976, 16:30:46.373, 1578580246373
103, -163496.14, -105003.95, -172746.64, -172424.59, -150836.19, -143781.34, -172384.06, -172981.63, 0.000, 0.000, 0.000, 16:30:46.373, 1578580246373
104, -181137.39, -177485.31, -181828.84, -181678.55, -187500.02, -187500.02, -187500.02, -117823.48, 0.000, 0.000, 0.000, 16:30:46.841, 1578580246841
105, -163776.50, -105220.56, -172742.02, -172421.94, -151098.72, -144039.75, -172379.75, -172979.14, 0.000, 0.000, 0.000, 16:30:46.842, 1578580246842
106, -181125.14, -177474.28, -181815.63, -181668.22, -187500.02, -187500.02, -187500.02, -117795.16, 0.000, 0.000, 0.000, 16:30:46.842, 1578580246842
107, -164061.70, -105440.35, -172737.42, -172415.47, -151363.27, -144303.19, -172374.13, -172971.66, 0.000, 0.000, 0.000, 16:30:46.842, 1578580246842
108, -181111.53, -177458.92, -181801.23, -181653.20, -187500.02, -187500.02, -187500.02, -117765.55, 0.000, 0.000, 0.000, 16:30:46.842, 1578580246842
109, -164355.50, -105665.55, -172726.83, -172405.81, -151631.81, -144570.55, -172366.52, -172963.11, 0.000, 0.000, 0.000, 16:30:46.842, 1578580246842
110, -181098.67, -177445.44, -181787.31, -181640.13, -187500.02, -187500.02, -187500.02, -117736.94, 0.000, 0.000, 0.000, 16:30:46.842, 1578580246842
111, -164640.17, -105886.02, -172726.03, -172406.95, -151895.88, -144833.75, -172363.73, -172959.77, 0.000, 0.000, 0.000, 16:30:46.842, 1578580246842
112, -181086.39, -177437.89, -181773.61, -181633.88, -187500.02, -187500.02, -187500.02, -117707.92, -0.004, -0.022, 0.976, 16:30:46.842, 1578580246842
113, -164922.20, -106102.30, -172719.97, -172402.42, -152156.13, -145092.83, -172358.70, -172955.67, 0.000, 0.000, 0.000, 16:30:46.842, 1578580246842
114, -181072.97, -177422.75, -181759.48, -181618.94, -187500.02, -187500.02, -187500.02, -117677.70, 0.000, 0.000, 0.000, 16:30:46.842, 1578580246842
115, -165208.69, -106324.34, -172712.03, -172392.14, -152421.45, -145356.55, -172352.63, -172948.05, 0.000, 0.000, 0.000, 16:30:46.843, 1578580246843
116, -181061.23, -177406.38, -181746.97, -181602.31, -187500.02, -187500.02, -187500.02, -117650.05, 0.000, 0.000, 0.000, 16:30:46.843, 1578580246843
117, -165495.08, -106546.98, -172709.83, -172388.56, -152688.38, -145620.02, -172348.80, -172945.75, 0.000, 0.000, 0.000, 16:30:46.843, 1578580246843
118, -181050.02, -177394.33, -181734.89, -181590.66, -187500.02, -187500.02, -187500.02, -117623.30, 0.000, 0.000, 0.000, 16:30:46.843, 1578580246843
119, -165781.78, -106768.11, -172704.38, -172381.56, -152955.73, -145884.47, -172342.09, -172941.34, 0.000, 0.000, 0.000, 16:30:46.843, 1578580246843
120, -181037.64, -177381.58, -181721.58, -181578.50, -187500.02, -187500.02, -187500.02, -117595.63, 0.000, 0.000, 0.000, 16:30:46.843, 1578580246843
121, -166067.78, -106983.63, -172697.47, -172375.66, -153219.48, -146144.28, -172338.22, -172933.14, -0.004, -0.018, 0.974, 16:30:46.843, 1578580246843
122, -181021.78, -177363.83, -181704.86, -181560.98, -187500.02, -187500.02, -187500.02, -117564.61, 0.000, 0.000, 0.000, 16:30:46.843, 1578580246843
123, -166355.47, -107198.43, -172694.73, -172375.31, -153485.63, -146406.36, -172331.63, -172927.30, 0.000, 0.000, 0.000, 16:30:46.843, 1578580246843
124, -181011.03, -177355.05, -181692.77, -181553.06, -187500.02, -187500.02, -187500.02, -117538.52, 0.000, 0.000, 0.000, 16:30:46.843, 1578580246843
125, -166642.27, -107417.41, -172688.13, -172367.17, -153752.69, -146668.13, -172327.92, -172923.23, 0.000, 0.000, 0.000, 16:30:46.843, 1578580246843
126, -180997.16, -177340.30, -181678.14, -181538.78, -187500.02, -187500.02, -187500.02, -117509.48, 0.000, 0.000, 0.000, 16:30:46.843, 1578580246843
127, -166933.44, -107635.07, -172680.94, -172359.61, -154018.06, -146931.22, -172320.34, -172916.27, 0.000, 0.000, 0.000, 16:30:46.843, 1578580246843
128, -180984.42, -177326.75, -181664.41, -181525.70, -187500.02, -187500.02, -187500.02, -117481.46, 0.000, 0.000, 0.000, 16:30:46.843, 1578580246843
129, -167218.00, -107851.21, -172678.80, -172357.45, -154277.34, -147189.50, -172319.30, -172914.97, 0.000, 0.000, 0.000, 16:30:46.844, 1578580246844
130, -180971.97, -177317.17, -181650.72, -181517.17, -187500.02, -187500.02, -187500.02, -117453.27, 0.000, 0.000, 0.000, 16:30:46.844, 1578580246844
131, -167505.16, -108067.91, -172671.25, -172350.98, -154538.92, -147449.98, -172312.36, -172905.95, -0.002, -0.022, 0.974, 16:30:46.844, 1578580246844
132, -180959.06, -177301.08, -181637.16, -181501.14, -187500.02, -187500.02, -187500.02, -117424.80, 0.000, 0.000, 0.000, 16:30:46.844, 1578580246844
133, -167797.83, -108286.87, -172668.11, -172344.44, -154803.11, -147713.58, -172306.02, -172901.11, 0.000, 0.000, 0.000, 16:30:46.844, 1578580246844
134, -180949.28, -177290.41, -181626.52, -181490.89, -187500.02, -187500.02, -187500.02, -117400.01, 0.000, 0.000, 0.000, 16:30:46.844, 1578580246844
135, -168087.38, -108505.73, -172661.77, -172344.13, -155064.84, -147975.97, -172300.58, -172895.20, 0.000, 0.000, 0.000, 16:30:46.844, 1578580246844
136, -180934.30, -177272.63, -181610.75, -181473.11, -187500.02, -187500.02, -187500.02, -117370.33, 0.000, 0.000, 0.000, 16:30:46.845, 1578580246845
137, -168377.20, -108724.54, -172653.47, -172334.63, -155325.84, -148239.25, -172294.50, -172886.95, 0.000, 0.000, 0.000, 16:30:46.845, 1578580246845
138, -180920.11, -177257.28, -181595.78, -181458.14, -187500.02, -187500.02, -187500.02, -117342.19, 0.000, 0.000, 0.000, 16:30:46.845, 1578580246845
139, -168668.22, -108942.13, -172649.23, -172328.70, -155587.00, -148502.38, -172289.44, -172885.78, 0.000, 0.000, 0.000, 16:30:46.845, 1578580246845
140, -180907.44, -177244.48, -181582.08, -181446.05, -187500.02, -187500.02, -187500.02, -117315.30, 0.000, 0.000, 0.000, 16:30:46.845, 1578580246845
141, -168962.89, -109159.34, -172644.53, -172323.78, -155856.78, -148767.03, -172284.41, -172879.19, 0.000, -0.022, 0.978, 16:30:46.845, 1578580246845
142, -180894.31, -177232.98, -181567.84, -181435.27, -187500.02, -187500.02, -187500.02, -117287.76, 0.000, 0.000, 0.000, 16:30:46.846, 1578580246846
143, -169256.81, -109376.98, -172638.91, -172320.50, -156120.47, -149027.05, -172279.66, -172874.33, 0.000, 0.000, 0.000, 16:30:46.846, 1578580246846
144, -180880.44, -177217.97, -181553.06, -181420.67, -187500.02, -187500.02, -187500.02, -117259.52, 0.000, 0.000, 0.000, 16:30:46.846, 1578580246846
145, -169549.70, -109593.59, -172633.36, -172311.41, -156382.66, -149287.08, -172274.08, -172871.02, 0.000, 0.000, 0.000, 16:30:46.846, 1578580246846
146, -180868.16, -177206.34, -181539.67, -181409.70, -187500.02, -187500.02, -187500.02, -117232.86, 0.000, 0.000, 0.000, 16:30:46.846, 1578580246846
147, -169840.95, -109807.41, -172627.39, -172312.55, -156646.78, -149548.36, -172271.50, -172865.69, 0.000, 0.000, 0.000, 16:30:46.846, 1578580246846
148, -180854.16, -177191.44, -181524.75, -181395.16, -187500.02, -187500.02, -187500.02, -117204.34, 0.000, 0.000, 0.000, 16:30:46.846, 1578580246846
149, -170134.86, -110025.81, -172622.50, -172306.94, -156911.59, -149809.19, -172264.16, -172858.64, 0.000, 0.000, 0.000, 16:30:46.846, 1578580246846
150, -180841.61, -177178.42, -181511.33, -181382.64, -187500.02, -187500.02, -187500.02, -117177.83, 0.000, 0.000, 0.000, 16:30:46.846, 1578580246846
151, -170430.69, -110241.77, -172615.61, -172298.78, -157172.48, -150065.50, -172256.44, -172855.58, 0.002, -0.024, 0.980, 16:30:46.846, 1578580246846
152, -180827.59, -177163.16, -181496.27, -181367.86, -187500.02, -187500.02, -187500.02, -117149.67, 0.000, 0.000, 0.000, 16:30:46.846, 1578580246846
153, -170720.42, -110453.91, -172615.13, -172292.61, -157430.80, -150321.22, -172256.02, -172854.50, 0.000, 0.000, 0.000, 16:30:46.846, 1578580246846
154, -180817.06, -177152.55, -181484.77, -181357.72, -187500.02, -187500.02, -187500.02, -117125.08, 0.000, 0.000, 0.000, 16:30:46.847, 1578580246847
155, -171011.89, -110670.86, -172611.63, -172292.22, -157692.02, -150578.06, -172252.69, -172848.31, 0.000, 0.000, 0.000, 16:30:46.847, 1578580246847
156, -180804.86, -177141.45, -181471.34, -181347.41, -187500.02, -187500.02, -187500.02, -117098.44, 0.000, 0.000, 0.000, 16:30:46.847, 1578580246847
157, -171313.38, -110889.62, -172602.88, -172285.03, -157956.94, -150841.41, -172243.67, -172841.52, 0.000, 0.000, 0.000, 16:30:46.847, 1578580246847
158, -180789.84, -177125.44, -181455.45, -181331.69, -187500.02, -187500.02, -187500.02, -117069.23, 0.000, 0.000, 0.000, 16:30:46.847, 1578580246847
159, -171612.11, -111106.07, -172596.16, -172276.56, -158220.64, -151099.58, -172235.98, -172831.34, 0.000, 0.000, 0.000, 16:30:46.847, 1578580246847
160, -180774.52, -177109.09, -181439.27, -181315.80, -187500.02, -187500.02, -187500.02, -117039.98, 0.002, -0.020, 0.982, 16:30:46.847, 1578580246847
161, -171907.27, -111317.49, -172591.36, -172270.41, -158479.61, -151352.78, -172233.48, -172827.53, 0.000, 0.000, 0.000, 16:30:46.847, 1578580246847
162, -180763.16, -177098.83, -181426.89, -181306.22, -187500.02, -187500.02, -187500.02, -117014.17, 0.000, 0.000, 0.000, 16:30:46.847, 1578580246847
163, -172207.78, -111531.91, -172584.19, -172264.28, -158740.94, -151609.86, -172224.19, -172820.59, 0.000, 0.000, 0.000, 16:30:46.847, 1578580246847
164, -180748.97, -177082.36, -181411.95, -181290.02, -187500.02, -187500.02, -187500.02, -116986.19, 0.000, 0.000, 0.000, 16:30:46.847, 1578580246847
165, -172503.50, -111749.94, -172582.66, -172258.45, -159004.63, -151870.06, -172222.31, -172819.64, 0.000, 0.000, 0.000, 16:30:46.847, 1578580246847
166, -180737.42, -177070.09, -181399.39, -181278.30, -187500.02, -187500.02, -187500.02, -116960.93, 0.000, 0.000, 0.000, 16:30:46.848, 1578580246848
167, -172627.28, -111985.39, -172577.95, -172260.70, -159270.70, -152132.66, -172218.02, -172814.52, 0.000, 0.000, 0.000, 16:30:46.848, 1578580246848
168, -180725.98, -177057.34, -181386.97, -181265.80, -187500.02, -187500.02, -187500.02, -116936.14, 0.000, 0.000, 0.000, 16:30:46.848, 1578580246848
169, -172623.28, -112248.00, -172571.17, -172253.95, -159540.27, -152401.13, -172211.20, -172807.19, 0.000, 0.000, 0.000, 16:30:46.848, 1578580246848
170, -180713.20, -177044.14, -181373.38, -181253.02, -187500.02, -187500.02, -187500.02, -116910.15, -0.002, -0.012, 0.978, 16:30:46.848, 1578580246848
171, -172618.53, -112516.53, -172566.91, -172246.42, -159815.02, -152671.16, -172208.88, -172805.73, 0.000, 0.000, 0.000, 16:30:46.848, 1578580246848
172, -180701.64, -177035.63, -181360.48, -181245.58, -187500.02, -187500.02, -187500.02, -116884.53, 0.000, 0.000, 0.000, 16:30:46.848, 1578580246848
173, -172615.61, -112785.58, -172564.69, -172245.42, -160090.91, -152941.66, -172206.13, -172803.56, 0.000, 0.000, 0.000, 16:30:46.848, 1578580246848
174, -180693.11, -177026.38, -181350.97, -181236.86, -187500.02, -187500.02, -187500.02, -116861.64, 0.000, 0.000, 0.000, 16:30:46.848, 1578580246848
175, -172610.56, -113050.36, -172559.94, -172243.72, -160362.45, -153210.50, -172198.48, -172797.73, 0.000, 0.000, 0.000, 16:30:46.848, 1578580246848
176, -180681.06, -177013.05, -181338.20, -181224.09, -187500.02, -187500.02, -187500.02, -116835.91, 0.000, 0.000, 0.000, 16:30:46.848, 1578580246848
177, -172606.69, -113313.08, -172555.59, -172238.27, -160632.75, -153476.53, -172194.53, -172791.03, 0.000, 0.000, 0.000, 16:30:46.849, 1578580246849
178, -180669.72, -177003.91, -181325.66, -181215.64, -187500.02, -187500.02, -187500.02, -116810.16, 0.000, 0.000, 0.000, 16:30:46.849, 1578580246849
179, -172600.56, -113579.58, -172552.31, -172234.05, -160908.30, -153747.94, -172190.45, -172787.11, 0.000, 0.000, 0.000, 16:30:46.849, 1578580246849
180, -180659.63, -176993.91, -181314.66, -181206.28, -187500.02, -187500.02, -187500.02, -116785.49, 0.000, -0.012, 0.980, 16:30:46.849, 1578580246849
181, -172600.25, -113844.70, -172550.31, -172231.61, -161184.19, -154016.59, -172191.69, -172785.13, 0.000, 0.000, 0.000, 16:30:46.849, 1578580246849
182, -180651.53, -176987.23, -181305.86, -181200.22, -187500.02, -187500.02, -187500.02, -116762.67, 0.000, 0.000, 0.000, 16:30:46.849, 1578580246849
183, -172595.27, -114109.72, -172544.69, -172226.80, -161461.23, -154286.31, -172184.78, -172778.52, 0.000, 0.000, 0.000, 16:30:46.849, 1578580246849
184, -180639.84, -176973.11, -181293.36, -181186.39, -187500.02, -187500.02, -187500.02, -116736.30, 0.000, 0.000, 0.000, 16:30:46.849, 1578580246849
185, -172587.22, -114372.20, -172540.67, -172220.86, -161734.16, -154553.05, -172176.55, -172770.73, 0.000, 0.000, 0.000, 16:30:46.849, 1578580246849
186, -180627.53, -176963.31, -181280.00, -181177.53, -187500.02, -187500.02, -187500.02, -116709.20, 0.000, 0.000, 0.000, 16:30:46.849, 1578580246849
187, -172586.02, -114636.10, -172537.98, -172217.02, -162005.30, -154820.69, -172174.70, -172770.86, 0.000, 0.000, 0.000, 16:30:46.850, 1578580246850
188, -180618.98, -176956.03, -181270.30, -181170.84, -187500.02, -187500.02, -187500.02, -116685.18, 0.000, 0.000, 0.000, 16:30:46.850, 1578580246850
189, -172579.52, -114904.10, -172527.83, -172208.20, -162281.53, -155094.81, -172171.38, -172764.78, 0.000, 0.000, 0.000, 16:30:46.850, 1578580246850
190, -180608.69, -176945.09, -181259.30, -181160.34, -187500.02, -187500.02, -187500.02, -116659.67, -0.004, -0.018, 0.982, 16:30:46.850, 1578580246850
191, -172576.77, -115169.80, -172529.73, -172205.08, -162557.38, -155362.28, -172166.39, -172764.47, 0.000, 0.000, 0.000, 16:30:46.850, 1578580246850
192, -180599.81, -176933.56, -181250.05, -181148.97, -187500.02, -187500.02, -187500.02, -116635.98, 0.000, 0.000, 0.000, 16:30:46.850, 1578580246850
193, -172569.94, -115434.04, -172521.33, -172200.83, -162829.50, -155627.34, -172161.02, -172757.91, 0.000, 0.000, 0.000, 16:30:46.850, 1578580246850
194, -180589.14, -176921.66, -181238.53, -181137.33, -187500.02, -187500.02, -187500.02, -116610.77, 0.000, 0.000, 0.000, 16:30:46.850, 1578580246850
195, -172567.80, -115696.27, -172520.38, -172197.14, -163104.56, -155895.05, -172159.67, -172752.45, 0.000, 0.000, 0.000, 16:30:46.850, 1578580246850
196, -180581.13, -176916.02, -181229.33, -181132.88, -187500.02, -187500.02, -187500.02, -116587.59, 0.000, 0.000, 0.000, 16:30:46.851, 1578580246851
197, -172562.53, -115961.63, -172515.20, -172195.39, -163382.38, -156167.56, -172154.98, -172750.56, 0.000, 0.000, 0.000, 16:30:46.851, 1578580246851
198, -180570.34, -176904.19, -181217.97, -181121.34, -187500.02, -187500.02, -187500.02, -116561.98, 0.000, 0.000, 0.000, 16:30:46.851, 1578580246851
199, -172559.06, -116226.88, -172512.25, -172193.14, -163657.50, -156439.14, -172152.14, -172746.81, 0.000, 0.000, 0.000, 16:30:46.851, 1578580246851
200, -180560.63, -176893.91, -181207.48, -181111.47, -187500.02, -187500.02, -187500.02, -116537.43, 0.000, -0.018, 0.980, 16:30:46.851, 1578580246851
201, -172555.50, -116488.39, -172507.66, -172188.92, -163928.97, -156708.67, -172146.45, -172741.83, 0.000, 0.000, 0.000, 16:30:46.851, 1578580246851
202, -180551.03, -176886.61, -181196.89, -181104.98, -187500.02, -187500.02, -187500.02, -116512.58, 0.000, 0.000, 0.000, 16:30:46.851, 1578580246851
203, -172551.03, -116748.09, -172500.61, -172183.86, -164202.97, -156977.55, -172140.84, -172736.56, 0.000, 0.000, 0.000, 16:30:46.851, 1578580246851
204, -180541.63, -176877.66, -181186.61, -181096.69, -187500.02, -187500.02, -187500.02, -116487.77, 0.000, 0.000, 0.000, 16:30:46.851, 1578580246851
205, -172545.98, -117012.34, -172498.28, -172179.14, -164481.47, -157249.91, -172138.53, -172735.77, 0.000, 0.000, 0.000, 16:30:46.851, 1578580246851
206, -180532.91, -176867.52, -181177.44, -181086.70, -187500.02, -187500.02, -187500.02, -116464.01, 0.000, 0.000, 0.000, 16:30:46.851, 1578580246851
207, -172540.91, -117275.22, -172492.66, -172175.08, -164756.88, -157518.42, -172135.83, -172727.72, 0.000, 0.000, 0.000, 16:30:46.851, 1578580246851
208, -180522.88, -176856.56, -181166.67, -181076.19, -187500.02, -187500.02, -187500.02, -116439.02, 0.000, 0.000, 0.000, 16:30:46.852, 1578580246852
209, -172537.58, -117537.38, -172489.02, -172173.09, -165031.31, -157788.92, -172129.77, -172727.38, -0.002, -0.012, 0.974, 16:30:46.852, 1578580246852
210, -180513.38, -176847.13, -181156.30, -181067.41, -187500.02, -187500.02, -187500.02, -116414.48, 0.000, 0.000, 0.000, 16:30:46.852, 1578580246852
211, -172535.64, -117799.30, -172486.53, -172166.45, -165308.84, -158061.31, -172129.45, -172722.23, 0.000, 0.000, 0.000, 16:30:46.852, 1578580246852
212, -180506.00, -176840.45, -181148.14, -181061.42, -187500.02, -187500.02, -187500.02, -116391.79, 0.000, 0.000, 0.000, 16:30:46.852, 1578580246852
213, -172529.44, -118068.55, -172480.83, -172164.44, -165588.38, -158335.97, -172123.16, -172716.34, 0.000, 0.000, 0.000, 16:30:46.852, 1578580246852
214, -180496.25, -176828.02, -181137.81, -181048.94, -187500.02, -187500.02, -187500.02, -116367.23, 0.000, 0.000, 0.000, 16:30:46.852, 1578580246852
215, -172526.05, -118333.04, -172479.83, -172157.78, -165864.13, -158605.17, -172118.59, -172715.72, 0.000, 0.000, 0.000, 16:30:46.852, 1578580246852
216, -180486.19, -176815.84, -181127.17, -181036.97, -187500.02, -187500.02, -187500.02, -116342.68, 0.000, 0.000, 0.000, 16:30:46.852, 1578580246852
217, -172518.67, -118599.05, -172470.50, -172150.72, -166140.36, -158875.39, -172111.89, -172704.97, 0.000, 0.000, 0.000, 16:30:46.852, 1578580246852
218, -180474.17, -176803.13, -181114.41, -181024.61, -187500.02, -187500.02, -187500.02, -116316.62, 0.000, 0.000, 0.000, 16:30:46.852, 1578580246852
219, -172515.25, -118861.12, -172467.78, -172145.48, -166416.69, -159147.03, -172107.53, -172703.08, 0.002, -0.020, 0.976, 16:30:46.853, 1578580246853
220, -180465.34, -176793.67, -181104.67, -181015.73, -187500.02, -187500.02, -187500.02, -116293.55, 0.000, 0.000, 0.000, 16:30:46.853, 1578580246853
221, -172508.20, -119125.61, -172463.17, -172140.52, -166698.77, -159418.63, -172100.92, -172697.86, 0.000, 0.000, 0.000, 16:30:46.853, 1578580246853
222, -180453.86, -176783.61, -181092.20, -181006.34, -187500.02, -187500.02, -187500.02, -116267.89, 0.000, 0.000, 0.000, 16:30:46.853, 1578580246853
223, -172505.81, -119384.30, -172460.42, -172140.02, -166978.50, -159685.91, -172098.86, -172694.53, 0.000, 0.000, 0.000, 16:30:46.853, 1578580246853
224, -180443.28, -176773.03, -181080.80, -180996.31, -187500.02, -187500.02, -187500.02, -116242.88, 0.000, 0.000, 0.000, 16:30:47.322, 1578580247322
225, -172501.38, -119644.95, -172454.88, -172131.66, -167255.73, -159951.53, -172094.56, -172692.81, 0.000, 0.000, 0.000, 16:30:47.322, 1578580247322
226, -180433.72, -176763.88, -181070.56, -180987.77, -187500.02, -187500.02, -187500.02, -116218.83, 0.000, 0.000, 0.000, 16:30:47.322, 1578580247322
227, -172494.98, -119909.13, -172451.59, -172133.59, -167530.83, -160219.41, -172090.13, -172686.17, 0.000, 0.000, 0.000, 16:30:47.322, 1578580247322
228, -180425.53, -176752.94, -181061.70, -180976.81, -187500.02, -187500.02, -187500.02, -116196.55, 0.000, 0.000, 0.000, 16:30:47.322, 1578580247322
229, -172491.77, -120177.30, -172444.19, -172121.38, -167813.00, -160494.89, -172085.89, -172680.11, 0.000, -0.016, 0.976, 16:30:47.322, 1578580247322
230, -180415.92, -176744.31, -181051.06, -180968.84, -187500.02, -187500.02, -187500.02, -116172.79, 0.000, 0.000, 0.000, 16:30:47.322, 1578580247322
231, -172489.23, -120439.89, -172443.81, -172119.73, -168090.19, -160765.56, -172083.55, -172679.22, 0.000, 0.000, 0.000, 16:30:47.322, 1578580247322
232, -180406.41, -176734.48, -181040.77, -180959.53, -187500.02, -187500.02, -187500.02, -116149.00, 0.000, 0.000, 0.000, 16:30:47.323, 1578580247323
233, -172483.73, -120699.10, -172437.47, -172116.66, -168367.11, -161031.30, -172076.78, -172672.56, 0.000, 0.000, 0.000, 16:30:47.323, 1578580247323
234, -180395.89, -176721.95, -181029.61, -180947.22, -187500.02, -187500.02, -187500.02, -116124.66, 0.000, 0.000, 0.000, 16:30:47.323, 1578580247323
235, -172478.28, -120960.51, -172432.80, -172114.53, -168647.58, -161299.50, -172072.53, -172669.33, 0.000, 0.000, 0.000, 16:30:47.323, 1578580247323
236, -180386.27, -176714.09, -181019.06, -180940.27, -187500.02, -187500.02, -187500.02, -116100.99, 0.000, 0.000, 0.000, 16:30:47.323, 1578580247323
237, -172475.70, -121227.45, -172430.94, -172107.84, -168932.52, -161571.05, -172068.28, -172664.25, 0.000, 0.000, 0.000, 16:30:47.323, 1578580247323
238, -180377.91, -176706.19, -181009.88, -180933.00, -187500.02, -187500.02, -187500.02, -116078.33, 0.000, 0.000, 0.000, 16:30:47.323, 1578580247323
239, -172470.33, -121491.80, -172427.00, -172103.23, -169214.20, -161841.11, -172066.97, -172658.86, 0.000, -0.018, 0.964, 16:30:47.323, 1578580247323
240, -180366.25, -176690.78, -180997.72, -180917.56, -187500.02, -187500.02, -187500.02, -116052.84, 0.000, 0.000, 0.000, 16:30:47.323, 1578580247323
241, -172465.08, -121752.43, -172423.14, -172100.78, -169490.56, -162110.20, -172060.81, -172654.66, 0.000, 0.000, 0.000, 16:30:47.323, 1578580247323
242, -180356.28, -176682.86, -180986.81, -180910.77, -187500.02, -187500.02, -187500.02, -116029.06, 0.000, 0.000, 0.000, 16:30:47.323, 1578580247323
243, -172459.34, -122015.13, -172415.19, -172090.70, -169769.77, -162379.30, -172054.33, -172647.55, 0.000, 0.000, 0.000, 16:30:47.323, 1578580247323
244, -180345.41, -176670.84, -180975.31, -180898.88, -187500.02, -187500.02, -187500.02, -116004.27, 0.000, 0.000, 0.000, 16:30:47.323, 1578580247323
245, -172453.69, -122280.69, -172409.08, -172086.97, -170055.38, -162653.38, -172049.58, -172643.42, 0.000, 0.000, 0.000, 16:30:47.324, 1578580247324
246, -180335.48, -176658.09, -180964.75, -180886.20, -187500.02, -187500.02, -187500.02, -115980.85, 0.000, 0.000, 0.000, 16:30:47.324, 1578580247324
247, -172452.05, -122543.52, -172407.89, -172085.50, -170337.31, -162923.45, -172044.77, -172641.72, 0.000, 0.000, 0.000, 16:30:47.324, 1578580247324
248, -180326.09, -176651.23, -180954.31, -180880.28, -187500.02, -187500.02, -187500.02, -115957.60, 0.000, -0.014, 0.968, 16:30:47.324, 1578580247324
249, -172447.61, -122803.66, -172400.97, -172085.69, -170615.08, -163189.86, -172043.31, -172638.25, 0.000, 0.000, 0.000, 16:30:47.324, 1578580247324
250, -180315.78, -176639.50, -180943.47, -180868.67, -187500.02, -187500.02, -187500.02, -115933.82, 0.000, 0.000, 0.000, 16:30:47.324, 1578580247324
251, -172440.34, -123067.47, -172395.53, -172075.64, -170901.05, -163461.41, -172036.34, -172631.61, 0.000, 0.000, 0.000, 16:30:47.324, 1578580247324
252, -180305.13, -176626.63, -180932.16, -180856.05, -187500.02, -187500.02, -187500.02, -115909.91, 0.000, 0.000, 0.000, 16:30:47.324, 1578580247324
253, -172436.34, -123330.13, -172391.58, -172076.89, -171186.84, -163733.14, -172033.02, -172627.67, 0.000, 0.000, 0.000, 16:30:47.324, 1578580247324
254, -180295.31, -176615.86, -180921.61, -180845.77, -187500.02, -187500.02, -187500.02, -115886.95, 0.000, 0.000, 0.000, 16:30:47.324, 1578580247324
255, -172431.28, -123592.09, -172387.20, -172071.05, -171467.92, -164003.64, -172029.33, -172626.47, 0.000, 0.000, 0.000, 16:30:47.324, 1578580247324
0, -180285.13, -176604.91, -180910.45, -180835.27, -187500.02, -187500.02, -187500.02, -115863.95, 0.000, 0.000, 0.000, 16:30:47.324, 1578580247324
1, -172428.30, -123855.02, -172381.75, -172062.16, -171746.39, -164272.22, -172022.53, -172618.98, 0.000, 0.000, 0.000, 16:30:47.324, 1578580247324
2, -180275.33, -176596.52, -180899.81, -180827.48, -187500.02, -187500.02, -187500.02, -115841.13, 0.000, -0.016, 0.974, 16:30:47.324, 1578580247324
3, -172422.73, -124113.42, -172380.20, -172062.94, -172029.38, -164540.64, -172019.88, -172615.39, 0.000, 0.000, 0.000, 16:30:47.325, 1578580247325
4, -180264.58, -176585.08, -180888.44, -180816.58, -187500.02, -187500.02, -187500.02, -115817.46, 0.000, 0.000, 0.000, 16:30:47.325, 1578580247325
5, -172419.23, -124378.18, -172374.02, -172053.63, -172313.84, -164812.48, -172016.31, -172611.27, 0.000, 0.000, 0.000, 16:30:47.325, 1578580247325
6, -180254.14, -176575.52, -180877.11, -180807.59, -187500.02, -187500.02, -187500.02, -115793.74, 0.000, 0.000, 0.000, 16:30:47.325, 1578580247325
7, -172414.25, -124644.01, -172369.11, -172045.38, -172598.91, -165088.39, -172009.66, -172603.55, 0.000, 0.000, 0.000, 16:30:47.325, 1578580247325
8, -180244.39, -176564.11, -180866.64, -180796.45, -187500.02, -187500.02, -187500.02, -115771.15, 0.000, 0.000, 0.000, 16:30:47.325, 1578580247325
9, -172408.19, -124934.96, -172361.84, -172042.52, -172702.20, -165422.48, -172003.42, -172596.19, 0.000, 0.000, 0.000, 16:30:47.325, 1578580247325
10, -180235.28, -176557.45, -180856.52, -180790.78, -187500.02, -187500.02, -187500.02, -115748.75, 0.000, 0.000, 0.000, 16:30:47.325, 1578580247325
11, -172404.05, -125244.30, -172359.38, -172038.64, -172637.22, -165792.25, -172002.77, -172593.19, 0.000, 0.000, 0.000, 16:30:47.325, 1578580247325
12, -180229.33, -176553.61, -180849.64, -180787.70, -187500.02, -187500.02, -187500.02, -115729.17, 0.000, -0.014, 0.976, 16:30:47.325, 1578580247325
13, -172407.98, -125540.58, -172365.50, -172045.81, -172616.55, -166134.72, -172006.19, -172601.13, 0.000, 0.000, 0.000, 16:30:47.325, 1578580247325
14, -180223.09, -176549.78, -180842.58, -180784.77, -187500.02, -187500.02, -187500.02, -115708.85, 0.000, 0.000, 0.000, 16:30:47.325, 1578580247325
15, -172401.19, -125829.88, -172356.08, -172040.08, -172718.45, -166468.33, -171998.61, -172591.92, 0.000, 0.000, 0.000, 16:30:47.326, 1578580247326
16, -180214.83, -176541.67, -180833.61, -180777.27, -187500.02, -187500.02, -187500.02, -115686.41, 0.000, 0.000, 0.000, 16:30:47.326, 1578580247326
17, -172399.95, -126133.93, -172354.66, -172040.61, -172656.09, -166831.69, -171997.61, -172591.41, 0.000, 0.000, 0.000, 16:30:47.326, 1578580247326
18, -180209.59, -176537.94, -180827.59, -180774.23, -187500.02, -187500.02, -187500.02, -115666.67, 0.000, 0.000, 0.000, 16:30:47.326, 1578580247326
19, -172400.08, -126434.13, -172357.33, -172039.50, -172588.05, -167193.88, -171996.98, -172591.22, 0.000, 0.000, 0.000, 16:30:47.326, 1578580247326
20, -180205.02, -176534.05, -180822.33, -180770.89, -187500.02, -187500.02, -187500.02, -115647.61, 0.000, 0.000, 0.000, 16:30:47.326, 1578580247326
21, -172395.80, -126720.75, -172350.08, -172034.28, -172684.66, -167522.09, -171994.70, -172586.86, 0.000, 0.000, 0.000, 16:30:47.326, 1578580247326
22, -180195.83, -176523.41, -180812.58, -180760.56, -187500.02, -187500.02, -187500.02, -115623.83, -0.002, -0.012, 0.976, 16:30:47.326, 1578580247326
23, -172391.41, -127024.02, -172347.86, -172034.42, -172669.34, -167885.27, -171988.86, -172582.47, 0.000, 0.000, 0.000, 16:30:47.326, 1578580247326
24, -180190.95, -176519.88, -180807.08, -180757.70, -187500.02, -187500.02, -187500.02, -115604.38, 0.000, 0.000, 0.000, 16:30:47.326, 1578580247326
25, -172391.84, -127326.59, -172347.39, -172029.95, -172597.55, -168250.97, -171990.30, -172582.84, 0.000, 0.000, 0.000, 16:30:47.326, 1578580247326
26, -180185.56, -176517.11, -180800.91, -180755.78, -187500.02, -187500.02, -187500.02, -115584.17, 0.000, 0.000, 0.000, 16:30:47.326, 1578580247326
27, -172393.20, -127609.10, -172351.28, -172035.94, -172631.53, -168576.69, -171992.69, -172585.75, 0.000, 0.000, 0.000, 16:30:47.326, 1578580247326
28, -180180.45, -176511.77, -180795.41, -180750.89, -187500.02, -187500.02, -187500.02, -115564.26, 0.000, 0.000, 0.000, 16:30:47.327, 1578580247327
29, -172389.20, -127907.56, -172344.33, -172026.48, -172687.50, -168926.28, -171986.78, -172578.06, 0.000, 0.000, 0.000, 16:30:47.327, 1578580247327
30, -180175.47, -176507.94, -180789.78, -180747.84, -187500.02, -187500.02, -187500.02, -115544.19, 0.000, 0.000, 0.000, 16:30:47.327, 1578580247327
31, -172389.13, -128210.09, -172347.08, -172033.92, -172616.81, -169291.33, -171987.92, -172579.69, -0.002, -0.014, 0.978, 16:30:47.327, 1578580247327
32, -180171.59, -176503.92, -180785.42, -180744.36, -187500.02, -187500.02, -187500.02, -115525.44, 0.000, 0.000, 0.000, 16:30:47.327, 1578580247327
33, -172390.34, -128499.46, -172347.92, -172028.98, -172598.47, -169631.30, -171987.55, -172584.00, 0.000, 0.000, 0.000, 16:30:47.327, 1578580247327
34, -180165.88, -176500.48, -180779.06, -180741.66, -187500.02, -187500.02, -187500.02, -115504.58, 0.000, 0.000, 0.000, 16:30:47.327, 1578580247327
35, -172383.95, -128784.69, -172340.17, -172026.17, -172700.86, -169965.36, -171983.30, -172576.83, 0.000, 0.000, 0.000, 16:30:47.327, 1578580247327
36, -180160.58, -176495.52, -180773.23, -180737.45, -187500.02, -187500.02, -187500.02, -115483.95, 0.000, 0.000, 0.000, 16:30:47.327, 1578580247327
37, -172386.33, -129087.42, -172342.27, -172025.84, -172640.06, -170336.33, -171982.97, -172577.97, 0.000, 0.000, 0.000, 16:30:47.327, 1578580247327
38, -180158.16, -176495.52, -180770.17, -180738.13, -187500.02, -187500.02, -187500.02, -115466.20, 0.000, 0.000, 0.000, 16:30:47.327, 1578580247327
39, -172386.50, -129383.96, -172342.89, -172024.50, -172575.95, -170695.66, -171984.73, -172581.36, 0.000, 0.000, 0.000, 16:30:47.328, 1578580247328
40, -180154.70, -176492.41, -180766.42, -180735.33, -187500.02, -187500.02, -187500.02, -115447.49, 0.000, 0.000, 0.000, 16:30:47.328, 1578580247328
41, -172384.63, -129658.15, -172341.63, -172023.31, -172682.55, -171012.14, -171985.88, -172577.52, -0.002, -0.018, 0.978, 16:30:47.328, 1578580247328
42, -180147.80, -176483.91, -180759.36, -180727.03, -187500.02, -187500.02, -187500.02, -115425.25, 0.000, 0.000, 0.000, 16:30:47.328, 1578580247328
43, -172379.59, -129956.48, -172337.36, -172019.95, -172653.05, -171380.00, -171981.64, -172573.13, 0.000, 0.000, 0.000, 16:30:47.328, 1578580247328
44, -180144.64, -176480.98, -180755.67, -180724.64, -187500.02, -187500.02, -187500.02, -115406.86, 0.000, 0.000, 0.000, 16:30:47.329, 1578580247329
45, -172378.13, -130261.54, -172334.64, -172020.72, -172586.83, -171753.17, -171976.58, -172571.59, 0.000, 0.000, 0.000, 16:30:47.329, 1578580247329
46, -180139.81, -176477.23, -180750.38, -180721.64, -187500.02, -187500.02, -187500.02, -115386.63, 0.000, 0.000, 0.000, 16:30:47.330, 1578580247330
47, -172378.08, -130544.91, -172335.30, -172015.69, -172625.98, -172086.72, -171977.11, -172572.41, 0.000, 0.000, 0.000, 16:30:47.330, 1578580247330
48, -180133.22, -176467.55, -180743.70, -180711.95, -187500.02, -187500.02, -187500.02, -115364.95, 0.000, 0.000, 0.000, 16:30:47.330, 1578580247330
49, -172372.58, -130833.48, -172329.17, -172013.91, -172666.23, -172436.14, -171971.34, -172567.83, 0.000, 0.000, 0.000, 16:30:47.330, 1578580247330
50, -180127.20, -176462.20, -180737.20, -180707.05, -187500.02, -187500.02, -187500.02, -115343.80, 0.000, 0.000, 0.000, 16:30:47.330, 1578580247330
51, -172369.81, -131137.66, -172326.53, -172012.42, -172600.92, -172885.34, -171969.02, -172565.83, 0.002, -0.016, 0.982, 16:30:47.330, 1578580247330
52, -180126.25, -176464.36, -180735.53, -180710.25, -187500.02, -187500.02, -187500.02, -115327.48, 0.000, 0.000, 0.000, 16:30:47.330, 1578580247330
53, -172366.81, -131480.80, -172323.19, -172010.89, -172567.86, -173242.64, -171969.39, -172568.69, 0.000, 0.000, 0.000, 16:30:47.330, 1578580247330
54, -180128.50, -176472.42, -180736.94, -180719.70, -187500.02, -187500.02, -187500.02, -115313.90, 0.000, 0.000, 0.000, 16:30:47.330, 1578580247330
55, -172375.13, -131817.78, -172330.73, -172009.39, -172649.89, -173205.14, -171974.83, -172566.81, 0.000, 0.000, 0.000, 16:30:47.330, 1578580247330
56, -180126.89, -176472.22, -180734.77, -180720.13, -187500.02, -187500.02, -187500.02, -115296.75, 0.000, 0.000, 0.000, 16:30:47.330, 1578580247330
57, -172377.25, -132160.31, -172334.33, -172032.63, -172709.11, -173170.73, -171976.33, -172571.39, 0.000, 0.000, 0.000, 16:30:47.330, 1578580247330
58, -180129.44, -176477.98, -180736.69, -180726.86, -187500.02, -187500.02, -187500.02, -115283.43, 0.000, 0.000, 0.000, 16:30:47.331, 1578580247331
59, -172377.94, -132518.42, -172335.88, -172036.86, -172690.83, -173150.75, -171980.11, -172570.13, 0.000, 0.000, 0.000, 16:30:47.331, 1578580247331
60, -180129.50, -176477.92, -180736.56, -180727.06, -187500.02, -187500.02, -187500.02, -115267.83, 0.000, 0.000, 0.000, 16:30:47.331, 1578580247331
61, -172375.95, -132883.28, -172332.14, -172032.16, -172677.33, -173135.78, -171979.25, -172573.44, 0.000, -0.014, 0.978, 16:30:47.331, 1578580247331
62, -180129.97, -176481.28, -180736.64, -180731.39, -187500.02, -187500.02, -187500.02, -115252.45, 0.000, 0.000, 0.000, 16:30:47.331, 1578580247331
63, -172382.86, -133242.83, -172339.39, -172024.81, -172660.69, -173118.61, -171983.39, -172573.88, 0.000, 0.000, 0.000, 16:30:47.331, 1578580247331
64, -180133.58, -176491.63, -180739.39, -180743.33, -187500.02, -187500.02, -187500.02, -115239.82, 0.000, 0.000, 0.000, 16:30:47.331, 1578580247331
65, -172388.84, -133595.08, -172344.17, -172029.34, -172638.30, -173095.19, -171989.94, -172587.17, 0.000, 0.000, 0.000, 16:30:47.331, 1578580247331
66, -180135.19, -176497.48, -180740.47, -180750.11, -187500.02, -187500.02, -187500.02, -115225.59, 0.000, 0.000, 0.000, 16:30:47.331, 1578580247331
67, -172390.44, -133951.86, -172347.52, -172038.63, -172618.89, -173074.25, -171992.16, -172589.45, 0.000, 0.000, 0.000, 16:30:47.331, 1578580247331
68, -180137.78, -176500.88, -180742.77, -180754.06, -187500.02, -187500.02, -187500.02, -115212.47, 0.000, 0.000, 0.000, 16:30:47.331, 1578580247331
69, -172392.58, -134308.31, -172351.92, -172049.00, -172597.91, -173054.42, -171995.75, -172592.20, 0.000, 0.000, 0.000, 16:30:47.331, 1578580247331
70, -180139.98, -176507.88, -180744.64, -180762.16, -187500.02, -187500.02, -187500.02, -115198.83, -0.002, -0.016, 0.976, 16:30:47.332, 1578580247332
71, -172399.06, -134642.70, -172357.42, -172045.28, -172682.28, -173017.06, -171999.19, -172590.78, 0.000, 0.000, 0.000, 16:30:47.332, 1578580247332
72, -180142.14, -176509.48, -180746.61, -180764.20, -187500.02, -187500.02, -187500.02, -115185.35, 0.000, 0.000, 0.000, 16:30:47.332, 1578580247332
73, -172401.88, -134983.66, -172357.20, -172042.20, -172726.91, -172986.20, -172005.56, -172602.05, 0.000, 0.000, 0.000, 16:30:47.332, 1578580247332
74, -180145.16, -176517.22, -180749.19, -180773.08, -187500.02, -187500.02, -187500.02, -115172.48, 0.000, 0.000, 0.000, 16:30:47.332, 1578580247332
75, -172405.34, -135338.16, -172360.94, -172055.16, -172704.25, -172964.31, -172009.75, -172602.88, 0.000, 0.000, 0.000, 16:30:47.332, 1578580247332
76, -180147.28, -176523.55, -180750.92, -180780.61, -187500.02, -187500.02, -187500.02, -115159.11, 0.000, 0.000, 0.000, 16:30:47.332, 1578580247332
77, -172407.61, -135696.47, -172363.53, -172053.83, -172687.52, -172946.14, -172010.97, -172613.16, 0.000, 0.000, 0.000, 16:30:47.332, 1578580247332
78, -180150.72, -176528.81, -180754.11, -180786.53, -187500.02, -187500.02, -187500.02, -115147.27, 0.000, 0.000, 0.000, 16:30:47.332, 1578580247332
79, -172411.52, -136051.64, -172367.89, -172061.52, -172668.89, -172926.33, -172014.27, -172615.61, 0.000, 0.000, 0.000, 16:30:47.332, 1578580247332
80, -180153.47, -176534.03, -180756.63, -180792.61, -187500.02, -187500.02, -187500.02, -115134.77, 0.000, -0.014, 0.974, 16:30:47.333, 1578580247333
81, -172414.28, -136407.53, -172370.72, -172061.38, -172647.69, -172905.67, -172014.02, -172610.84, 0.000, 0.000, 0.000, 16:30:47.333, 1578580247333
82, -180156.55, -176539.34, -180759.41, -180798.77, -187500.02, -187500.02, -187500.02, -115122.70, 0.000, 0.000, 0.000, 16:30:47.333, 1578580247333
83, -172415.45, -136762.23, -172375.33, -172070.20, -172628.03, -172886.77, -172020.86, -172615.66, 0.000, 0.000, 0.000, 16:30:47.333, 1578580247333
84, -180161.09, -176547.44, -180763.61, -180807.77, -187500.02, -187500.02, -187500.02, -115112.28, 0.000, 0.000, 0.000, 16:30:47.333, 1578580247333
85, -172419.86, -137119.08, -172379.39, -172065.69, -172618.84, -172867.27, -172024.39, -172622.67, 0.000, 0.000, 0.000, 16:30:47.333, 1578580247333
86, -180160.31, -176546.16, -180762.75, -180806.94, -187500.02, -187500.02, -187500.02, -115096.93, 0.000, 0.000, 0.000, 16:30:47.333, 1578580247333
87, -172420.80, -137452.52, -172378.80, -172064.77, -172750.61, -172832.22, -172026.63, -172616.03, 0.000, 0.000, 0.000, 16:30:47.333, 1578580247333
88, -180161.72, -176549.06, -180763.83, -180810.52, -187500.02, -187500.02, -187500.02, -115083.56, 0.000, 0.000, 0.000, 16:30:47.333, 1578580247333
89, -172424.45, -137802.64, -172385.34, -172074.88, -172746.75, -172810.30, -172028.98, -172622.22, 0.000, 0.000, 0.000, 16:30:47.801, 1578580247801
90, -180165.88, -176556.52, -180767.72, -180818.75, -187500.02, -187500.02, -187500.02, -115073.08, 0.002, -0.014, 0.978, 16:30:47.802, 1578580247802
91, -172425.44, -138161.00, -172384.94, -172074.83, -172730.19, -172794.25, -172030.44, -172624.94, 0.000, 0.000, 0.000, 16:30:47.802, 1578580247802
92, -180169.00, -176562.38, -180770.44, -180825.56, -187500.02, -187500.02, -187500.02, -115061.55, 0.000, 0.000, 0.000, 16:30:47.802, 1578580247802
93, -172431.83, -138518.73, -172389.08, -172079.13, -172715.05, -172780.47, -172035.36, -172634.08, 0.000, 0.000, 0.000, 16:30:47.802, 1578580247802
94, -180172.42, -176566.81, -180773.73, -180830.66, -187500.02, -187500.02, -187500.02, -115050.95, 0.000, 0.000, 0.000, 16:30:47.805, 1578580247805
95, -172431.20, -138874.80, -172388.66, -172085.00, -172698.98, -172764.30, -172035.30, -172634.27, 0.000, 0.000, 0.000, 16:30:47.805, 1578580247805
96, -180172.53, -176568.03, -180773.70, -180832.48, -187500.02, -187500.02, -187500.02, -115036.89, 0.000, 0.000, 0.000, 16:30:47.805, 1578580247805
97, -172434.98, -139229.70, -172390.27, -172075.88, -172681.55, -172746.92, -172040.05, -172634.36, 0.000, 0.000, 0.000, 16:30:47.806, 1578580247806
98, -180176.64, -176576.98, -180777.13, -180842.55, -187500.02, -187500.02, -187500.02, -115026.45, 0.000, 0.000, 0.000, 16:30:47.806, 1578580247806
99, -172440.47, -139584.34, -172400.77, -172088.27, -172663.84, -172729.42, -172043.67, -172640.22, 0.000, 0.000, 0.000, 16:30:47.806, 1578580247806
100, -180181.14, -176583.41, -180781.19, -180849.36, -187500.02, -187500.02, -187500.02, -115017.06, -0.004, -0.016, 0.976, 16:30:47.806, 1578580247806
101, -172438.22, -139940.22, -172403.84, -172096.88, -172647.06, -172712.95, -172045.75, -172648.38, 0.000, 0.000, 0.000, 16:30:47.806, 1578580247806
102, -180181.36, -176584.83, -180781.22, -180851.20, -187500.02, -187500.02, -187500.02, -115003.74, 0.000, 0.000, 0.000, 16:30:47.807, 1578580247807
103, -172444.13, -140296.23, -172404.52, -172091.94, -172628.06, -172651.97, -172049.73, -172651.97, 0.000, 0.000, 0.000, 16:30:47.807, 1578580247807
104, -180185.08, -176589.27, -180784.80, -180856.20, -187500.02, -187500.02, -187500.02, -114994.00, 0.000, 0.000, 0.000, 16:30:47.807, 1578580247807
105, -172451.23, -140593.83, -172413.48, -172095.23, -172728.08, -172526.41, -172054.25, -172646.91, 0.000, 0.000, 0.000, 16:30:47.807, 1578580247807
106, -180181.30, -176582.69, -180781.22, -180849.59, -187500.02, -187500.02, -187500.02, -114976.95, 0.000, 0.000, 0.000, 16:30:47.807, 1578580247807
107, -172447.92, -140888.41, -172411.14, -172095.66, -172738.61, -172942.45, -172051.16, -172647.11, 0.000, 0.000, 0.000, 16:30:47.807, 1578580247807
108, -180182.77, -176581.30, -180782.77, -180848.31, -187500.02, -187500.02, -187500.02, -114964.70, 0.000, 0.000, 0.000, 16:30:47.807, 1578580247807
109, -172444.02, -141224.94, -172405.28, -172105.25, -172708.92, -173331.11, -172047.19, -172644.48, -0.004, -0.020, 0.980, 16:30:47.808, 1578580247808
110, -180185.88, -176586.17, -180785.63, -180853.77, -187500.02, -187500.02, -187500.02, -114953.66, 0.000, 0.000, 0.000, 16:30:47.808, 1578580247808
111, -172444.91, -141583.20, -172404.25, -172100.30, -172696.17, -173323.05, -172049.73, -172649.67, 0.000, 0.000, 0.000, 16:30:47.808, 1578580247808
112, -180188.00, -176590.05, -180787.34, -180858.23, -187500.02, -187500.02, -187500.02, -114941.70, 0.000, 0.000, 0.000, 16:30:47.808, 1578580247808
113, -172449.31, -141937.63, -172410.17, -172104.81, -172679.06, -173304.56, -172055.92, -172656.69, 0.000, 0.000, 0.000, 16:30:47.808, 1578580247808
114, -180190.39, -176594.08, -180789.55, -180862.86, -187500.02, -187500.02, -187500.02, -114930.41, 0.000, 0.000, 0.000, 16:30:47.808, 1578580247808
115, -172448.83, -142298.23, -172409.44, -172100.61, -172666.50, -173290.75, -172056.45, -172660.00, 0.000, 0.000, 0.000, 16:30:47.808, 1578580247808
116, -180193.19, -176598.11, -180791.97, -180867.50, -187500.02, -187500.02, -187500.02, -114919.66, 0.000, 0.000, 0.000, 16:30:47.808, 1578580247808
117, -172452.55, -142658.53, -172412.09, -172099.02, -172654.05, -173279.70, -172059.08, -172665.86, 0.000, 0.000, 0.000, 16:30:47.809, 1578580247809
118, -180196.86, -176603.34, -180795.31, -180873.28, -187500.02, -187500.02, -187500.02, -114909.80, 0.000, 0.000, 0.000, 16:30:47.809, 1578580247809
119, -172459.23, -142988.89, -172422.78, -172113.59, -172757.63, -173243.38, -172063.83, -172661.81, -0.004, -0.020, 0.972, 16:30:47.809, 1578580247809
120, -180198.30, -176605.39, -180796.61, -180875.94, -187500.02, -187500.02, -187500.02, -114898.18, 0.000, 0.000, 0.000, 16:30:47.809, 1578580247809
121, -172459.06, -143336.66, -172419.23, -172110.48, -172802.56, -173221.30, -172064.97, -172664.45, 0.000, 0.000, 0.000, 16:30:47.809, 1578580247809
122, -180201.72, -176608.39, -180799.81, -180879.31, -187500.02, -187500.02, -187500.02, -114888.45, 0.000, 0.000, 0.000, 16:30:47.809, 1578580247809
123, -172460.78, -143694.59, -172423.77, -172107.22, -172789.27, -173209.83, -172068.94, -172668.31, 0.000, 0.000, 0.000, 16:30:47.809, 1578580247809
124, -180204.66, -176609.47, -180802.86, -180880.61, -187500.02, -187500.02, -187500.02, -114878.48, 0.000, 0.000, 0.000, 16:30:47.809, 1578580247809
125, -172463.97, -144051.05, -172428.80, -172127.30, -172775.02, -173195.28, -172070.42, -172670.42, 0.000, 0.000, 0.000, 16:30:47.809, 1578580247809
126, -180207.67, -176613.95, -180805.59, -180885.75, -187500.02, -187500.02, -187500.02, -114867.96, 0.000, 0.000, 0.000, 16:30:47.809, 1578580247809
127, -172464.20, -144409.92, -172428.64, -172123.53, -172762.66, -173181.98, -172072.13, -172673.52, 0.000, 0.000, 0.000, 16:30:47.809, 1578580247809
128, -180208.05, -176616.86, -180805.56, -180889.36, -187500.02, -187500.02, -187500.02, -114854.99, 0.000, 0.000, 0.000, 16:30:47.809, 1578580247809
129, -172466.61, -144769.19, -172428.70, -172116.61, -172748.41, -173167.91, -172073.11, -172676.03, -0.004, -0.014, 0.972, 16:30:47.809, 1578580247809
130, -180210.02, -176620.66, -180807.14, -180893.72, -187500.02, -187500.02, -187500.02, -114843.98, 0.000, 0.000, 0.000, 16:30:47.809, 1578580247809
131, -172468.00, -145127.61, -172426.77, -172109.72, -172736.16, -173156.17, -172077.06, -172680.50, 0.000, 0.000, 0.000, 16:30:47.809, 1578580247809
132, -180213.84, -176626.20, -180810.61, -180899.86, -187500.02, -187500.02, -187500.02, -114834.97, 0.000, 0.000, 0.000, 16:30:47.809, 1578580247809
133, -172472.06, -145482.84, -172432.75, -172127.25, -172723.66, -173143.63, -172079.55, -172684.81, 0.000, 0.000, 0.000, 16:30:47.810, 1578580247810
134, -180216.00, -176626.16, -180812.89, -180899.97, -187500.02, -187500.02, -187500.02, -114824.77, 0.000, 0.000, 0.000, 16:30:47.810, 1578580247810
135, -172473.97, -145837.33, -172433.00, -172130.16, -172708.97, -173130.77, -172082.16, -172687.20, 0.000, 0.000, 0.000, 16:30:47.810, 1578580247810
136, -180219.63, -176630.27, -180816.55, -180904.59, -187500.02, -187500.02, -187500.02, -114815.66, 0.000, 0.000, 0.000, 16:30:47.810, 1578580247810
137, -172473.91, -146193.13, -172436.58, -172121.38, -172694.42, -173116.59, -172086.44, -172688.56, 0.000, 0.000, 0.000, 16:30:47.810, 1578580247810
138, -180220.44, -176632.69, -180817.09, -180907.75, -187500.02, -187500.02, -187500.02, -114803.79, 0.000, 0.000, 0.000, 16:30:47.810, 1578580247810
139, -172474.48, -146549.78, -172434.22, -172119.95, -172679.58, -173103.08, -172087.13, -172690.72, -0.002, -0.012, 0.978, 16:30:47.810, 1578580247810
140, -180224.02, -176635.14, -180820.67, -180910.41, -187500.02, -187500.02, -187500.02, -114794.94, 0.000, 0.000, 0.000, 16:30:47.810, 1578580247810
141, -172482.08, -146883.14, -172443.66, -172133.11, -172782.91, -173071.36, -172088.53, -172683.30, 0.000, 0.000, 0.000, 16:30:47.810, 1578580247810
142, -180224.70, -176635.77, -180821.16, -180911.38, -187500.02, -187500.02, -187500.02, -114782.98, 0.000, 0.000, 0.000, 16:30:47.810, 1578580247810
143, -172479.39, -147236.02, -172439.23, -172128.66, -172828.80, -173053.06, -172090.33, -172687.38, 0.000, 0.000, 0.000, 16:30:47.810, 1578580247810
144, -180227.73, -176642.23, -180823.59, -180918.75, -187500.02, -187500.02, -187500.02, -114773.16, 0.000, 0.000, 0.000, 16:30:47.810, 1578580247810
145, -172485.70, -147587.95, -172448.34, -172141.27, -172810.05, -173035.42, -172094.23, -172693.08, 0.000, 0.000, 0.000, 16:30:47.810, 1578580247810
146, -180230.73, -176644.84, -180826.52, -180921.55, -187500.02, -187500.02, -187500.02, -114764.18, 0.000, 0.000, 0.000, 16:30:47.810, 1578580247810
147, -172486.31, -147943.58, -172449.48, -172142.31, -172796.34, -173022.05, -172094.08, -172696.09, 0.000, 0.000, 0.000, 16:30:47.810, 1578580247810
148, -180231.77, -176646.39, -180827.34, -180923.59, -187500.02, -187500.02, -187500.02, -114752.73, 0.000, -0.016, 0.980, 16:30:47.810, 1578580247810
149, -172487.52, -148300.20, -172449.05, -172139.36, -172787.27, -173012.67, -172096.16, -172701.59, 0.000, 0.000, 0.000, 16:30:47.811, 1578580247811
150, -180234.97, -176652.73, -180830.19, -180930.81, -187500.02, -187500.02, -187500.02, -114743.59, 0.000, 0.000, 0.000, 16:30:47.811, 1578580247811
151, -172490.28, -148654.34, -172454.20, -172145.94, -172772.31, -172998.42, -172102.44, -172702.48, 0.000, 0.000, 0.000, 16:30:47.811, 1578580247811
152, -180237.55, -176657.08, -180832.42, -180935.83, -187500.02, -187500.02, -187500.02, -114734.38, 0.000, 0.000, 0.000, 16:30:47.811, 1578580247811
153, -172491.47, -149008.44, -172454.31, -172147.59, -172757.55, -172983.81, -172102.64, -172703.86, 0.000, 0.000, 0.000, 16:30:47.811, 1578580247811
154, -180240.06, -176660.42, -180834.77, -180939.69, -187500.02, -187500.02, -187500.02, -114725.17, 0.000, 0.000, 0.000, 16:30:47.811, 1578580247811
155, -172496.16, -149365.59, -172458.97, -172142.13, -172745.66, -172971.83, -172103.86, -172706.98, 0.000, 0.000, 0.000, 16:30:47.811, 1578580247811
156, -180242.50, -176663.69, -180836.94, -180943.44, -187500.02, -187500.02, -187500.02, -114715.95, 0.000, 0.000, 0.000, 16:30:47.811, 1578580247811
157, -172494.16, -149723.80, -172459.92, -172155.77, -172735.48, -172961.64, -172108.31, -172712.38, 0.000, 0.000, 0.000, 16:30:47.811, 1578580247811
158, -180242.63, -176664.61, -180836.80, -180944.81, -187500.02, -187500.02, -187500.02, -114704.66, 0.000, -0.022, 0.978, 16:30:47.811, 1578580247811
159, -172497.25, -150082.89, -172464.53, -172154.81, -172723.05, -172949.77, -172109.44, -172716.59, 0.000, 0.000, 0.000, 16:30:47.811, 1578580247811
160, -180246.00, -176669.23, -180839.89, -180949.92, -187500.02, -187500.02, -187500.02, -114696.61, 0.000, 0.000, 0.000, 16:30:47.811, 1578580247811
161, -172499.17, -150438.72, -172464.73, -172156.70, -172708.91, -172935.86, -172111.02, -172718.70, 0.000, 0.000, 0.000, 16:30:47.811, 1578580247811
162, -180248.13, -176671.36, -180841.81, -180952.59, -187500.02, -187500.02, -187500.02, -114687.49, 0.000, 0.000, 0.000, 16:30:47.811, 1578580247811
163, -172503.89, -150789.22, -172468.61, -172157.91, -172724.69, -172915.72, -172113.80, -172718.16, 0.000, 0.000, 0.000, 16:30:47.811, 1578580247811
164, -180250.86, -176672.00, -180844.67, -180953.34, -187500.02, -187500.02, -187500.02, -114679.22, 0.000, 0.000, 0.000, 16:30:47.811, 1578580247811
165, -172502.63, -151125.91, -172466.55, -172167.19, -172861.50, -172888.95, -172115.31, -172713.72, 0.000, 0.000, 0.000, 16:30:47.812, 1578580247812
166, -180250.73, -176671.58, -180844.38, -180953.38, -187500.02, -187500.02, -187500.02, -114667.48, 0.000, 0.000, 0.000, 16:30:47.812, 1578580247812
167, -172503.66, -151483.22, -172468.16, -172162.55, -172855.33, -172877.55, -172116.73, -172724.66, 0.000, 0.000, 0.000, 16:30:47.812, 1578580247812
168, -180252.83, -176675.58, -180846.11, -180957.84, -187500.02, -187500.02, -187500.02, -114658.12, -0.006, -0.024, 0.990, 16:30:47.812, 1578580247812
169, -172506.56, -151843.03, -172469.97, -172156.06, -172842.30, -172866.47, -172117.19, -172728.23, 0.000, 0.000, 0.000, 16:30:47.812, 1578580247812
170, -180257.20, -176680.77, -180850.34, -180963.50, -187500.02, -187500.02, -187500.02, -114651.33, 0.000, 0.000, 0.000, 16:30:47.812, 1578580247812
171, -172509.34, -152199.48, -172469.20, -172151.72, -172831.02, -172855.42, -172120.73, -172733.14, 0.000, 0.000, 0.000, 16:30:47.812, 1578580247812
172, -180258.67, -176681.86, -180851.59, -180965.03, -187500.02, -187500.02, -187500.02, -114641.69, 0.000, 0.000, 0.000, 16:30:47.812, 1578580247812
173, -172511.05, -152557.38, -172473.39, -172162.30, -172821.11, -172844.98, -172122.95, -172738.64, 0.000, 0.000, 0.000, 16:30:47.812, 1578580247812
174, -180261.30, -176683.67, -180854.11, -180967.23, -187500.02, -187500.02, -187500.02, -114633.04, 0.000, 0.000, 0.000, 16:30:47.813, 1578580247813
175, -172512.09, -152911.86, -172471.89, -172167.30, -172808.39, -172832.44, -172125.61, -172742.19, 0.000, 0.000, 0.000, 16:30:47.813, 1578580247813
176, -180263.86, -176686.20, -180856.58, -180970.20, -187500.02, -187500.02, -187500.02, -114624.46, 0.000, 0.000, 0.000, 16:30:47.813, 1578580247813
177, -172513.22, -153268.92, -172478.33, -172172.23, -172794.89, -172819.53, -172127.27, -172744.53, 0.000, 0.000, 0.000, 16:30:47.813, 1578580247813
178, -180265.19, -176687.88, -180857.72, -180972.45, -187500.02, -187500.02, -187500.02, -114614.63, 0.000, -0.020, 0.982, 16:30:47.813, 1578580247813
179, -172515.77, -153625.84, -172478.95, -172170.56, -172782.08, -172807.48, -172130.53, -172748.17, 0.000, 0.000, 0.000, 16:30:47.813, 1578580247813
180, -180266.20, -176691.88, -180858.27, -180977.22, -187500.02, -187500.02, -187500.02, -114604.43, 0.000, 0.000, 0.000, 16:30:47.813, 1578580247813
181, -172515.66, -153986.30, -172481.77, -172168.55, -172773.88, -172798.88, -172132.20, -172754.55, 0.000, 0.000, 0.000, 16:30:47.813, 1578580247813
182, -180269.34, -176695.09, -180861.17, -180980.84, -187500.02, -187500.02, -187500.02, -114596.80, 0.000, 0.000, 0.000, 16:30:47.813, 1578580247813
183, -172519.94, -154341.81, -172488.30, -172183.69, -172761.30, -172783.78, -172133.17, -172757.19, 0.000, 0.000, 0.000, 16:30:47.814, 1578580247814
184, -180270.72, -176698.56, -180862.23, -180984.97, -187500.02, -187500.02, -187500.02, -114587.33, 0.000, 0.000, 0.000, 16:30:47.814, 1578580247814
185, -172525.63, -154678.38, -172492.30, -172180.02, -172733.05, -172621.31, -172136.92, -172748.72, 0.000, 0.000, 0.000, 16:30:47.814, 1578580247814
186, -180271.44, -176695.83, -180863.20, -180982.16, -187500.02, -187500.02, -187500.02, -114577.74, 0.000, 0.000, 0.000, 16:30:47.814, 1578580247814
187, -172526.31, -154960.61, -172494.03, -172176.48, -172824.23, -172846.25, -172134.78, -172728.27, 0.000, 0.000, 0.000, 16:30:47.814, 1578580247814
188, -180267.84, -176685.59, -180860.09, -180971.31, -187500.02, -187500.02, -187500.02, -114563.62, -0.004, -0.018, 0.974, 16:30:47.814, 1578580247814
189, -172518.30, -155279.31, -172482.42, -172174.36, -172843.52, -173355.28, -172133.22, -172725.45, 0.000, 0.000, 0.000, 16:30:47.814, 1578580247814
190, -180270.09, -176687.53, -180862.11, -180973.63, -187500.02, -187500.02, -187500.02, -114554.20, 0.000, 0.000, 0.000, 16:30:47.814, 1578580247814
191, -172517.80, -155633.61, -172480.89, -172178.97, -172831.53, -173403.22, -172130.38, -172729.33, 0.000, 0.000, 0.000, 16:30:47.814, 1578580247814
192, -180270.86, -176689.03, -180862.59, -180975.63, -187500.02, -187500.02, -187500.02, -114543.43, 0.000, 0.000, 0.000, 16:30:47.814, 1578580247814
193, -172523.25, -155986.83, -172487.47, -172178.36, -172816.89, -173387.45, -172135.16, -172730.14, 0.000, 0.000, 0.000, 16:30:47.814, 1578580247814
194, -180275.06, -176696.08, -180866.42, -180983.59, -187500.02, -187500.02, -187500.02, -114536.28, 0.000, 0.000, 0.000, 16:30:47.814, 1578580247814
195, -172525.33, -156345.31, -172488.39, -172174.25, -172806.11, -173376.50, -172134.48, -172734.70, 0.000, 0.000, 0.000, 16:30:47.814, 1578580247814
196, -180277.19, -176700.17, -180868.39, -180988.28, -187500.02, -187500.02, -187500.02, -114527.36, 0.000, 0.000, 0.000, 16:30:47.815, 1578580247815
197, -172529.84, -156703.16, -172493.70, -172186.86, -172797.67, -173366.03, -172136.80, -172739.55, -0.002, -0.012, 0.980, 16:30:47.815, 1578580247815
198, -180279.17, -176701.33, -180870.22, -180989.69, -187500.02, -187500.02, -187500.02, -114518.60, 0.000, 0.000, 0.000, 16:30:47.815, 1578580247815
199, -172528.81, -157059.69, -172495.27, -172195.31, -172784.91, -173353.39, -172140.72, -172742.61, 0.000, 0.000, 0.000, 16:30:47.815, 1578580247815
200, -180282.66, -176704.33, -180873.78, -180993.13, -187500.02, -187500.02, -187500.02, -114511.29, 0.000, 0.000, 0.000, 16:30:47.815, 1578580247815
201, -172528.08, -157416.20, -172495.17, -172189.09, -172772.66, -173340.97, -172140.09, -172745.78, 0.000, 0.000, 0.000, 16:30:47.815, 1578580247815
202, -180282.38, -176704.23, -180873.14, -180993.53, -187500.02, -187500.02, -187500.02, -114500.00, 0.000, 0.000, 0.000, 16:30:47.815, 1578580247815
203, -172529.75, -157771.39, -172499.72, -172183.39, -172762.28, -173329.14, -172144.48, -172750.41, 0.000, 0.000, 0.000, 16:30:47.815, 1578580247815
204, -180285.70, -176709.11, -180876.23, -180999.02, -187500.02, -187500.02, -187500.02, -114492.56, 0.000, 0.000, 0.000, 16:30:47.815, 1578580247815
205, -172535.33, -158126.89, -172500.31, -172203.36, -172751.33, -173317.95, -172148.33, -172755.05, 0.000, 0.000, 0.000, 16:30:47.816, 1578580247816
206, -180286.55, -176711.64, -180876.86, -181002.09, -187500.02, -187500.02, -187500.02, -114482.50, 0.000, 0.000, 0.000, 16:30:47.816, 1578580247816
207, -172534.86, -158480.70, -172504.28, -172201.41, -172751.13, -173301.34, -172149.75, -172754.06, 0.000, -0.014, 0.982, 16:30:47.816, 1578580247816
208, -180287.33, -176712.73, -180877.23, -181003.61, -187500.02, -187500.02, -187500.02, -114472.89, 0.000, 0.000, 0.000, 16:30:47.816, 1578580247816
209, -172536.94, -158814.95, -172502.58, -172194.59, -172883.03, -173271.00, -172148.92, -172746.55, 0.000, 0.000, 0.000, 16:30:48.283, 1578580248283
210, -180287.95, -176711.61, -180877.97, -181002.75, -187500.02, -187500.02, -187500.02, -114463.19, 0.000, 0.000, 0.000, 16:30:48.283, 1578580248283
211, -172538.56, -159170.97, -172501.81, -172196.83, -172883.14, -173258.94, -172148.59, -172749.23, 0.000, 0.000, 0.000, 16:30:48.283, 1578580248283
212, -180291.09, -176714.06, -180881.02, -181005.47, -187500.02, -187500.02, -187500.02, -114455.70, 0.000, 0.000, 0.000, 16:30:48.283, 1578580248283
213, -172541.47, -159530.31, -172506.95, -172192.89, -172873.48, -173250.09, -172152.09, -172755.95, 0.000, 0.000, 0.000, 16:30:48.283, 1578580248283
214, -180295.52, -176719.97, -180885.13, -181012.00, -187500.02, -187500.02, -187500.02, -114449.58, 0.000, 0.000, 0.000, 16:30:48.283, 1578580248283
215, -172545.92, -159884.45, -172506.69, -172187.55, -172862.70, -173238.91, -172155.47, -172759.95, 0.000, 0.000, 0.000, 16:30:48.283, 1578580248283
216, -180296.92, -176722.11, -180886.36, -181014.55, -187500.02, -187500.02, -187500.02, -114440.64, 0.000, 0.000, 0.000, 16:30:48.284, 1578580248284
217, -172545.05, -160235.72, -172508.70, -172205.55, -172848.67, -173223.44, -172156.75, -172761.25, 0.000, -0.014, 0.982, 16:30:48.284, 1578580248284
218, -180299.27, -176726.00, -180888.28, -181019.27, -187500.02, -187500.02, -187500.02, -114432.52, 0.000, 0.000, 0.000, 16:30:48.284, 1578580248284
219, -172545.25, -160590.70, -172513.50, -172212.25, -172836.16, -173211.34, -172158.27, -172763.84, 0.000, 0.000, 0.000, 16:30:48.284, 1578580248284
220, -180300.11, -176725.94, -180889.16, -181019.34, -187500.02, -187500.02, -187500.02, -114423.31, 0.000, 0.000, 0.000, 16:30:48.284, 1578580248284
221, -172547.80, -160951.91, -172515.86, -172208.30, -172826.94, -173202.83, -172163.13, -172770.55, 0.000, 0.000, 0.000, 16:30:48.284, 1578580248284
222, -180302.67, -176729.20, -180891.48, -181023.17, -187500.02, -187500.02, -187500.02, -114415.55, 0.000, 0.000, 0.000, 16:30:48.284, 1578580248284
223, -172552.08, -161311.59, -172518.36, -172204.72, -172816.63, -173193.22, -172165.63, -172774.80, 0.000, 0.000, 0.000, 16:30:48.284, 1578580248284
224, -180304.88, -176733.53, -180893.28, -181028.14, -187500.02, -187500.02, -187500.02, -114407.60, 0.000, 0.000, 0.000, 16:30:48.284, 1578580248284
225, -172550.34, -161666.98, -172522.61, -172210.73, -172802.56, -173179.34, -172164.69, -172776.16, 0.000, 0.000, 0.000, 16:30:48.284, 1578580248284
226, -180306.63, -176731.89, -180895.34, -181026.44, -187500.02, -187500.02, -187500.02, -114399.63, 0.000, 0.000, 0.000, 16:30:48.284, 1578580248284
227, -172553.27, -162029.00, -172521.11, -172207.28, -172792.36, -173168.84, -172167.77, -172780.52, -0.002, -0.016, 0.982, 16:30:48.284, 1578580248284
228, -180308.81, -176733.05, -180897.44, -181027.91, -187500.02, -187500.02, -187500.02, -114391.66, 0.000, 0.000, 0.000, 16:30:48.284, 1578580248284
229, -172554.34, -162391.19, -172520.95, -172211.53, -172783.53, -173159.42, -172171.02, -172786.44, 0.000, 0.000, 0.000, 16:30:48.284, 1578580248284
230, -180311.98, -176738.41, -180900.22, -181033.86, -187500.02, -187500.02, -187500.02, -114384.38, 0.000, 0.000, 0.000, 16:30:48.284, 1578580248284
231, -172556.11, -162748.70, -172524.89, -172221.75, -172770.63, -173146.48, -172172.91, -172788.09, 0.000, 0.000, 0.000, 16:30:48.284, 1578580248284
232, -180312.30, -176738.30, -180900.50, -181034.14, -187500.02, -187500.02, -187500.02, -114374.88, 0.000, 0.000, 0.000, 16:30:48.284, 1578580248284
233, -172559.03, -163098.44, -172529.69, -172222.00, -172779.17, -173125.47, -172173.11, -172781.81, 0.000, 0.000, 0.000, 16:30:48.285, 1578580248285
234, -180312.39, -176738.98, -180900.27, -181035.33, -187500.02, -187500.02, -187500.02, -114364.77, 0.000, 0.000, 0.000, 16:30:48.285, 1578580248285
235, -172557.09, -163432.47, -172530.72, -172238.77, -172912.64, -173094.72, -172169.27, -172765.50, 0.000, 0.000, 0.000, 16:30:48.285, 1578580248285
236, -180312.86, -176736.48, -180900.91, -181032.92, -187500.02, -187500.02, -187500.02, -114355.50, 0.000, -0.016, 0.978, 16:30:48.285, 1578580248285
237, -172558.30, -163796.69, -172526.30, -172234.63, -172910.39, -173084.33, -172174.30, -172771.84, 0.000, 0.000, 0.000, 16:30:48.285, 1578580248285
238, -180315.39, -176741.09, -180903.17, -181038.17, -187500.02, -187500.02, -187500.02, -114347.74, 0.000, 0.000, 0.000, 16:30:48.285, 1578580248285
239, -172561.94, -164157.17, -172528.64, -172229.03, -172899.36, -173073.00, -172177.42, -172774.39, 0.000, 0.000, 0.000, 16:30:48.285, 1578580248285
240, -180316.91, -176743.19, -180904.38, -181040.70, -187500.02, -187500.02, -187500.02, -114339.18, 0.000, 0.000, 0.000, 16:30:48.285, 1578580248285
241, -172562.09, -164517.33, -172530.97, -172221.89, -172885.73, -173060.75, -172177.50, -172776.23, 0.000, 0.000, 0.000, 16:30:48.285, 1578580248285
242, -180319.55, -176746.25, -180906.91, -181044.16, -187500.02, -187500.02, -187500.02, -114331.96, 0.000, 0.000, 0.000, 16:30:48.285, 1578580248285
243, -172567.05, -164877.70, -172534.45, -172234.02, -172871.92, -173047.20, -172179.17, -172777.17, 0.000, 0.000, 0.000, 16:30:48.285, 1578580248285
244, -180322.22, -176750.34, -180909.27, -181049.06, -187500.02, -187500.02, -187500.02, -114324.81, 0.000, 0.000, 0.000, 16:30:48.285, 1578580248285
245, -172572.50, -165242.50, -172537.63, -172233.47, -172862.66, -173037.72, -172183.17, -172787.05, 0.000, 0.000, 0.000, 16:30:48.285, 1578580248285
246, -180325.67, -176754.48, -180912.64, -181053.50, -187500.02, -187500.02, -187500.02, -114318.75, 0.000, -0.020, 0.976, 16:30:48.285, 1578580248285
247, -172569.56, -165605.86, -172532.59, -172227.72, -172852.83, -173027.86, -172183.70, -172794.64, 0.000, 0.000, 0.000, 16:30:48.285, 1578580248285
248, -180324.97, -176752.66, -180911.80, -181052.03, -187500.02, -187500.02, -187500.02, -114308.49, 0.000, 0.000, 0.000, 16:30:48.285, 1578580248285
249, -172571.06, -165966.14, -172539.33, -172231.25, -172837.72, -173013.11, -172189.45, -172795.58, 0.000, 0.000, 0.000, 16:30:48.286, 1578580248286
250, -180326.64, -176753.09, -180913.41, -181052.50, -187500.02, -187500.02, -187500.02, -114300.55, 0.000, 0.000, 0.000, 16:30:48.286, 1578580248286
251, -172569.61, -166330.48, -172538.55, -172228.45, -172827.30, -173002.63, -172189.92, -172799.72, 0.000, 0.000, 0.000, 16:30:48.286, 1578580248286
252, -180329.22, -176757.66, -180915.61, -181057.89, -187500.02, -187500.02, -187500.02, -114293.25, 0.000, 0.000, 0.000, 16:30:48.286, 1578580248286
253, -172573.56, -166696.64, -172546.20, -172239.81, -172818.19, -172993.27, -172192.63, -172805.73, 0.000, 0.000, 0.000, 16:30:48.286, 1578580248286
254, -180329.69, -176757.14, -180915.95, -181057.59, -187500.02, -187500.02, -187500.02, -114284.27, 0.000, 0.000, 0.000, 16:30:48.286, 1578580248286
255, -172572.89, -167064.59, -172542.75, -172242.94, -172806.50, -172980.77, -172191.38, -172808.39, 0.000, 0.000, 0.000, 16:30:48.286, 1578580248286
0, -180332.86, -176763.02, -180918.66, -181064.33, -187500.02, -187500.02, -187500.02, -114277.72, -0.002, -0.020, 0.972, 16:30:48.286, 1578580248286
1, -172577.08, -167429.38, -172552.08, -172245.69, -172789.34, -172964.55, -172195.23, -172806.05, 0.000, 0.000, 0.000, 16:30:48.286, 1578580248286
2, -180331.88, -176762.78, -180917.47, -181064.50, -187500.02, -187500.02, -187500.02, -114267.61, 0.000, 0.000, 0.000, 16:30:48.286, 1578580248286
3, -172578.03, -167788.45, -172547.84, -172241.02, -172816.17, -172941.05, -172195.84, -172800.81, 0.000, 0.000, 0.000, 16:30:48.286, 1578580248286
4, -180333.28, -176764.63, -180918.70, -181066.89, -187500.02, -187500.02, -187500.02, -114259.79, 0.000, 0.000, 0.000, 16:30:48.286, 1578580248286
5, -172578.97, -168141.13, -172546.03, -172235.39, -172938.69, -172915.44, -172196.61, -172793.58, 0.000, 0.000, 0.000, 16:30:48.286, 1578580248286
6, -180337.13, -176766.06, -180922.77, -181068.34, -187500.02, -187500.02, -187500.02, -114254.67, 0.000, 0.000, 0.000, 16:30:48.286, 1578580248286
7, -172583.63, -168507.53, -172550.64, -172250.53, -172924.72, -172899.00, -172197.16, -172799.34, 0.000, 0.000, 0.000, 16:30:48.286, 1578580248286
8, -180338.70, -176768.36, -180924.22, -181071.09, -187500.02, -187500.02, -187500.02, -114246.96, 0.000, 0.000, 0.000, 16:30:48.286, 1578580248286
9, -172582.55, -168876.09, -172551.91, -172245.84, -172908.48, -172882.83, -172196.89, -172796.39, 0.000, 0.000, 0.000, 16:30:48.287, 1578580248287
10, -180339.25, -176770.53, -180924.42, -181073.86, -187500.02, -187500.02, -187500.02, -114238.16, 0.000, -0.022, 0.974, 16:30:48.287, 1578580248287
11, -172584.08, -169244.39, -172550.72, -172239.30, -172895.13, -172869.66, -172200.14, -172797.16, 0.000, 0.000, 0.000, 16:30:48.287, 1578580248287
12, -180342.39, -176773.95, -180927.55, -181077.72, -187500.02, -187500.02, -187500.02, -114232.32, 0.000, 0.000, 0.000, 16:30:48.287, 1578580248287
13, -172587.61, -169605.75, -172561.61, -172258.67, -172874.05, -172751.28, -172207.47, -172800.45, 0.000, 0.000, 0.000, 16:30:48.287, 1578580248287
14, -180341.25, -176771.72, -180926.44, -181075.83, -187500.02, -187500.02, -187500.02, -114222.28, 0.000, 0.000, 0.000, 16:30:48.287, 1578580248287
15, -172592.41, -169930.22, -172563.55, -172247.86, -172819.44, -172827.77, -172205.52, -172800.56, 0.000, 0.000, 0.000, 16:30:48.287, 1578580248287
16, -180338.94, -176765.64, -180924.33, -181069.58, -187500.02, -187500.02, -187500.02, -114211.06, 0.000, 0.000, 0.000, 16:30:48.287, 1578580248287
17, -172587.78, -170228.83, -172563.47, -172246.92, -172860.11, -173313.16, -172203.28, -172799.66, 0.000, 0.000, 0.000, 16:30:48.287, 1578580248287
18, -180335.92, -176759.98, -180921.63, -181063.89, -187500.02, -187500.02, -187500.02, -114198.70, 0.000, 0.000, 0.000, 16:30:48.287, 1578580248287
19, -172582.33, -170584.97, -172550.88, -172249.89, -172941.56, -173448.70, -172196.66, -172795.39, 0.000, -0.022, 0.978, 16:30:48.287, 1578580248287
20, -180338.47, -176762.97, -180923.95, -181067.36, -187500.02, -187500.02, -187500.02, -114191.44, 0.000, 0.000, 0.000, 16:30:48.287, 1578580248287
21, -172587.95, -170959.80, -172555.64, -172248.75, -172926.64, -173434.59, -172202.38, -172802.11, 0.000, 0.000, 0.000, 16:30:48.287, 1578580248287
22, -180341.89, -176766.31, -180927.33, -181071.09, -187500.02, -187500.02, -187500.02, -114185.38, 0.000, 0.000, 0.000, 16:30:48.287, 1578580248287
23, -172588.19, -171333.20, -172559.23, -172255.52, -172910.05, -173417.20, -172204.52, -172799.41, 0.000, 0.000, 0.000, 16:30:48.287, 1578580248287
24, -180343.72, -176767.17, -180929.14, -181072.22, -187500.02, -187500.02, -187500.02, -114177.71, 0.000, 0.000, 0.000, 16:30:48.287, 1578580248287
25, -172589.55, -171707.64, -172559.75, -172249.58, -172893.02, -173400.63, -172205.34, -172799.92, 0.000, 0.000, 0.000, 16:30:48.288, 1578580248288
26, -180345.92, -176770.06, -180931.23, -181075.56, -187500.02, -187500.02, -187500.02, -114170.18, 0.000, 0.000, 0.000, 16:30:48.288, 1578580248288
27, -172588.92, -172081.84, -172560.45, -172258.09, -172876.03, -173383.38, -172206.75, -172802.09, 0.000, 0.000, 0.000, 16:30:48.288, 1578580248288
28, -180346.52, -176770.48, -180931.70, -181076.42, -187500.02, -187500.02, -187500.02, -114161.24, 0.000, 0.000, 0.000, 16:30:48.288, 1578580248288
29, -172593.44, -172538.89, -172566.97, -172261.83, -172865.22, -173372.19, -172215.30, -172811.48, -0.004, -0.020, 0.982, 16:30:48.288, 1578580248288
30, -180352.55, -176782.91, -180936.97, -181090.14, -187500.02, -187500.02, -187500.02, -114157.51, 0.000, 0.000, 0.000, 16:30:48.288, 1578580248288
31, -172606.16, -172819.55, -172587.64, -172291.11, -172881.81, -173388.16, -172237.48, -172843.44, 0.000, 0.000, 0.000, 16:30:48.288, 1578580248288
32, -180356.98, -176789.89, -180941.08, -181097.78, -187500.02, -187500.02, -187500.02, -114153.04, 0.000, 0.000, 0.000, 16:30:48.288, 1578580248288
