%OpenBCI Raw EEG Data
%Number of channels = 8
%Sample Rate = 250.0 Hz
%First Column = SampleIndex
%Last Column = Timestamp 
%Other Columns = EEG data in microvolts followed by Accel Data (in G) interleaved with Aux Data
0, -62538.68, -24645.72, -56369.04, -51756.29, -48741.78, -19948.30, -47390.05, 73599.46, -0.010, -0.006, 0.486, 16:11:49.033, 1578579109033
1, -152280.59, -128562.52, -183583.86, 187500.00, -145324.95, 187500.00, -184280.61, -184589.47, 0.000, 0.000, 0.000, 16:11:49.034, 1578579109034
2, -125219.14, -49438.17, -113046.38, -103784.20, -97656.89, -40013.27, -95029.02, 147376.95, 0.000, 0.000, 0.000, 16:11:49.034, 1578579109034
3, -152709.89, -128946.88, -183588.23, 187500.00, -145821.59, 187500.00, -184347.95, -184653.66, 0.000, 0.000, 0.000, 16:11:49.034, 1578579109034
4, -125410.29, -49634.84, -113461.70, -104152.58, -97888.26, -40170.64, -95364.97, 147612.50, 0.000, 0.000, 0.000, 16:11:49.034, 1578579109034
5, -153139.58, -129331.81, -183598.50, 187500.00, -146316.55, 187500.00, -184416.55, -184719.48, 0.000, 0.000, 0.000, 16:11:49.035, 1578579109035
6, -125600.52, -49833.44, -113876.75, -104521.78, -98120.42, -40330.55, -95699.66, 147843.42, -0.012, -0.008, 0.736, 16:11:49.035, 1578579109035
7, -153567.83, -129712.13, -183603.44, 187500.00, -146811.89, 187500.00, -184484.61, -184783.98, 0.000, 0.000, 0.000, 16:11:49.035, 1578579109035
8, -125787.59, -50030.85, -114289.00, -104888.26, -98349.98, -40483.46, -96029.93, 148081.22, 0.000, 0.000, 0.000, 16:11:49.035, 1578579109035
9, -153994.89, -130092.52, -183604.95, 187500.00, -147305.52, 187500.00, -184550.97, -184846.39, 0.000, 0.000, 0.000, 16:11:49.035, 1578579109035
10, -125976.62, -50231.10, -114701.99, -105252.87, -98578.03, -40636.54, -96360.85, 148318.64, 0.000, 0.000, 0.000, 16:11:49.035, 1578579109035
11, -154424.67, -130475.38, -183606.36, 187500.00, -147802.17, 187500.00, -184617.47, -184910.25, 0.000, 0.000, 0.000, 16:11:49.035, 1578579109035
12, -126168.51, -50430.56, -115116.51, -105619.16, -98810.91, -40790.66, -96692.86, 148552.95, 0.000, 0.000, 0.000, 16:11:49.035, 1578579109035
13, -154855.45, -130857.45, -183615.38, 187500.00, -148297.66, 187500.00, -184686.31, -184976.77, 0.000, 0.000, 0.000, 16:11:49.035, 1578579109035
14, -126359.77, -50629.43, -115532.32, -105990.34, -99042.86, -40945.89, -97026.69, 148785.66, 0.000, 0.000, 0.000, 16:11:49.035, 1578579109035
15, -155283.11, -131235.47, -183619.97, 187500.00, -148793.30, 187500.00, -184751.44, -185038.78, 0.000, 0.000, 0.000, 16:11:49.036, 1578579109036
16, -126551.77, -50829.92, -115947.14, -106361.04, -99273.73, -41101.53, -97358.45, 149019.45, -0.018, -0.014, 0.856, 16:11:49.036, 1578579109036
17, -155709.22, -131614.06, -183625.34, 187500.00, -149286.95, 187500.00, -184816.27, -185100.94, 0.000, 0.000, 0.000, 16:11:49.036, 1578579109036
18, -126743.64, -51030.53, -116360.63, -106728.99, -99504.20, -41258.39, -97686.58, 149253.70, 0.000, 0.000, 0.000, 16:11:49.036, 1578579109036
19, -156136.97, -131995.61, -183632.56, 187500.00, -149778.52, 187500.00, -184882.94, -185165.48, 0.000, 0.000, 0.000, 16:11:49.036, 1578579109036
20, -126933.54, -51228.90, -116776.20, -107098.27, -99736.63, -41418.86, -98018.27, 149485.38, 0.000, 0.000, 0.000, 16:11:49.036, 1578579109036
21, -156567.59, -132378.14, -183633.48, 187500.00, -150271.38, 187500.00, -184952.31, -185231.11, 0.000, 0.000, 0.000, 16:11:49.036, 1578579109036
22, -127122.05, -51429.64, -117193.19, -107471.54, -99968.69, -41576.61, -98351.67, 149716.66, 0.000, 0.000, 0.000, 16:11:49.036, 1578579109036
23, -156996.84, -132760.81, -183642.48, 187500.00, -150763.27, 187500.00, -185019.13, -185295.63, 0.000, 0.000, 0.000, 16:11:49.036, 1578579109036
24, -127312.00, -51627.16, -117605.63, -107840.32, -100198.02, -41729.61, -98685.77, 149948.86, 0.000, 0.000, 0.000, 16:11:49.037, 1578579109037
25, -157420.83, -133141.20, -183643.53, 187500.00, -151252.34, 187500.00, -185083.09, -185356.39, 0.000, 0.000, 0.000, 16:11:49.037, 1578579109037
26, -127503.48, -51824.48, -118018.84, -108208.88, -100427.86, -41887.26, -99018.05, 150176.73, -0.022, -0.010, 0.914, 16:11:49.037, 1578579109037
27, -157847.13, -133522.30, -183653.59, 187500.00, -151746.30, 187500.00, -185149.22, -185419.81, 0.000, 0.000, 0.000, 16:11:49.037, 1578579109037
28, -127695.58, -52022.90, -118433.93, -108579.18, -100659.54, -42044.90, -99352.80, 150402.14, 0.000, 0.000, 0.000, 16:11:49.037, 1578579109037
29, -158278.03, -133900.78, -183661.55, 187500.00, -152238.69, 187500.00, -185216.27, -185485.00, 0.000, 0.000, 0.000, 16:11:49.037, 1578579109037
30, -127889.37, -52224.38, -118849.27, -108946.73, -100890.77, -42200.88, -99688.13, 150627.64, 0.000, 0.000, 0.000, 16:11:49.037, 1578579109037
31, -158704.47, -134279.42, -183661.69, 187500.00, -152727.52, 187500.00, -185281.52, -185548.42, 0.000, 0.000, 0.000, 16:11:49.037, 1578579109037
32, -128079.63, -52424.90, -119261.66, -109312.14, -101122.80, -42356.93, -100019.25, 150855.42, 0.000, 0.000, 0.000, 16:11:49.037, 1578579109037
33, -159131.20, -134659.58, -183665.64, 187500.00, -153218.78, 187500.00, -185347.36, -185611.61, 0.000, 0.000, 0.000, 16:11:49.037, 1578579109037
34, -128270.24, -52625.28, -119676.89, -109682.89, -101355.57, -42515.77, -100350.99, 151083.45, 0.000, 0.000, 0.000, 16:11:49.038, 1578579109038
35, -159556.56, -135040.20, -183671.23, 187500.00, -153710.80, 187500.00, -185414.11, -185675.89, 0.000, 0.000, 0.000, 16:11:49.041, 1578579109041
36, -128462.00, -52827.18, -120095.88, -110056.55, -101589.01, -42672.03, -100686.13, 151307.67, -0.022, -0.010, 0.942, 16:11:49.041, 1578579109041
37, -159984.17, -135421.89, -183678.16, 187500.00, -154205.08, 187500.00, -185483.36, -185743.48, 0.000, 0.000, 0.000, 16:11:49.041, 1578579109041
38, -128652.13, -53029.54, -120513.34, -110427.60, -101822.72, -42827.75, -101018.88, 151531.88, 0.000, 0.000, 0.000, 16:11:49.041, 1578579109041
39, -160412.36, -135801.73, -183683.23, 187500.00, -154697.27, 187500.00, -185550.94, -185809.70, 0.000, 0.000, 0.000, 16:11:49.041, 1578579109041
40, -128841.51, -53230.07, -120924.77, -110797.86, -102055.00, -42983.34, -101351.30, 151756.06, 0.000, 0.000, 0.000, 16:11:49.041, 1578579109041
41, -160834.36, -136178.20, -183687.97, 187500.00, -155186.06, 187500.00, -185615.36, -185872.52, 0.000, 0.000, 0.000, 16:11:49.041, 1578579109041
42, -129030.42, -53430.08, -121339.70, -111166.06, -102285.78, -43137.37, -101683.36, 151980.13, 0.000, 0.000, 0.000, 16:11:49.041, 1578579109041
43, -161258.36, -136556.56, -183692.94, 187500.00, -155679.94, 187500.00, -185683.09, -185937.61, 0.000, 0.000, 0.000, 16:11:49.042, 1578579109042
44, -129221.73, -53633.68, -121756.70, -111533.84, -102518.13, -43294.72, -102016.40, 152200.44, 0.000, 0.000, 0.000, 16:11:49.042, 1578579109042
45, -161685.08, -136938.84, -183696.91, 187500.00, -156172.30, 187500.00, -185751.69, -186004.44, -0.018, -0.014, 0.956, 16:11:49.042, 1578579109042
46, -129414.16, -53837.71, -122175.57, -111903.76, -102753.31, -43455.46, -102350.78, 152419.78, 0.000, 0.000, 0.000, 16:11:49.042, 1578579109042
47, -162109.19, -137316.95, -183706.33, 187500.00, -156660.78, 187500.00, -185819.66, -186069.95, 0.000, 0.000, 0.000, 16:11:49.042, 1578579109042
48, -129605.67, -54033.82, -122588.74, -112269.59, -102985.86, -43610.62, -102678.52, 152640.48, 0.000, 0.000, 0.000, 16:11:49.042, 1578579109042
49, -162531.80, -137690.31, -183712.95, 187500.00, -157148.56, 187500.00, -185884.20, -186134.59, 0.000, 0.000, 0.000, 16:11:49.042, 1578579109042
50, -129798.92, -54234.29, -123001.49, -112639.96, -103215.79, -43765.27, -103009.40, 152862.30, 0.000, 0.000, 0.000, 16:11:49.042, 1578579109042
51, -162954.72, -138061.83, -183722.95, 187500.00, -157636.19, 187500.00, -185949.91, -186198.67, 0.000, 0.000, 0.000, 16:11:49.042, 1578579109042
52, -129993.96, -54436.93, -123418.10, -113012.18, -103449.03, -43922.50, -103342.86, 153079.09, 0.000, 0.000, 0.000, 16:11:49.043, 1578579109043
53, -163382.69, -138440.05, -183722.19, 187500.00, -158129.20, 187500.00, -186018.56, -186265.80, 0.000, 0.000, 0.000, 16:11:49.043, 1578579109043
54, -130185.23, -54636.80, -123834.49, -113382.73, -103681.52, -44080.21, -103678.41, 153296.48, 0.000, 0.000, 0.000, 16:11:49.043, 1578579109043
55, -163807.38, -138813.14, -183729.48, 187500.00, -158618.09, 187500.00, -186085.02, -186329.92, -0.012, -0.012, 0.966, 16:11:49.043, 1578579109043
56, -130373.32, -54835.60, -124248.91, -113753.16, -103911.52, -44237.01, -104011.38, 153516.58, 0.000, 0.000, 0.000, 16:11:49.043, 1578579109043
57, -164228.81, -139185.83, -183733.19, 187500.00, -159103.25, 187500.00, -186148.42, -186393.56, 0.000, 0.000, 0.000, 16:11:49.043, 1578579109043
58, -130562.32, -55033.48, -124660.73, -114120.52, -104140.66, -44391.03, -104341.41, 153735.42, 0.000, 0.000, 0.000, 16:11:49.043, 1578579109043
59, -164651.89, -139561.72, -183736.89, 187500.00, -159590.11, 187500.00, -186214.66, -186458.69, 0.000, 0.000, 0.000, 16:11:49.043, 1578579109043
60, -130750.70, -55234.46, -125077.09, -114488.27, -104372.83, -44548.52, -104676.13, 153949.16, 0.000, 0.000, 0.000, 16:11:49.043, 1578579109043
61, -165077.80, -139937.36, -183741.08, 187500.00, -160083.64, 187500.00, -186281.11, -186524.83, 0.000, 0.000, 0.000, 16:11:49.043, 1578579109043
62, -130942.20, -55435.72, -125495.16, -114859.84, -104604.95, -44708.11, -105010.30, 154165.03, 0.000, 0.000, 0.000, 16:11:49.043, 1578579109043
63, -165501.03, -140314.41, -183748.86, 187500.00, -160570.88, 187500.00, -186347.00, -186589.42, 0.000, 0.000, 0.000, 16:11:49.044, 1578579109044
64, -131133.28, -55634.77, -125908.04, -115229.30, -104836.14, -44864.09, -105343.66, 154380.75, 0.000, 0.000, 0.000, 16:11:49.044, 1578579109044
65, -165918.31, -140686.02, -183751.66, 187500.00, -161056.50, 187500.00, -186410.44, -186651.66, -0.016, -0.012, 0.970, 16:11:49.044, 1578579109044
66, -131324.77, -55835.26, -126323.88, -115599.71, -105069.34, -45020.95, -105678.04, 154596.42, 0.000, 0.000, 0.000, 16:11:49.044, 1578579109044
67, -166339.22, -141060.89, -183757.31, 187500.00, -161542.33, 187500.00, -186476.48, -186716.44, 0.000, 0.000, 0.000, 16:11:49.044, 1578579109044
68, -131517.86, -56035.44, -126738.55, -115971.35, -105302.98, -45180.88, -106012.22, 154809.58, 0.000, 0.000, 0.000, 16:11:49.044, 1578579109044
69, -166764.55, -141436.98, -183765.78, 187500.00, -162031.23, 187500.00, -186543.89, -186782.17, 0.000, 0.000, 0.000, 16:11:49.044, 1578579109044
70, -131712.36, -56239.00, -127153.93, -116344.55, -105534.05, -45339.42, -106345.57, 155021.44, 0.000, 0.000, 0.000, 16:11:49.044, 1578579109044
71, -167186.86, -141809.23, -183770.03, 187500.00, -162516.63, 187500.00, -186607.75, -186845.22, 0.000, 0.000, 0.000, 16:11:49.044, 1578579109044
72, -131905.00, -56440.77, -127569.94, -116715.66, -105762.91, -45495.92, -106679.58, 155234.31, 0.000, 0.000, 0.000, 16:11:49.044, 1578579109044
73, -167609.31, -142182.06, -183775.23, 187500.00, -162999.64, 187500.00, -186672.13, -186908.95, 0.000, 0.000, 0.000, 16:11:49.044, 1578579109044
74, -132096.22, -56643.05, -127983.91, -117086.19, -105995.01, -45653.17, -107013.42, 155445.98, 0.000, 0.000, 0.000, 16:11:49.044, 1578579109044
75, -168029.77, -142552.67, -183783.61, 187500.00, -163482.75, 187500.00, -186735.30, -186973.36, -0.024, -0.014, 0.974, 16:11:49.045, 1578579109045
76, -132289.05, -56847.66, -128404.20, -117460.76, -106225.59, -45811.87, -107348.95, 155654.23, 0.000, 0.000, 0.000, 16:11:49.045, 1578579109045
77, -168454.16, -142928.81, -183783.88, 187500.00, -163973.00, 187500.00, -186802.86, -187040.17, 0.000, 0.000, 0.000, 16:11:49.045, 1578579109045
78, -132482.89, -57050.73, -128824.38, -117831.84, -106456.86, -45970.03, -107683.03, 155865.80, 0.000, 0.000, 0.000, 16:11:49.045, 1578579109045
79, -168877.86, -143304.11, -183787.97, 187500.00, -164462.45, 187500.00, -186869.25, -187104.17, 0.000, 0.000, 0.000, 16:11:49.045, 1578579109045
80, -132671.80, -57250.32, -129239.64, -118201.72, -106689.08, -46129.93, -108014.65, 156076.59, 0.000, 0.000, 0.000, 16:11:49.045, 1578579109045
81, -169297.63, -143674.64, -183793.50, 187500.00, -164945.11, 187500.00, -186932.08, -187166.50, 0.000, 0.000, 0.000, 16:11:49.045, 1578579109045
82, -132857.95, -57448.63, -129655.05, -118570.26, -106921.09, -46286.91, -108346.77, 156287.89, 0.000, 0.000, 0.000, 16:11:49.045, 1578579109045
83, -169719.36, -144047.72, -183798.92, 187500.00, -165433.64, 187500.00, -186998.84, -187234.20, 0.000, 0.000, 0.000, 16:11:49.045, 1578579109045
84, -133048.78, -57652.43, -130073.49, -118942.32, -107153.56, -46444.22, -108680.95, 156496.83, 0.000, 0.000, 0.000, 16:11:49.045, 1578579109045
85, -170142.45, -144420.41, -183806.70, 187500.00, -165923.16, 187500.00, -187065.91, -187299.61, -0.018, -0.016, 0.978, 16:11:49.045, 1578579109045
86, -133243.50, -57858.70, -130493.80, -119315.33, -107387.39, -46603.16, -109015.98, 156703.84, 0.000, 0.000, 0.000, 16:11:49.045, 1578579109045
87, -170567.05, -144793.03, -183808.52, 187500.00, -166409.58, 187500.00, -187131.28, -187365.59, 0.000, 0.000, 0.000, 16:11:49.045, 1578579109045
88, -133434.45, -58062.30, -130908.62, -119685.25, -107619.60, -46758.68, -109347.77, 156915.70, 0.000, 0.000, 0.000, 16:11:49.045, 1578579109045
89, -170991.98, -145164.66, -183816.16, 187500.00, -166892.41, 187500.00, -187195.03, -187428.94, 0.000, 0.000, 0.000, 16:11:49.045, 1578579109045
90, -133628.80, -58265.39, -131324.20, -120059.71, -107847.70, -46914.37, -109680.16, 157124.11, 0.000, 0.000, 0.000, 16:11:49.046, 1578579109046
91, -171415.08, -145533.67, -183826.11, 187500.00, -167375.13, 187500.00, -187258.75, -187488.34, 0.000, 0.000, 0.000, 16:11:49.046, 1578579109046
92, -133824.69, -58469.95, -131741.09, -120434.55, -108082.68, -47071.01, -110015.95, 157328.67, 0.000, 0.000, 0.000, 16:11:49.046, 1578579109046
93, -171840.70, -145907.16, -183827.41, 187500.00, -167862.42, 187500.00, -187326.66, -187500.02, 0.000, 0.000, 0.000, 16:11:49.046, 1578579109046
94, -134018.11, -58672.93, -132162.17, -120810.55, -108317.47, -47230.29, -110349.17, 157533.95, -0.014, -0.018, 0.974, 16:11:49.046, 1578579109046
95, -172262.94, -146280.00, -183836.67, 187500.00, -168346.61, 187500.00, -187390.84, -187500.02, 0.000, 0.000, 0.000, 16:11:49.046, 1578579109046
96, -134209.41, -58877.80, -132581.17, -121183.38, -108549.32, -47386.43, -110681.88, 157738.20, 0.000, 0.000, 0.000, 16:11:49.046, 1578579109046
97, -172683.25, -146648.25, -183839.27, 187500.00, -168827.69, 187500.00, -187454.27, -187500.02, 0.000, 0.000, 0.000, 16:11:49.046, 1578579109046
98, -134399.16, -59081.11, -132995.11, -121554.57, -108778.36, -47541.51, -111012.33, 157942.77, 0.000, 0.000, 0.000, 16:11:49.046, 1578579109046
99, -173103.86, -147014.89, -183846.75, 187500.00, -169307.39, 187500.00, -187500.02, -187500.02, 0.000, 0.000, 0.000, 16:11:49.046, 1578579109046
100, -134591.69, -59285.41, -133412.89, -121929.74, -109010.57, -47699.45, -111343.96, 158145.14, 0.000, 0.000, 0.000, 16:11:49.046, 1578579109046
101, -173528.88, -147387.08, -183848.81, 187500.00, -169791.44, 187500.00, -187500.02, -187500.02, 0.000, 0.000, 0.000, 16:11:49.046, 1578579109046
102, -134785.50, -59488.85, -133828.41, -122301.68, -109243.34, -47859.69, -111675.28, 158347.33, 0.000, 0.000, 0.000, 16:11:49.046, 1578579109046
103, -173950.97, -147758.55, -183855.55, 187500.00, -170276.34, 187500.00, -187500.02, -187500.02, 0.000, 0.000, 0.000, 16:11:49.046, 1578579109046
104, -134977.69, -59691.47, -134241.91, -122671.47, -109476.90, -48018.96, -112005.59, 158550.17, -0.018, -0.012, 0.978, 16:11:49.046, 1578579109046
105, -174371.55, -148127.36, -183860.70, 187500.00, -170758.67, 187500.00, -187500.02, -187500.02, 0.000, 0.000, 0.000, 16:11:49.047, 1578579109047
106, -135167.50, -59892.93, -134658.06, -123042.26, -109711.66, -48178.58, -112337.38, 158751.14, 0.000, 0.000, 0.000, 16:11:49.047, 1578579109047
107, -174795.00, -148497.91, -183864.86, 187500.00, -171241.42, 187500.00, -187500.02, -187500.02, 0.000, 0.000, 0.000, 16:11:49.047, 1578579109047
108, -135361.56, -60095.34, -135074.45, -123412.91, -109945.81, -48338.48, -112669.69, 158948.30, 0.000, 0.000, 0.000, 16:11:49.047, 1578579109047
109, -175217.53, -148867.28, -183870.03, 187500.00, -171723.80, 187500.00, -187500.02, -187500.02, 0.000, 0.000, 0.000, 16:11:49.047, 1578579109047
110, -135554.50, -60299.82, -135492.89, -123784.23, -110178.41, -48498.48, -113001.81, 159148.03, 0.000, 0.000, 0.000, 16:11:49.047, 1578579109047
111, -175638.42, -149230.86, -183878.08, 187500.00, -172205.39, 187500.00, -187500.02, -187500.02, 0.000, 0.000, 0.000, 16:11:49.047, 1578579109047
112, -135745.77, -60501.70, -135908.19, -124155.55, -110408.78, -48654.27, -113333.42, 159353.09, 0.000, 0.000, 0.000, 16:11:49.047, 1578579109047
113, -176061.38, -149597.94, -183888.38, 187500.00, -172687.11, 187500.00, -187500.02, -187500.02, 0.000, 0.000, 0.000, 16:11:49.047, 1578579109047
114, -135936.33, -60704.05, -136321.97, -124525.05, -110640.57, -48808.81, -113661.50, 159553.94, -0.016, -0.016, 0.978, 16:11:49.047, 1578579109047
115, -176484.05, -149966.16, -183892.41, 187500.00, -173167.94, 187500.00, -187500.02, -187500.02, 0.000, 0.000, 0.000, 16:11:49.047, 1578579109047
116, -136131.22, -60906.36, -136738.95, -124896.67, -110873.48, -48968.04, -113994.30, 159750.34, 0.000, 0.000, 0.000, 16:11:49.047, 1578579109047
117, -176909.95, -150334.47, -183894.20, 187500.00, -173650.78, 187500.00, -187500.02, -187500.02, 0.000, 0.000, 0.000, 16:11:49.047, 1578579109047
118, -136323.55, -61110.47, -137154.20, -125265.95, -111106.25, -49127.16, -114326.38, 159947.27, 0.000, 0.000, 0.000, 16:11:49.047, 1578579109047
119, -177334.67, -150701.41, -183898.61, 187500.00, -174135.19, 187500.00, -187500.02, -187500.02, 0.000, 0.000, 0.000, 16:11:49.047, 1578579109047
120, -136516.52, -61312.84, -137572.05, -125638.34, -111339.13, -49283.79, -114657.94, 160145.58, 0.000, 0.000, 0.000, 16:11:49.516, 1578579109516
121, -177755.97, -151061.63, -183905.16, 187500.00, -174613.45, 187500.00, -187500.02, -187500.02, 0.000, 0.000, 0.000, 16:11:49.516, 1578579109516
122, -136707.89, -61515.15, -137988.64, -126009.99, -111569.17, -49438.21, -114989.30, 160345.55, 0.000, 0.000, 0.000, 16:11:49.516, 1578579109516
123, -178183.86, -151425.47, -183914.03, 187500.00, -175094.81, 187500.00, -187500.02, -187500.02, 0.000, 0.000, 0.000, 16:11:49.516, 1578579109516
124, -136899.52, -61718.53, -138407.09, -126383.82, -111803.71, -49593.33, -115321.67, 160541.06, -0.020, -0.016, 0.974, 16:11:49.517, 1578579109517
125, -178613.00, -151794.52, -183922.31, 187500.00, -175578.56, 187500.00, -187500.02, -187500.02, 0.000, 0.000, 0.000, 16:11:49.517, 1578579109517
126, -137092.47, -61923.34, -138823.64, -126756.63, -112035.30, -49751.85, -115656.57, 160736.95, 0.000, 0.000, 0.000, 16:11:49.517, 1578579109517
127, -179042.41, -152157.69, -183928.16, 187500.00, -176059.83, 187500.00, -187500.02, -187500.02, 0.000, 0.000, 0.000, 16:11:49.517, 1578579109517
128, -137283.16, -62124.10, -139237.27, -127126.80, -112263.98, -49906.66, -115985.84, 160932.59, 0.000, 0.000, 0.000, 16:11:49.517, 1578579109517
129, -179471.06, -152519.58, -183931.56, 187500.00, -176542.39, 187500.00, -187500.02, -187500.02, 0.000, 0.000, 0.000, 16:11:49.517, 1578579109517
130, -137476.72, -62325.31, -139653.05, -127502.73, -112496.13, -50061.69, -116315.59, 161127.48, 0.000, 0.000, 0.000, 16:11:49.517, 1578579109517
131, -179901.16, -152883.89, -183937.86, 187500.00, -177026.92, 187500.00, -187500.02, -187500.02, 0.000, 0.000, 0.000, 16:11:49.517, 1578579109517
132, -137670.80, -62529.07, -140072.67, -127879.29, -112730.88, -50221.06, -116648.14, 161318.45, 0.000, 0.000, 0.000, 16:11:49.517, 1578579109517
133, -180331.72, -153248.61, -183941.70, 187500.00, -177512.61, 187500.00, -187500.02, -187500.02, -0.022, -0.014, 0.976, 16:11:49.517, 1578579109517
134, -137863.86, -62731.40, -140491.50, -128254.91, -112962.98, -50379.76, -116980.60, 161510.92, 0.000, 0.000, 0.000, 16:11:49.517, 1578579109517
135, -180761.61, -153610.48, -183949.38, 187500.00, -177997.39, 187500.00, -187500.02, -187500.02, 0.000, 0.000, 0.000, 16:11:49.517, 1578579109517
136, -138054.00, -62932.72, -140904.77, -128626.80, -113194.44, -50537.25, -117309.23, 161704.36, 0.000, 0.000, 0.000, 16:11:49.517, 1578579109517
137, -181189.89, -153972.38, -183955.52, 187500.00, -178481.80, 187500.00, -187500.02, -187500.02, 0.000, 0.000, 0.000, 16:11:49.517, 1578579109517
138, -138243.83, -63133.55, -141318.61, -128997.45, -113425.22, -50695.14, -117636.67, 161898.34, 0.000, 0.000, 0.000, 16:11:49.517, 1578579109517
139, -181622.56, -154334.97, -183959.50, 187500.00, -178968.42, 187500.00, -187500.02, -187500.02, 0.000, 0.000, 0.000, 16:11:49.517, 1578579109517
140, -138436.17, -63334.74, -141737.84, -129370.64, -113657.72, -50852.23, -117970.31, 162090.08, 0.000, 0.000, 0.000, 16:11:49.517, 1578579109517
141, -182061.64, -154699.95, -183965.52, 187500.00, -179455.78, 187500.00, -187500.02, -187500.02, 0.000, 0.000, 0.000, 16:11:49.517, 1578579109517
142, -138629.20, -63538.18, -142158.19, -129745.52, -113888.62, -51008.85, -118303.89, 162281.28, 0.000, 0.000, 0.000, 16:11:49.518, 1578579109518
143, -182499.84, -155062.56, -183974.91, 187500.00, -179940.33, 187500.00, -187500.02, -187500.02, -0.016, -0.016, 0.980, 16:11:49.518, 1578579109518
144, -138818.25, -63738.57, -142573.69, -130117.95, -114117.50, -51165.93, -118636.44, 162472.70, 0.000, 0.000, 0.000, 16:11:49.518, 1578579109518
145, -182933.73, -155423.66, -183977.17, 187500.00, -180421.69, 187500.00, -187500.02, -187500.02, 0.000, 0.000, 0.000, 16:11:49.518, 1578579109518
146, -139005.72, -63941.57, -142989.48, -130486.84, -114347.74, -51323.11, -118969.55, 162665.44, 0.000, 0.000, 0.000, 16:11:49.518, 1578579109518
147, -183371.53, -155784.19, -183984.36, 187500.00, -180901.48, 187500.00, -187500.02, -187500.02, 0.000, 0.000, 0.000, 16:11:49.518, 1578579109518
148, -139197.94, -64142.82, -143404.97, -130855.53, -114579.33, -51482.28, -119303.55, 162858.58, 0.000, 0.000, 0.000, 16:11:49.518, 1578579109518
149, -183807.59, -156151.77, -183989.70, 187500.00, -181388.36, 187500.00, -187500.02, -187500.02, 0.000, 0.000, 0.000, 16:11:49.518, 1578579109518
150, -139391.08, -64350.16, -143823.75, -131226.80, -114813.06, -51640.42, -119637.06, 163047.14, 0.000, 0.000, 0.000, 16:11:49.518, 1578579109518
151, -184007.31, -156539.45, -183992.94, 187500.00, -181882.11, 187500.00, -187500.02, -187500.02, 0.000, 0.000, 0.000, 16:11:49.518, 1578579109518
152, -139578.03, -64553.36, -144239.56, -131597.88, -115043.09, -51794.91, -119968.70, 163238.16, 0.000, 0.000, 0.000, 16:11:49.518, 1578579109518
153, -184014.70, -156967.13, -184002.38, 187500.00, -182388.11, 187500.00, -187500.02, -187500.02, -0.016, -0.016, 0.972, 16:11:49.518, 1578579109518
154, -139766.58, -64752.04, -144655.30, -131972.89, -115271.74, -51950.84, -120304.05, 163427.39, 0.000, 0.000, 0.000, 16:11:49.518, 1578579109518
155, -184019.33, -157399.97, -184006.75, 187500.00, -182900.08, 187500.00, -187500.02, -187500.02, 0.000, 0.000, 0.000, 16:11:49.518, 1578579109518
156, -139961.44, -64955.08, -145072.58, -132344.88, -115503.53, -52107.64, -120637.77, 163614.73, 0.000, 0.000, 0.000, 16:11:49.518, 1578579109518
157, -184025.27, -157835.30, -184012.14, 187500.00, -183412.39, 187500.00, -187500.02, -187500.02, 0.000, 0.000, 0.000, 16:11:49.518, 1578579109518
158, -140152.61, -65156.85, -145489.22, -132715.42, -115733.84, -52263.70, -120969.96, 163803.30, 0.000, 0.000, 0.000, 16:11:49.518, 1578579109518
159, -184036.50, -158268.16, -184024.36, 187500.00, -183925.03, 187500.00, -187500.02, -187500.02, 0.000, 0.000, 0.000, 16:11:49.519, 1578579109519
160, -140344.47, -65358.69, -145907.47, -133087.38, -115963.39, -52420.81, -121301.88, 163992.42, 0.000, 0.000, 0.000, 16:11:49.519, 1578579109519
161, -184051.61, -158711.97, -184037.48, 187500.00, -184386.81, 187500.00, -187500.02, -187500.02, 0.000, 0.000, 0.000, 16:11:49.519, 1578579109519
162, -140535.06, -65558.45, -146322.69, -133459.42, -116194.63, -52578.34, -121632.98, 164179.80, 0.000, 0.000, 0.000, 16:11:49.519, 1578579109519
163, -184089.97, -159192.83, -184087.53, 187500.00, -184531.19, 187500.00, -187500.02, -187500.02, -0.020, -0.022, 0.972, 16:11:49.519, 1578579109519
164, -140725.23, -65760.75, -146739.38, -133832.98, -116427.38, -52738.05, -121965.20, 164366.23, 0.000, 0.000, 0.000, 16:11:49.519, 1578579109519
165, -184132.41, -159677.42, -184141.47, 187500.00, -184620.83, 187500.00, -187500.02, -187500.02, 0.000, 0.000, 0.000, 16:11:49.519, 1578579109519
166, -140916.14, -65964.16, -147158.83, -134206.42, -116659.25, -52894.78, -122300.52, 164549.27, 0.000, 0.000, 0.000, 16:11:49.519, 1578579109519
167, -184173.73, -160163.63, -184193.30, 187500.00, -184708.64, 187500.00, -187500.02, -187500.02, 0.000, 0.000, 0.000, 16:11:49.519, 1578579109519
168, -141104.75, -66161.85, -147573.39, -134577.80, -116892.22, -53049.02, -122631.32, 164737.97, 0.000, 0.000, 0.000, 16:11:49.519, 1578579109519
169, -184211.06, -160648.89, -184242.88, 187500.00, -184794.77, 187500.00, -187500.02, -187500.02, 0.000, 0.000, 0.000, 16:11:49.519, 1578579109519
170, -141293.89, -66362.15, -147989.53, -134949.91, -117123.77, -53204.68, -122962.40, 164925.83, 0.000, 0.000, 0.000, 16:11:49.519, 1578579109519
171, -184250.55, -161132.11, -184293.45, 187500.00, -184883.75, 187500.00, -187500.02, -187500.02, 0.000, 0.000, 0.000, 16:11:49.519, 1578579109519
172, -141486.19, -66565.02, -148405.31, -135320.94, -117354.03, -53361.70, -123294.30, 165112.11, -0.022, -0.022, 0.972, 16:11:49.519, 1578579109519
173, -184294.08, -161615.75, -184346.77, 187500.00, -184976.66, 187500.00, -187500.02, -187500.02, 0.000, 0.000, 0.000, 16:11:49.519, 1578579109519
174, -141678.42, -66767.34, -148822.47, -135695.02, -117586.78, -53521.56, -123629.95, 165295.53, 0.000, 0.000, 0.000, 16:11:49.519, 1578579109519
175, -184334.92, -162099.31, -184397.61, 187500.00, -185066.38, 187500.00, -187500.02, -187500.02, 0.000, 0.000, 0.000, 16:11:49.519, 1578579109519
176, -141870.05, -66967.70, -149238.33, -136065.56, -117820.06, -53679.01, -123964.54, 165480.42, 0.000, 0.000, 0.000, 16:11:49.519, 1578579109519
177, -184373.78, -162581.91, -184446.25, 187500.00, -185155.30, 187500.00, -187500.02, -187500.02, 0.000, 0.000, 0.000, 16:11:49.519, 1578579109519
178, -142063.69, -67166.05, -149653.13, -136436.14, -118052.30, -53837.01, -124298.29, 165665.22, 0.000, 0.000, 0.000, 16:11:49.520, 1578579109520
179, -184415.70, -163066.50, -184498.47, 187500.00, -185247.08, 187500.00, -187500.02, -187500.02, 0.000, 0.000, 0.000, 16:11:49.520, 1578579109520
180, -142256.02, -67366.81, -150072.89, -136809.86, -118284.35, -53995.89, -124632.12, 165849.67, 0.000, 0.000, 0.000, 16:11:49.520, 1578579109520
181, -184457.56, -163549.67, -184551.00, 187500.00, -185339.14, 187500.00, -187500.02, -187500.02, 0.000, 0.000, 0.000, 16:11:49.520, 1578579109520
182, -142451.08, -67570.02, -150490.80, -137182.17, -118518.65, -54154.34, -124962.52, 166032.00, -0.018, -0.016, 0.976, 16:11:49.520, 1578579109520
183, -184498.88, -164032.66, -184602.30, 187500.00, -185432.53, 187500.00, -187500.02, -187500.02, 0.000, 0.000, 0.000, 16:11:49.520, 1578579109520
184, -142642.28, -67771.52, -150903.59, -137552.39, -118752.34, -54311.86, -125290.93, 166212.59, 0.000, 0.000, 0.000, 16:11:49.520, 1578579109520
185, -184537.31, -164513.73, -184651.69, 187500.00, -185522.89, 187500.00, -187500.02, -187500.02, 0.000, 0.000, 0.000, 16:11:49.520, 1578579109520
186, -142832.78, -67973.42, -151317.50, -137926.17, -118985.28, -54469.88, -125622.41, 166395.70, 0.000, 0.000, 0.000, 16:11:49.520, 1578579109520
187, -184578.11, -164996.80, -184701.94, 187500.00, -185615.81, 187500.00, -187500.02, -187500.02, 0.000, 0.000, 0.000, 16:11:49.520, 1578579109520
188, -143021.95, -68175.59, -151734.86, -138298.55, -119218.59, -54628.33, -125955.72, 166578.27, 0.000, 0.000, 0.000, 16:11:49.520, 1578579109520
189, -184620.75, -165482.45, -184754.75, 187500.00, -185711.03, 187500.00, -187500.02, -187500.02, 0.000, 0.000, 0.000, 16:11:49.520, 1578579109520
190, -143212.94, -68377.00, -152151.97, -138671.48, -119450.18, -54786.54, -126289.70, 166760.02, 0.000, 0.000, 0.000, 16:11:49.520, 1578579109520
191, -184660.70, -165964.73, -184804.50, 187500.00, -185803.08, 187500.00, -187500.02, -187500.02, 0.000, 0.000, 0.000, 16:11:49.520, 1578579109520
192, -143400.98, -68574.91, -152567.61, -139041.34, -119680.80, -54942.44, -126623.57, 166941.86, -0.014, -0.016, 0.976, 16:11:49.520, 1578579109520
193, -184699.23, -166448.81, -184852.86, 187500.00, -185894.78, 187500.00, -187500.02, -187500.02, 0.000, 0.000, 0.000, 16:11:49.521, 1578579109521
194, -143589.55, -68772.98, -152983.81, -139409.48, -119910.96, -55094.52, -126957.16, 167125.06, 0.000, 0.000, 0.000, 16:11:49.521, 1578579109521
195, -184739.69, -166931.41, -184902.77, 187500.00, -185988.05, 187500.00, -187500.02, -187500.02, 0.000, 0.000, 0.000, 16:11:49.521, 1578579109521
196, -143779.63, -68975.40, -153400.00, -139783.11, -120142.08, -55251.75, -127291.62, 167305.14, 0.000, 0.000, 0.000, 16:11:49.521, 1578579109521
197, -184780.91, -167414.03, -184953.81, 187500.00, -186082.22, 187500.00, -187500.02, -187500.02, 0.000, 0.000, 0.000, 16:11:49.521, 1578579109521
198, -143971.41, -69178.80, -153817.77, -140155.06, -120375.12, -55408.59, -127625.41, 167486.80, 0.000, 0.000, 0.000, 16:11:49.521, 1578579109521
199, -184822.50, -167894.42, -185004.52, 187500.00, -186175.70, 187500.00, -187500.02, -187500.02, 0.000, 0.000, 0.000, 16:11:49.521, 1578579109521
200, -144162.58, -69383.48, -154232.53, -140525.56, -120607.51, -55567.69, -127958.57, 167665.89, 0.000, 0.000, 0.000, 16:11:49.521, 1578579109521
201, -184860.75, -168375.48, -185052.44, 187500.00, -186266.09, 187500.00, -187500.02, -187500.02, 0.000, 0.000, 0.000, 16:11:49.521, 1578579109521
202, -144352.52, -69584.71, -154645.17, -140896.03, -120837.84, -55727.08, -128291.37, 167846.70, -0.014, -0.010, 0.970, 16:11:49.521, 1578579109521
203, -184901.98, -168857.52, -185102.56, 187500.00, -186360.17, 187500.00, -187500.02, -187500.02, 0.000, 0.000, 0.000, 16:11:49.522, 1578579109522
204, -144545.91, -69786.99, -155061.72, -141267.27, -121070.99, -55888.08, -128623.89, 168025.03, 0.000, 0.000, 0.000, 16:11:49.522, 1578579109522
205, -184943.95, -169339.47, -185154.22, 187500.00, -186455.36, 187500.00, -187500.02, -187500.02, 0.000, 0.000, 0.000, 16:11:49.522, 1578579109522
206, -144741.17, -69987.18, -155479.13, -141639.53, -121305.80, -56046.24, -128958.38, 168203.16, 0.000, 0.000, 0.000, 16:11:49.522, 1578579109522
207, -184983.98, -169821.64, -185204.58, 187500.00, -186549.98, 187500.00, -187500.02, -187500.02, 0.000, 0.000, 0.000, 16:11:49.522, 1578579109522
208, -144930.22, -70187.38, -155897.28, -142013.28, -121538.86, -56201.70, -129291.70, 168383.03, 0.000, 0.000, 0.000, 16:11:49.522, 1578579109522
209, -185023.13, -170304.13, -185251.75, 187500.00, -186642.27, 187500.00, -187500.02, -187500.02, 0.000, 0.000, 0.000, 16:11:49.522, 1578579109522
210, -145120.33, -70388.48, -156313.95, -142383.45, -121770.98, -56357.48, -129619.28, 168562.28, 0.000, 0.000, 0.000, 16:11:49.522, 1578579109522
211, -185060.91, -170787.03, -185299.48, 187500.00, -186734.73, 187500.00, -187500.02, -187500.02, 0.000, 0.000, 0.000, 16:11:49.523, 1578579109523
212, -145312.86, -70589.40, -156731.95, -142754.91, -122004.34, -56515.02, -129950.76, 168738.41, -0.012, -0.008, 0.978, 16:11:49.523, 1578579109523
213, -185103.06, -171268.56, -185351.44, 187500.00, -186829.64, 187500.00, -187500.02, -187500.02, 0.000, 0.000, 0.000, 16:11:49.523, 1578579109523
214, -145502.03, -70793.07, -157150.02, -143127.67, -122238.38, -56672.85, -130285.01, 168912.27, 0.000, 0.000, 0.000, 16:11:49.523, 1578579109523
215, -185137.30, -171741.44, -185396.47, 187500.00, -186919.27, 187500.00, -187500.02, -187500.02, 0.000, 0.000, 0.000, 16:11:49.523, 1578579109523
216, -145694.23, -70996.05, -157567.77, -143499.47, -122471.35, -56834.07, -130618.54, 169085.44, 0.000, 0.000, 0.000, 16:11:49.523, 1578579109523
217, -185179.33, -172225.44, -185447.20, 187500.00, -187013.34, 187500.00, -187500.02, -187500.02, 0.000, 0.000, 0.000, 16:11:49.523, 1578579109523
218, -145881.56, -71194.69, -157982.30, -143867.13, -122701.08, -56989.39, -130947.71, 169263.94, 0.000, 0.000, 0.000, 16:11:49.523, 1578579109523
219, -185221.86, -172713.48, -185499.52, 187500.00, -187109.44, 187500.00, -187500.02, -187500.02, 0.000, 0.000, 0.000, 16:11:49.523, 1578579109523
220, -146075.50, -71396.95, -158399.34, -144237.09, -122935.66, -57148.60, -131281.38, 169440.13, 0.000, 0.000, 0.000, 16:11:49.523, 1578579109523
221, -185265.28, -173202.09, -185550.63, 187500.00, -187205.75, 187500.00, -187500.02, -187500.02, -0.020, -0.014, 0.972, 16:11:49.523, 1578579109523
222, -146265.66, -71594.96, -158814.66, -144605.09, -123168.81, -57305.51, -131611.02, 169616.83, 0.000, 0.000, 0.000, 16:11:49.523, 1578579109523
223, -185304.98, -173685.81, -185600.30, 187500.00, -187300.14, 187500.00, -187500.02, -187500.02, 0.000, 0.000, 0.000, 16:11:49.523, 1578579109523
224, -146453.91, -71792.37, -159230.47, -144973.00, -123400.22, -57461.17, -131941.83, 169793.66, 0.000, 0.000, 0.000, 16:11:49.523, 1578579109523
225, -185342.95, -174163.77, -185646.45, 187500.00, -187392.80, 187500.00, -187500.02, -187500.02, 0.000, 0.000, 0.000, 16:11:49.523, 1578579109523
226, -146644.97, -71990.43, -159643.75, -145342.34, -123630.94, -57619.06, -132272.91, 169968.27, 0.000, 0.000, 0.000, 16:11:49.523, 1578579109523
227, -185383.06, -174646.16, -185696.41, 187500.00, -187482.14, 187500.00, -187500.02, -187500.02, 0.000, 0.000, 0.000, 16:11:49.523, 1578579109523
228, -146838.22, -72192.27, -160055.22, -145710.56, -123863.22, -57777.83, -132607.03, 170142.70, 0.000, 0.000, 0.000, 16:11:49.524, 1578579109524
229, -185424.97, -175129.83, -185747.02, 187500.00, -187500.02, 187500.00, -187500.02, -187500.02, 0.000, 0.000, 0.000, 16:11:49.524, 1578579109524
230, -147028.19, -72394.91, -160471.42, -146081.50, -124097.51, -57936.50, -132940.11, 170312.03, 0.000, 0.000, 0.000, 16:11:49.524, 1578579109524
231, -185463.19, -175613.06, -185794.20, 187500.00, -187500.02, 187500.00, -187500.02, -187500.02, -0.016, -0.016, 0.984, 16:11:49.524, 1578579109524
232, -147214.44, -72594.38, -160889.13, -146450.03, -124330.61, -58092.70, -133271.72, 170484.28, 0.000, 0.000, 0.000, 16:11:49.524, 1578579109524
233, -185500.97, -176098.02, -185842.33, 187500.00, -187500.02, 187500.00, -187500.02, -187500.02, 0.000, 0.000, 0.000, 16:11:49.524, 1578579109524
234, -147403.58, -72791.72, -161303.09, -146816.80, -124561.64, -58246.66, -133603.66, 170656.41, 0.000, 0.000, 0.000, 16:11:49.524, 1578579109524
235, -185539.56, -176584.45, -185889.53, 187500.00, -187500.02, 187500.00, -187500.02, -187500.02, 0.000, 0.000, 0.000, 16:11:49.524, 1578579109524
236, -147595.00, -72992.93, -161723.66, -147187.13, -124795.33, -58404.77, -133936.56, 170826.80, 0.000, 0.000, 0.000, 16:11:49.524, 1578579109524
237, -185580.20, -177074.27, -185939.50, 187500.00, -187500.02, 187500.00, -187500.02, -187500.02, 0.000, 0.000, 0.000, 16:11:49.524, 1578579109524
238, -147783.03, -73193.98, -162143.27, -147557.97, -125030.83, -58565.28, -134269.61, 170999.00, 0.000, 0.000, 0.000, 16:11:49.524, 1578579109524
239, -185619.00, -177563.77, -185988.09, 187500.00, -187500.02, 187500.00, -187500.02, -187500.02, 0.000, 0.000, 0.000, 16:11:49.524, 1578579109524
240, -147969.95, -73390.72, -162559.69, -147923.61, -125264.29, -58721.03, -134599.89, 171174.03, 0.000, 0.000, 0.000, 16:11:49.992, 1578579109992
241, -185655.59, -178050.41, -186033.11, 187500.00, -187500.02, 187500.00, -187500.02, -187500.02, -0.024, -0.018, 0.976, 16:11:49.992, 1578579109992
242, -148158.13, -73590.66, -162976.59, -148291.09, -125496.46, -58879.86, -134929.09, 171349.56, 0.000, 0.000, 0.000, 16:11:49.992, 1578579109992
243, -185693.77, -178538.70, -186080.39, 187500.00, -187500.02, 187500.00, -187500.02, -187500.02, 0.000, 0.000, 0.000, 16:11:49.992, 1578579109992
244, -148351.31, -73789.99, -163393.61, -148661.09, -125728.96, -59037.84, -135261.02, 171524.33, 0.000, 0.000, 0.000, 16:11:49.993, 1578579109993
245, -185733.88, -179030.81, -186129.72, 187500.00, -187500.02, 187500.00, -187500.02, -187500.02, 0.000, 0.000, 0.000, 16:11:49.993, 1578579109993
246, -148540.84, -73992.30, -163814.47, -149027.91, -125959.30, -59196.25, -135592.86, 171695.81, 0.000, 0.000, 0.000, 16:11:49.993, 1578579109993
247, -185772.41, -179522.28, -186177.06, 187500.00, -187500.02, 187500.00, -187500.02, -187500.02, 0.000, 0.000, 0.000, 16:11:49.993, 1578579109993
248, -148729.33, -74193.33, -164229.80, -149395.75, -126191.59, -59351.41, -135922.72, 171870.11, 0.000, 0.000, 0.000, 16:11:49.993, 1578579109993
249, -185808.38, -180012.81, -186221.41, 187500.00, -187500.02, 187500.00, -187500.02, -187500.02, 0.000, 0.000, 0.000, 16:11:49.993, 1578579109993
250, -148921.31, -74392.02, -164647.86, -149763.34, -126422.91, -59507.38, -136253.03, 172043.22, 0.000, 0.000, 0.000, 16:11:49.993, 1578579109993
251, -185844.63, -180503.77, -186267.19, 187500.00, -187500.02, 187500.00, -187500.02, -187500.02, -0.022, -0.016, 0.978, 16:11:49.993, 1578579109993
252, -149114.61, -74592.09, -165066.94, -150131.61, -126657.63, -59663.53, -136583.38, 172214.11, 0.000, 0.000, 0.000, 16:11:49.993, 1578579109993
253, -185883.58, -181000.28, -186316.14, 187500.00, -187500.02, 187500.00, -187500.02, -187500.02, 0.000, 0.000, 0.000, 16:11:49.993, 1578579109993
254, -149306.25, -74790.77, -165485.19, -150498.22, -126892.39, -59820.78, -136914.89, 172384.11, 0.000, 0.000, 0.000, 16:11:49.993, 1578579109993
255, -185920.70, -181495.47, -186362.92, 187500.00, -187500.02, 187500.00, -187500.02, -187500.02, 0.000, 0.000, 0.000, 16:11:49.993, 1578579109993
0, -149496.58, -74989.63, -165899.58, -150865.48, -127125.84, -59977.53, -137241.88, 172558.84, 0.000, 0.000, 0.000, 16:11:49.993, 1578579109993
1, -185955.98, -181990.44, -186405.98, 187500.00, -187500.02, 187500.00, -187500.02, -187500.02, 0.000, 0.000, 0.000, 16:11:49.993, 1578579109993
2, -149684.02, -75188.56, -166312.06, -151228.20, -127356.63, -60132.49, -137567.63, 172732.47, 0.000, 0.000, 0.000, 16:11:49.993, 1578579109993
3, -185992.45, -182488.38, -186452.19, 187500.00, -187500.02, 187500.00, -187500.02, -187500.02, 0.000, 0.000, 0.000, 16:11:49.994, 1578579109994
4, -149876.11, -75389.81, -166729.92, -151594.80, -127590.15, -60290.25, -137900.14, 172904.80, -0.020, -0.014, 0.974, 16:11:49.994, 1578579109994
5, -186030.72, -182988.78, -186498.23, 187500.00, -187500.02, 187500.00, -187500.02, -187500.02, 0.000, 0.000, 0.000, 16:11:49.994, 1578579109994
6, -150064.64, -75591.01, -167149.17, -151960.59, -127823.50, -60447.18, -138232.22, 173075.67, 0.000, 0.000, 0.000, 16:11:49.994, 1578579109994
7, -186066.23, -183488.58, -186543.61, 187500.00, -187500.02, 187500.00, -187500.02, -187500.02, 0.000, 0.000, 0.000, 16:11:49.994, 1578579109994
8, -150249.00, -75789.82, -167563.94, -152324.42, -128054.01, -60603.27, -138562.48, 173247.61, 0.000, 0.000, 0.000, 16:11:49.994, 1578579109994
9, -186098.52, -183986.39, -186585.27, 187500.00, -187500.02, 187500.00, -187500.02, -187500.02, 0.000, 0.000, 0.000, 16:11:49.994, 1578579109994
10, -150436.36, -75990.72, -167981.53, -152689.70, -128284.21, -60759.68, -138894.09, 173418.91, 0.000, 0.000, 0.000, 16:11:49.998, 1578579109998
11, -186139.42, -184569.75, -186633.84, 187500.00, -187500.02, 187500.00, -187500.02, -187500.02, 0.000, 0.000, 0.000, 16:11:49.998, 1578579109998
12, -150627.73, -76190.37, -168398.53, -153056.92, -128513.30, -60914.16, -139225.28, 173587.22, 0.000, 0.000, 0.000, 16:11:49.998, 1578579109998
13, -186214.25, -184936.81, -186715.78, 187500.00, -187500.02, 187500.00, -187500.02, -187500.02, 0.000, 0.000, 0.000, 16:11:49.998, 1578579109998
14, -150817.72, -76391.35, -168818.30, -153423.55, -128742.89, -61071.63, -139555.61, 173754.23, -0.018, -0.012, 0.978, 16:11:49.998, 1578579109998
15, -186295.06, -185019.00, -186804.67, 187500.00, -187500.02, 187500.00, -187500.02, -187500.02, 0.000, 0.000, 0.000, 16:11:49.998, 1578579109998
16, -151006.97, -76591.36, -169237.09, -153789.52, -128973.09, -61228.33, -139885.89, 173922.41, 0.000, 0.000, 0.000, 16:11:49.998, 1578579109998
17, -186373.89, -185102.41, -186892.67, 187500.00, -187500.02, 187500.00, -187500.02, -187500.02, 0.000, 0.000, 0.000, 16:11:49.998, 1578579109998
18, -151195.53, -76789.93, -169653.63, -154152.59, -129201.84, -61383.25, -140214.55, 174091.61, 0.000, 0.000, 0.000, 16:11:49.998, 1578579109998
19, -186454.36, -185187.64, -186982.19, 187500.00, -187500.02, 187500.00, -187500.02, -187500.02, 0.000, 0.000, 0.000, 16:11:49.999, 1578579109999
20, -151386.11, -76990.67, -170073.69, -154519.42, -129432.91, -61540.03, -140547.16, 174260.34, 0.000, 0.000, 0.000, 16:11:49.999, 1578579109999
21, -186537.08, -185274.47, -187074.06, 187500.00, -187500.02, 187500.00, -187500.02, -187500.02, 0.000, 0.000, 0.000, 16:11:49.999, 1578579109999
22, -151577.95, -77189.65, -170492.58, -154890.36, -129663.70, -61694.52, -140879.36, 174427.94, 0.000, 0.000, 0.000, 16:11:49.999, 1578579109999
23, -186617.48, -185358.88, -187163.23, 187500.00, -187500.02, 187500.00, -187500.02, -187500.02, 0.000, 0.000, 0.000, 16:11:49.999, 1578579109999
24, -151770.59, -77387.34, -170823.48, -155263.77, -129896.20, -61851.39, -141210.81, 174589.84, -0.018, -0.016, 0.980, 16:11:49.999, 1578579109999
25, -186695.02, -185442.45, -187248.94, 187500.00, -187500.02, 187500.00, -187500.02, -187500.02, 0.000, 0.000, 0.000, 16:11:49.999, 1578579109999
26, -151976.77, -77599.89, -170927.88, -155674.50, -130140.86, -62018.78, -141557.14, 174742.88, 0.000, 0.000, 0.000, 16:11:49.999, 1578579109999
27, -186776.52, -185528.88, -187338.95, 187500.00, -187500.02, 187500.00, -187500.02, -187500.02, 0.000, 0.000, 0.000, 16:11:49.999, 1578579109999
28, -152192.42, -77822.31, -170928.39, -156110.05, -130395.47, -62197.10, -141913.72, 174884.42, 0.000, 0.000, 0.000, 16:11:49.999, 1578579109999
29, -186858.81, -185617.47, -187430.64, 187500.00, -187500.02, 187500.00, -187500.02, -187500.02, 0.000, 0.000, 0.000, 16:11:49.999, 1578579109999
30, -152409.05, -78047.75, -170915.42, -156550.52, -130649.00, -62378.98, -142271.33, 175026.69, 0.000, 0.000, 0.000, 16:11:49.999, 1578579109999
31, -186938.94, -185703.16, -187498.77, 187500.00, -187500.02, 187500.00, -187500.02, -187500.02, 0.000, 0.000, 0.000, 16:11:49.999, 1578579109999
32, -152622.25, -78269.19, -170905.44, -156986.20, -130898.16, -62555.02, -142621.73, 175171.39, 0.000, 0.000, 0.000, 16:11:49.999, 1578579109999
33, -187018.42, -185787.73, -187500.02, 187500.00, -187500.02, 187500.00, -187500.02, -187500.02, 0.000, 0.000, 0.000, 16:11:49.999, 1578579109999
34, -152835.05, -78491.12, -170890.34, -157424.14, -131151.09, -62732.23, -142974.42, 175316.14, -0.020, -0.014, 0.982, 16:11:49.999, 1578579109999
35, -187098.78, -185874.38, -187500.02, 187500.00, -187500.02, 187500.00, -187500.02, -187500.02, 0.000, 0.000, 0.000, 16:11:49.999, 1578579109999
36, -153051.47, -78714.30, -170879.75, -157863.09, -131406.30, -62911.44, -143330.05, 175459.42, 0.000, 0.000, 0.000, 16:11:50.000, 1578579110000
37, -187181.33, -185963.77, -187500.02, 187500.00, -187500.02, 187500.00, -187500.02, -187500.02, 0.000, 0.000, 0.000, 16:11:50.000, 1578579110000
38, -153264.20, -78937.17, -170867.23, -158299.63, -131658.83, -63090.57, -143686.08, 175601.72, 0.000, 0.000, 0.000, 16:11:50.000, 1578579110000
39, -187260.86, -186049.80, -187500.02, 187500.00, -187500.02, 187500.00, -187500.02, -187500.02, 0.000, 0.000, 0.000, 16:11:50.000, 1578579110000
40, -153476.02, -79161.83, -170852.75, -158735.88, -131912.23, -63265.71, -144039.84, 175744.63, 0.000, 0.000, 0.000, 16:11:50.000, 1578579110000
41, -187337.72, -186134.13, -187500.02, 187500.00, -187500.02, 187500.00, -187500.02, -187500.02, 0.000, 0.000, 0.000, 16:11:50.000, 1578579110000
42, -153689.94, -79382.93, -170841.59, -159168.84, -132163.09, -63440.37, -144393.31, 175887.09, 0.000, 0.000, 0.000, 16:11:50.000, 1578579110000
43, -187418.30, -186220.84, -187500.02, 187500.00, -187500.02, 187500.00, -187500.02, -187500.02, -0.018, -0.014, 0.970, 16:11:50.000, 1578579110000
44, -153906.50, -79606.74, -170829.81, -159604.91, -132416.95, -63620.46, -144748.86, 176026.80, 0.000, 0.000, 0.000, 16:11:50.000, 1578579110000
45, -187489.98, -186308.36, -187500.02, 187500.00, -187500.02, 187500.00, -187500.02, -187500.02, 0.000, 0.000, 0.000, 16:11:50.000, 1578579110000
46, -154120.56, -79829.37, -170820.39, -160040.67, -132672.53, -63800.19, -145105.22, 176167.39, 0.000, 0.000, 0.000, 16:11:50.000, 1578579110000
47, -187500.02, -186394.52, -187500.02, 187500.00, -187500.02, 187500.00, -187500.02, -187500.02, 0.000, 0.000, 0.000, 16:11:50.000, 1578579110000
48, -154334.67, -80050.67, -170803.58, -160477.58, -132926.45, -63976.43, -145461.73, 176308.50, 0.000, 0.000, 0.000, 16:11:50.000, 1578579110000
49, -187500.02, -186479.64, -187500.02, 187500.00, -187500.02, 187500.00, -187500.02, -187500.02, 0.000, 0.000, 0.000, 16:11:50.000, 1578579110000
50, -154549.55, -80273.29, -170793.19, -160909.73, -133177.55, -64151.49, -145815.98, 176450.92, 0.000, 0.000, 0.000, 16:11:50.001, 1578579110001
51, -187500.02, -186565.94, -187500.02, 187500.00, -187500.02, 187500.00, -187500.02, -187500.02, 0.000, 0.000, 0.000, 16:11:50.001, 1578579110001
52, -154763.83, -80496.12, -170782.19, -161342.78, -133429.19, -64328.86, -146169.55, 176594.89, 0.000, 0.000, 0.000, 16:11:50.001, 1578579110001
53, -187500.02, -186655.36, -187500.02, 187500.00, -187500.02, 187500.00, -187500.02, -187500.02, -0.016, -0.010, 0.980, 16:11:50.001, 1578579110001
54, -154977.42, -80722.45, -170771.55, -161781.08, -133681.94, -64508.25, -146527.19, 176733.73, 0.000, 0.000, 0.000, 16:11:50.001, 1578579110001
55, -187500.02, -186743.39, -187500.02, 187500.00, -187500.02, 187500.00, -187500.02, -187500.02, 0.000, 0.000, 0.000, 16:11:50.001, 1578579110001
56, -155189.72, -80946.23, -170754.78, -162219.23, -133933.38, -64687.71, -146880.34, 176872.41, 0.000, 0.000, 0.000, 16:11:50.001, 1578579110001
57, -187500.02, -186831.39, -187500.02, 187500.00, -187500.02, 187500.00, -187500.02, -187500.02, 0.000, 0.000, 0.000, 16:11:50.002, 1578579110002
58, -155402.17, -81169.02, -170743.14, -162653.50, -134182.30, -64862.93, -147231.34, 177014.03, 0.000, 0.000, 0.000, 16:11:50.002, 1578579110002
59, -187500.02, -186919.34, -187500.02, 187500.00, -187500.02, 187500.00, -187500.02, -187500.02, 0.000, 0.000, 0.000, 16:11:50.002, 1578579110002
60, -155615.30, -81390.70, -170731.05, -163088.98, -134436.47, -65040.42, -147584.67, 177153.84, 0.000, 0.000, 0.000, 16:11:50.002, 1578579110002
61, -187500.02, -187009.47, -187500.02, 187500.00, -187500.02, 187500.00, -187500.02, -187500.02, 0.000, 0.000, 0.000, 16:11:50.002, 1578579110002
62, -155831.91, -81610.59, -170718.19, -163527.33, -134689.03, -65218.57, -147937.67, 177293.66, 0.000, 0.000, 0.000, 16:11:50.003, 1578579110003
63, -187500.02, -187100.23, -187500.02, 187500.00, -187500.02, 187500.00, -187500.02, -187500.02, -0.020, -0.012, 0.982, 16:11:50.003, 1578579110003
64, -156044.20, -81830.56, -170704.42, -163965.03, -134940.14, -65395.37, -148289.72, 177433.30, 0.000, 0.000, 0.000, 16:11:50.003, 1578579110003
65, -187500.02, -187188.33, -187500.02, 187500.00, -187500.02, 187500.00, -187500.02, -187500.02, 0.000, 0.000, 0.000, 16:11:50.003, 1578579110003
66, -156257.39, -82049.90, -170694.67, -164399.52, -135189.22, -65570.78, -148640.34, 177573.50, 0.000, 0.000, 0.000, 16:11:50.003, 1578579110003
67, -187500.02, -187278.73, -187500.02, 187500.00, -187500.02, 187500.00, -187500.02, -187500.02, 0.000, 0.000, 0.000, 16:11:50.003, 1578579110003
68, -156471.89, -82270.55, -170683.33, -164837.61, -135442.30, -65746.58, -148992.03, 177714.67, 0.000, 0.000, 0.000, 16:11:50.003, 1578579110003
69, -187500.02, -187366.06, -187500.02, 187500.00, -187500.02, 187500.00, -187500.02, -187500.02, 0.000, 0.000, 0.000, 16:11:50.003, 1578579110003
70, -156686.58, -82492.87, -170669.08, -165276.42, -135694.47, -65923.41, -149343.80, 177853.36, 0.000, 0.000, 0.000, 16:11:50.004, 1578579110004
71, -187500.02, -187447.94, -187500.02, 187500.00, -187500.02, 187500.00, -187500.02, -187500.02, 0.000, 0.000, 0.000, 16:11:50.004, 1578579110004
72, -156898.00, -82711.80, -170659.66, -165712.23, -135943.81, -66096.01, -149688.95, 177995.05, 0.000, 0.000, 0.000, 16:11:50.004, 1578579110004
73, -187500.02, -187500.02, -187500.02, 187500.00, -187500.02, 187500.00, -187500.02, -187500.02, -0.016, -0.012, 0.982, 16:11:50.004, 1578579110004
74, -157112.27, -82929.87, -170645.73, -166147.55, -136193.42, -66269.86, -150037.48, 178136.45, 0.000, 0.000, 0.000, 16:11:50.004, 1578579110004
75, -187500.02, -187500.02, -187500.02, 187500.00, -187500.02, 187500.00, -187500.02, -187500.02, 0.000, 0.000, 0.000, 16:11:50.004, 1578579110004
76, -157327.33, -83152.33, -170634.78, -166586.63, -136446.80, -66446.98, -150391.45, 178273.59, 0.000, 0.000, 0.000, 16:11:50.005, 1578579110005
77, -187500.02, -187500.02, -187500.02, 187500.00, -187500.02, 187500.00, -187500.02, -187500.02, 0.000, 0.000, 0.000, 16:11:50.005, 1578579110005
78, -157541.17, -83371.71, -170621.30, -167025.13, -136700.25, -66624.06, -150744.88, 178411.33, 0.000, 0.000, 0.000, 16:11:50.005, 1578579110005
79, -187500.02, -187500.02, -187500.02, 187500.00, -187500.02, 187500.00, -187500.02, -187500.02, 0.000, 0.000, 0.000, 16:11:50.005, 1578579110005
80, -157754.22, -83590.85, -170610.45, -167463.91, -136948.80, -66799.30, -151095.64, 178551.50, 0.000, 0.000, 0.000, 16:11:50.005, 1578579110005
81, -187500.02, -187500.02, -187500.02, 187500.00, -187500.02, 187500.00, -187500.02, -187500.02, 0.000, 0.000, 0.000, 16:11:50.005, 1578579110005
82, -157965.94, -83809.52, -170596.55, -167902.30, -137195.94, -66974.66, -151443.72, 178691.84, -0.018, -0.014, 0.978, 16:11:50.005, 1578579110005
83, -187500.02, -187500.02, -187500.02, 187500.00, -187500.02, 187500.00, -187500.02, -187500.02, 0.000, 0.000, 0.000, 16:11:50.005, 1578579110005
84, -158182.06, -84032.16, -170581.09, -168338.56, -137446.38, -67151.41, -151795.09, 178833.17, 0.000, 0.000, 0.000, 16:11:50.005, 1578579110005
85, -187500.02, -187500.02, -187500.02, 187500.00, -187500.02, 187500.00, -187500.02, -187500.02, 0.000, 0.000, 0.000, 16:11:50.005, 1578579110005
86, -158398.47, -84253.76, -170570.27, -168775.41, -137697.92, -67326.29, -152148.19, 178973.39, 0.000, 0.000, 0.000, 16:11:50.005, 1578579110005
87, -187500.02, -187500.02, -187500.02, 187500.00, -187500.02, 187500.00, -187500.02, -187500.02, 0.000, 0.000, 0.000, 16:11:50.006, 1578579110006
88, -158610.39, -84471.15, -170556.97, -169209.81, -137948.75, -67499.12, -152496.42, 179114.27, 0.000, 0.000, 0.000, 16:11:50.006, 1578579110006
89, -187500.02, -187500.02, -187500.02, 187500.00, -187500.02, 187500.00, -187500.02, -187500.02, 0.000, 0.000, 0.000, 16:11:50.006, 1578579110006
90, -158821.59, -84692.05, -170545.39, -169644.45, -138201.53, -67673.97, -152845.77, 179251.22, 0.000, 0.000, 0.000, 16:11:50.006, 1578579110006
91, -187500.02, -187500.02, -187500.02, 187500.00, -187500.02, 187500.00, -187500.02, -187500.02, 0.000, 0.000, 0.000, 16:11:50.006, 1578579110006
92, -159035.92, -84913.98, -170532.86, -170080.50, -138455.16, -67850.15, -153195.78, 179390.48, -0.016, -0.012, 0.976, 16:11:50.006, 1578579110006
93, -187500.02, -187500.02, -187500.02, 187500.00, -187500.02, 187500.00, -187500.02, -187500.02, 0.000, 0.000, 0.000, 16:11:50.006, 1578579110006
94, -159254.91, -85141.39, -170520.67, -170669.20, -138709.56, -68031.51, -153552.50, 179527.70, 0.000, 0.000, 0.000, 16:11:50.006, 1578579110006
95, -187500.02, -187500.02, -187500.02, 187500.00, -187500.02, 187500.00, -187500.02, -187500.02, 0.000, 0.000, 0.000, 16:11:50.006, 1578579110006
96, -159499.89, -85394.05, -170505.69, -171020.03, -138993.06, -68239.18, -153937.16, 179636.30, 0.000, 0.000, 0.000, 16:11:50.006, 1578579110006
97, -187500.02, -187500.02, -187500.02, 187500.00, -187500.02, 187500.00, -187500.02, -187500.02, 0.000, 0.000, 0.000, 16:11:50.006, 1578579110006
98, -159754.48, -85656.76, -170498.03, -170874.08, -139281.58, -68452.10, -154329.41, 179735.20, 0.000, 0.000, 0.000, 16:11:50.006, 1578579110006
99, -187500.02, -187500.02, -187500.02, 187500.00, -187500.02, 187500.00, -187500.02, -187500.02, 0.000, 0.000, 0.000, 16:11:50.006, 1578579110006
100, -160011.84, -85921.31, -170486.19, -170732.78, -139572.31, -68668.16, -154722.75, 179833.80, 0.000, 0.000, 0.000, 16:11:50.006, 1578579110006
101, -187500.02, -187500.02, -187500.02, 187500.00, -187500.02, 187500.00, -187500.02, -187500.02, 0.000, 0.000, 0.000, 16:11:50.006, 1578579110006
102, -160271.50, -86187.85, -170475.52, -170591.56, -139865.59, -68884.70, -155115.95, 179929.56, -0.016, -0.012, 0.978, 16:11:50.006, 1578579110006
103, -187500.02, -187500.02, -187500.02, 187500.00, -187500.02, 187500.00, -187500.02, -187500.02, 0.000, 0.000, 0.000, 16:11:50.007, 1578579110007
104, -160525.73, -86451.67, -170466.06, -170450.39, -140156.03, -69097.91, -155509.23, 180028.16, 0.000, 0.000, 0.000, 16:11:50.476, 1578579110476
105, -187500.02, -187500.02, -187500.02, 187500.00, -187500.02, 187500.00, -187500.02, -187500.02, 0.000, 0.000, 0.000, 16:11:50.476, 1578579110476
106, -160782.38, -86715.71, -170458.94, -170307.64, -140444.81, -69309.00, -155900.97, 180127.86, 0.000, 0.000, 0.000, 16:11:50.476, 1578579110476
107, -187500.02, -187500.02, -187500.02, 187500.00, -187500.02, 187500.00, -187500.02, -187500.02, 0.000, 0.000, 0.000, 16:11:50.476, 1578579110476
108, -161040.84, -86979.17, -170447.84, -170167.47, -140736.03, -69520.74, -156293.06, 180223.39, 0.000, 0.000, 0.000, 16:11:50.476, 1578579110476
109, -187500.02, -187500.02, -187500.02, 187500.00, -187500.02, 187500.00, -187500.02, -187500.02, 0.000, 0.000, 0.000, 16:11:50.477, 1578579110477
110, -161300.11, -87244.27, -170433.23, -170016.45, -141027.98, -69735.70, -156686.02, 180318.28, 0.000, 0.000, 0.000, 16:11:50.477, 1578579110477
111, -187500.02, -187500.02, -187500.02, 187500.00, -187500.02, 187500.00, -187500.02, -187500.02, 0.000, 0.000, 0.000, 16:11:50.477, 1578579110477
112, -161540.48, -87492.88, -170434.19, -169639.92, -141306.05, -69934.11, -157060.88, 180431.05, -0.012, -0.016, 0.974, 16:11:50.477, 1578579110477
113, -187500.02, -187500.02, -187500.02, 187500.00, -187500.02, 187500.00, -187500.02, -187500.02, 0.000, 0.000, 0.000, 16:11:50.477, 1578579110477
114, -161755.55, -87712.87, -170424.38, -169946.47, -141557.81, -70109.41, -157410.77, 180569.75, 0.000, 0.000, 0.000, 16:11:50.477, 1578579110477
115, -187500.02, -187500.02, -187500.02, 187500.00, -187500.02, 187500.00, -187500.02, -187500.02, 0.000, 0.000, 0.000, 16:11:50.477, 1578579110477
116, -161974.53, -87938.13, -170408.36, -170536.61, -141813.56, -70287.88, -157765.72, 180704.39, 0.000, 0.000, 0.000, 16:11:50.477, 1578579110477
117, -187500.02, -187500.02, -187500.02, 187500.00, -187500.02, 187500.00, -187500.02, -187500.02, 0.000, 0.000, 0.000, 16:11:50.477, 1578579110477
118, -162224.91, -88191.95, -170396.17, -170907.09, -142094.34, -70490.98, -158150.97, 180809.52, 0.000, 0.000, 0.000, 16:11:50.477, 1578579110477
119, -187500.02, -187500.02, -187500.02, 187500.00, -187500.02, 187500.00, -187500.02, -187500.02, 0.000, 0.000, 0.000, 16:11:50.477, 1578579110477
120, -162483.59, -88454.05, -170388.06, -170766.86, -142384.03, -70701.67, -158544.31, 180907.80, 0.000, 0.000, 0.000, 16:11:50.477, 1578579110477
121, -187500.02, -187500.02, -187500.02, 187500.00, -187500.02, 187500.00, -187500.02, -187500.02, 0.000, 0.000, 0.000, 16:11:50.477, 1578579110477
122, -162741.09, -88716.44, -170378.78, -170626.75, -142674.64, -70912.52, -158936.44, 181005.78, -0.016, -0.014, 0.972, 16:11:50.477, 1578579110477
123, -187500.02, -187500.02, -187500.02, 187500.00, -187500.02, 187500.00, -187500.02, -187500.02, 0.000, 0.000, 0.000, 16:11:50.477, 1578579110477
124, -163003.53, -88981.35, -170366.53, -170488.47, -142965.42, -71128.81, -159330.42, 181100.69, 0.000, 0.000, 0.000, 16:11:50.477, 1578579110477
125, -187500.02, -187500.02, -187500.02, 187500.00, -187500.02, 187500.00, -187500.02, -187500.02, 0.000, 0.000, 0.000, 16:11:50.477, 1578579110477
126, -163268.61, -89249.84, -170360.59, -170350.53, -143255.23, -71343.21, -159725.72, 181194.33, 0.000, 0.000, 0.000, 16:11:50.477, 1578579110477
127, -187500.02, -187500.02, -187500.02, 187500.00, -187500.02, 187500.00, -187500.02, -187500.02, 0.000, 0.000, 0.000, 16:11:50.477, 1578579110477
128, -163529.98, -89515.58, -170350.55, -170212.00, -143543.61, -71555.73, -160119.98, 181290.55, 0.000, 0.000, 0.000, 16:11:50.478, 1578579110478
129, -187500.02, -187500.02, -187500.02, 187500.00, -187500.02, 187500.00, -187500.02, -187500.02, 0.000, 0.000, 0.000, 16:11:50.478, 1578579110478
130, -163793.83, -89779.60, -170340.27, -170074.34, -143831.09, -71769.35, -160513.55, 181387.50, 0.000, 0.000, 0.000, 16:11:50.478, 1578579110478
131, -187500.02, -187500.02, -187500.02, 187500.00, -187500.02, 187500.00, -187500.02, -187500.02, -0.012, -0.014, 0.968, 16:11:50.478, 1578579110478
132, -164058.83, -90042.79, -170329.00, -169938.77, -144120.94, -71983.57, -160910.42, 181481.23, 0.000, 0.000, 0.000, 16:11:50.478, 1578579110478
133, -187500.02, -187500.02, -187500.02, 187500.00, -187500.02, 187500.00, -187500.02, -187500.02, 0.000, 0.000, 0.000, 16:11:50.478, 1578579110478
134, -164317.53, -90300.30, -170322.13, -169592.56, -144403.89, -72190.61, -161299.70, 181582.86, 0.000, 0.000, 0.000, 16:11:50.478, 1578579110478
135, -187500.02, -187500.02, -187500.02, 187500.00, -187500.02, 187500.00, -187500.02, -187500.02, 0.000, 0.000, 0.000, 16:11:50.478, 1578579110478
136, -164543.13, -90525.68, -170319.27, -169702.11, -144657.05, -72367.55, -161654.19, 181715.61, 0.000, 0.000, 0.000, 16:11:50.478, 1578579110478
137, -187500.02, -187500.02, -187500.02, 187500.00, -187500.02, 187500.00, -187500.02, -187500.02, 0.000, 0.000, 0.000, 16:11:50.478, 1578579110478
138, -164765.66, -90745.15, -170304.11, -170174.36, -144906.84, -72540.23, -162005.70, 181850.97, 0.000, 0.000, 0.000, 16:11:50.478, 1578579110478
139, -187500.02, -187500.02, -187500.02, 187500.00, -187500.02, 187500.00, -187500.02, -187500.02, 0.000, 0.000, 0.000, 16:11:50.478, 1578579110478
140, -165011.81, -90987.53, -170291.77, -170812.41, -145176.67, -72732.66, -162378.47, 181965.25, 0.000, 0.000, 0.000, 16:11:50.478, 1578579110478
141, -187500.02, -187500.02, -187500.02, 187500.00, -187500.02, 187500.00, -187500.02, -187500.02, -0.018, -0.012, 0.970, 16:11:50.478, 1578579110478
142, -165281.27, -91248.80, -170280.83, -170738.84, -145466.33, -72944.58, -162774.09, 182059.17, 0.000, 0.000, 0.000, 16:11:50.478, 1578579110478
143, -187500.02, -187500.02, -187500.02, 187500.00, -187500.02, 187500.00, -187500.02, -187500.02, 0.000, 0.000, 0.000, 16:11:50.479, 1578579110479
144, -165548.72, -91509.31, -170272.25, -170598.59, -145753.89, -73155.63, -163170.92, 182154.34, 0.000, 0.000, 0.000, 16:11:50.479, 1578579110479
145, -187500.02, -187500.02, -187500.02, 187500.00, -187500.02, 187500.00, -187500.02, -187500.02, 0.000, 0.000, 0.000, 16:11:50.479, 1578579110479
146, -165815.16, -91767.59, -170264.11, -170459.81, -146041.88, -73364.77, -163568.09, 182247.95, 0.000, 0.000, 0.000, 16:11:50.479, 1578579110479
147, -187500.02, -187500.02, -187500.02, 187500.00, -187500.02, 187500.00, -187500.02, -187500.02, 0.000, 0.000, 0.000, 16:11:50.479, 1578579110479
148, -166084.00, -92028.14, -170252.27, -170322.88, -146332.75, -73579.15, -163964.56, 182341.17, 0.000, 0.000, 0.000, 16:11:50.479, 1578579110479
149, -187500.02, -187500.02, -187500.02, 187500.00, -187500.02, 187500.00, -187500.02, -187500.02, 0.000, 0.000, 0.000, 16:11:50.479, 1578579110479
150, -166352.16, -92290.30, -170247.64, -170185.89, -146622.05, -73792.65, -164359.61, 182430.80, 0.000, 0.000, 0.000, 16:11:50.479, 1578579110479
151, -187500.02, -187500.02, -187500.02, 187500.00, -187500.02, 187500.00, -187500.02, -187500.02, -0.016, -0.016, 0.970, 16:11:50.479, 1578579110479
152, -166621.45, -92549.23, -170236.56, -170046.95, -146907.73, -73999.91, -164754.14, 182525.14, 0.000, 0.000, 0.000, 16:11:50.479, 1578579110479
153, -187500.02, -187500.02, -187500.02, 187500.00, -187500.02, 187500.00, -187500.02, -187500.02, 0.000, 0.000, 0.000, 16:11:50.479, 1578579110479
154, -166887.11, -92807.68, -170223.89, -169908.09, -147194.19, -74207.03, -165148.34, 182621.91, 0.000, 0.000, 0.000, 16:11:50.479, 1578579110479
155, -187500.02, -187500.02, -187500.02, 187500.00, -187500.02, 187500.00, -187500.02, -187500.02, 0.000, 0.000, 0.000, 16:11:50.479, 1578579110479
156, -167157.97, -93068.59, -170211.97, -169723.94, -147482.23, -74419.08, -165548.86, 182716.30, 0.000, 0.000, 0.000, 16:11:50.479, 1578579110479
157, -187500.02, -187500.02, -187500.02, 187500.00, -187500.02, 187500.00, -187500.02, -187500.02, 0.000, 0.000, 0.000, 16:11:50.479, 1578579110479
158, -167408.81, -93304.91, -170211.61, -169416.19, -147750.09, -74610.86, -165926.66, 182830.72, 0.000, 0.000, 0.000, 16:11:50.479, 1578579110479
159, -187500.02, -187500.02, -187500.02, 187500.00, -187500.02, 187500.00, -187500.02, -187500.02, 0.000, 0.000, 0.000, 16:11:50.479, 1578579110479
160, -167637.58, -93520.43, -170200.91, -169812.09, -147996.17, -74782.92, -166280.23, 182966.28, 0.000, 0.000, 0.000, 16:11:50.480, 1578579110480
161, -187500.02, -187500.02, -187500.02, 187500.00, -187500.02, 187500.00, -187500.02, -187500.02, -0.014, -0.016, 0.974, 16:11:50.480, 1578579110480
162, -167870.73, -93741.83, -170186.52, -170440.53, -148244.19, -74957.29, -166639.56, 183096.20, 0.000, 0.000, 0.000, 16:11:50.480, 1578579110480
163, -187500.02, -187500.02, -187500.02, 187500.00, -187500.02, 187500.00, -187500.02, -187500.02, 0.000, 0.000, 0.000, 16:11:50.480, 1578579110480
164, -168136.52, -93995.50, -170172.11, -170698.23, -148524.23, -75159.52, -167035.39, 183196.23, 0.000, 0.000, 0.000, 16:11:50.480, 1578579110480
165, -187500.02, -187500.02, -187500.02, 187500.00, -187500.02, 187500.00, -187500.02, -187500.02, 0.000, 0.000, 0.000, 16:11:50.480, 1578579110480
166, -168410.39, -94257.41, -170161.48, -170559.42, -148812.50, -75370.77, -167437.20, 183289.63, 0.000, 0.000, 0.000, 16:11:50.480, 1578579110480
167, -187500.02, -187500.02, -187500.02, 187500.00, -187500.02, 187500.00, -187500.02, -187500.02, 0.000, 0.000, 0.000, 16:11:50.480, 1578579110480
168, -168680.42, -94515.55, -170153.63, -170419.22, -149096.53, -75578.42, -167833.86, 183382.63, 0.000, 0.000, 0.000, 16:11:50.481, 1578579110481
169, -187500.02, -187500.02, -187500.02, 187500.00, -187500.02, 187500.00, -187500.02, -187500.02, 0.000, 0.000, 0.000, 16:11:50.481, 1578579110481
170, -168954.58, -94772.84, -170143.02, -170279.70, -149381.06, -75786.27, -168231.89, 183478.73, -0.016, -0.014, 0.976, 16:11:50.481, 1578579110481
171, -187500.02, -187500.02, -187500.02, 187500.00, -187500.02, 187500.00, -187500.02, -187500.02, 0.000, 0.000, 0.000, 16:11:50.481, 1578579110481
172, -169229.55, -95030.72, -170134.41, -170141.88, -149666.73, -75997.09, -168632.84, 183572.86, 0.000, 0.000, 0.000, 16:11:50.481, 1578579110481
173, -187500.02, -187500.02, -187500.02, 187500.00, -187500.02, 187500.00, -187500.02, -187500.02, 0.000, 0.000, 0.000, 16:11:50.481, 1578579110481
174, -169494.91, -95289.71, -170123.88, -170001.42, -149951.59, -76208.72, -169033.98, 183665.02, 0.000, 0.000, 0.000, 16:11:50.482, 1578579110482
175, -187500.02, -187500.02, -187500.02, 187500.00, -187500.02, 187500.00, -187500.02, -187500.02, 0.000, 0.000, 0.000, 16:11:50.482, 1578579110482
176, -169459.25, -95560.50, -170117.09, -169864.63, -150239.70, -76420.21, -169435.19, 183754.59, 0.000, 0.000, 0.000, 16:11:50.482, 1578579110482
177, -187500.02, -187500.02, -187500.02, 187500.00, -187500.02, 187500.00, -187500.02, -187500.02, 0.000, 0.000, 0.000, 16:11:50.482, 1578579110482
178, -169496.63, -95852.70, -170102.06, -169731.86, -150530.17, -76635.23, -169845.63, 183837.45, 0.000, 0.000, 0.000, 16:11:50.482, 1578579110482
179, -187500.02, -187500.02, -187500.02, 187500.00, -187500.02, 187500.00, -187500.02, -187500.02, 0.000, 0.000, 0.000, 16:11:50.482, 1578579110482
180, -169571.86, -96143.45, -170097.08, -169429.70, -150822.17, -76848.23, -170258.00, 183922.50, -0.016, -0.020, 0.974, 16:11:50.482, 1578579110482
181, -187500.02, -187500.02, -187500.02, 187500.00, -187500.02, 187500.00, -187500.02, -187500.02, 0.000, 0.000, 0.000, 16:11:50.482, 1578579110482
182, -169631.31, -96417.22, -170092.30, -169454.81, -151096.88, -77046.41, -170539.17, 184018.95, 0.000, 0.000, 0.000, 16:11:50.482, 1578579110482
183, -187500.02, -187500.02, -187500.02, 187500.00, -187500.02, 187500.00, -187500.02, -187500.02, 0.000, 0.000, 0.000, 16:11:50.482, 1578579110482
184, -169704.89, -96706.77, -170082.17, -169991.06, -151393.61, -77264.28, -170442.89, 184080.88, 0.000, 0.000, 0.000, 16:11:50.482, 1578579110482
185, -187500.02, -187500.02, -187500.02, 187500.00, -187500.02, 187500.00, -187500.02, -187500.02, 0.000, 0.000, 0.000, 16:11:50.482, 1578579110482
186, -169790.14, -97009.25, -170064.88, -170631.02, -151697.28, -77492.24, -170535.36, 184142.30, 0.000, 0.000, 0.000, 16:11:50.482, 1578579110482
187, -187500.02, -187500.02, -187500.02, 187500.00, -187500.02, 187500.00, -187500.02, -187500.02, 0.000, 0.000, 0.000, 16:11:50.482, 1578579110482
188, -169913.58, -97351.12, -170057.72, -170579.28, -152037.48, -77756.69, -170466.22, 184152.58, 0.000, 0.000, 0.000, 16:11:50.482, 1578579110482
189, -187500.02, -187500.02, -187500.02, 187500.00, -187500.02, 187500.00, -187500.02, -187500.02, 0.000, 0.000, 0.000, 16:11:50.482, 1578579110482
190, -170028.42, -97681.75, -170054.28, -170477.86, -152368.50, -78012.86, -170431.28, 184177.05, -0.018, -0.016, 0.974, 16:11:50.483, 1578579110483
191, -187500.02, -187500.02, -187500.02, 187500.00, -187500.02, 187500.00, -187500.02, -187500.02, 0.000, 0.000, 0.000, 16:11:50.483, 1578579110483
192, -170138.45, -98008.69, -170048.95, -170374.20, -152697.77, -78265.55, -170500.63, 184205.66, 0.000, 0.000, 0.000, 16:11:50.483, 1578579110483
193, -187500.02, -187500.02, -187500.02, 187500.00, -187500.02, 187500.00, -187500.02, -187500.02, 0.000, 0.000, 0.000, 16:11:50.483, 1578579110483
194, -170236.69, -98345.93, -170044.36, -170277.02, -153035.59, -78527.60, -170401.61, 184221.63, 0.000, 0.000, 0.000, 16:11:50.483, 1578579110483
195, -187500.02, -187500.02, -187500.02, 187500.00, -187500.02, 187500.00, -187500.02, -187500.02, 0.000, 0.000, 0.000, 16:11:50.483, 1578579110483
196, -170133.77, -98683.04, -170036.06, -170174.44, -153364.50, -78780.48, -170510.33, 184256.05, 0.000, 0.000, 0.000, 16:11:50.483, 1578579110483
197, -187500.02, -187500.02, -187500.02, 187500.00, -187500.02, 187500.00, -187500.02, -187500.02, 0.000, 0.000, 0.000, 16:11:50.483, 1578579110483
198, -170115.98, -99045.16, -170031.02, -170087.41, -153712.81, -79049.76, -170445.80, 184257.42, 0.000, 0.000, 0.000, 16:11:50.483, 1578579110483
199, -187500.02, -187500.02, -187500.02, 187500.00, -187500.02, 187500.00, -187500.02, -187500.02, 0.000, 0.000, 0.000, 16:11:50.483, 1578579110483
200, -170128.58, -99395.92, -170027.50, -169991.45, -154050.55, -79309.20, -170407.92, 184276.64, -0.016, -0.012, 0.968, 16:11:50.483, 1578579110483
201, -187500.02, -187500.02, -187500.02, 187500.00, -187500.02, 187500.00, -187500.02, -187500.02, 0.000, 0.000, 0.000, 16:11:50.483, 1578579110483
202, -170095.81, -99741.91, -170018.20, -169892.75, -154384.70, -79563.87, -170499.38, 184302.05, 0.000, 0.000, 0.000, 16:11:50.483, 1578579110483
203, -187500.02, -187500.02, -187500.02, 187500.00, -187500.02, 187500.00, -187500.02, -187500.02, 0.000, 0.000, 0.000, 16:11:50.483, 1578579110483
204, -170094.95, -100105.21, -170014.56, -169807.67, -154735.63, -79836.85, -170401.20, 184302.55, 0.000, 0.000, 0.000, 16:11:50.483, 1578579110483
205, -187500.02, -187500.02, -187500.02, 187500.00, -187500.02, 187500.00, -187500.02, -187500.02, 0.000, 0.000, 0.000, 16:11:50.483, 1578579110483
206, -170106.53, -100453.07, -170009.11, -169710.20, -155069.38, -80095.28, -170437.83, 184326.83, 0.000, 0.000, 0.000, 16:11:50.484, 1578579110484
207, -187500.02, -187500.02, -187500.02, 187500.00, -187500.02, 187500.00, -187500.02, -187500.02, 0.000, 0.000, 0.000, 16:11:50.484, 1578579110484
208, -170086.33, -100808.64, -170001.95, -169617.95, -155411.89, -80357.98, -170450.39, 184341.72, 0.000, 0.000, 0.000, 16:11:50.484, 1578579110484
209, -187500.02, -187500.02, -187500.02, 187500.00, -187500.02, 187500.00, -187500.02, -187500.02, -0.012, -0.018, 0.974, 16:11:50.484, 1578579110484
210, -170105.39, -101163.34, -169996.09, -169416.83, -155754.27, -80620.23, -170363.06, 184354.50, 0.000, 0.000, 0.000, 16:11:50.484, 1578579110484
211, -187500.02, -187500.02, -187500.02, 187500.00, -187500.02, 187500.00, -187500.02, -187500.02, 0.000, 0.000, 0.000, 16:11:50.484, 1578579110484
212, -170132.78, -101471.75, -169999.77, -169293.92, -156053.89, -80841.81, -170452.88, 184420.48, 0.000, 0.000, 0.000, 16:11:50.484, 1578579110484
213, -187500.02, -187500.02, -187500.02, 187500.00, -187500.02, 187500.00, -187500.02, -187500.02, 0.000, 0.000, 0.000, 16:11:50.484, 1578579110484
214, -170127.70, -101775.29, -169993.02, -169811.84, -156352.75, -81061.99, -170346.94, 184476.45, 0.000, 0.000, 0.000, 16:11:50.484, 1578579110484
215, -187500.02, -187500.02, -187500.02, 187500.00, -187500.02, 187500.00, -187500.02, -187500.02, 0.000, 0.000, 0.000, 16:11:50.484, 1578579110484
216, -170073.03, -102084.46, -169976.66, -170492.22, -156656.27, -81286.74, -170458.84, 184536.31, 0.000, 0.000, 0.000, 16:11:50.484, 1578579110484
217, -187500.02, -187500.02, -187500.02, 187500.00, -187500.02, 187500.00, -187500.02, -187500.02, 0.000, 0.000, 0.000, 16:11:50.484, 1578579110484
218, -170047.28, -102443.96, -169967.80, -170472.92, -157002.42, -81552.77, -170394.27, 184542.44, 0.000, 0.000, 0.000, 16:11:50.484, 1578579110484
219, -187500.02, -187500.02, -187500.02, 187500.00, -187500.02, 187500.00, -187500.02, -187500.02, -0.018, -0.018, 0.976, 16:11:50.484, 1578579110484
220, -170061.72, -102805.82, -169964.58, -170381.22, -157344.52, -81815.72, -170334.72, 184556.09, 0.000, 0.000, 0.000, 16:11:50.484, 1578579110484
221, -187500.02, -187500.02, -187500.02, 187500.00, -187500.02, 187500.00, -187500.02, -187500.02, 0.000, 0.000, 0.000, 16:11:50.484, 1578579110484
222, -170033.17, -103157.52, -169957.31, -170282.33, -157679.27, -82069.39, -170442.23, 184584.31, 0.000, 0.000, 0.000, 16:11:50.485, 1578579110485
223, -187500.02, -187500.02, -187500.02, 187500.00, -187500.02, 187500.00, -187500.02, -187500.02, 0.000, 0.000, 0.000, 16:11:50.488, 1578579110488
224, -170035.73, -103520.31, -169952.73, -170193.80, -158029.55, -82336.65, -170347.63, 184588.48, 0.000, 0.000, 0.000, 16:11:50.488, 1578579110488
225, -187500.02, -187500.02, -187500.02, 187500.00, -187500.02, 187500.00, -187500.02, -187500.02, 0.000, 0.000, 0.000, 16:11:50.953, 1578579110953
226, -170040.08, -103870.41, -169947.77, -170095.56, -158366.44, -82592.09, -170369.06, 184612.80, 0.000, 0.000, 0.000, 16:11:50.953, 1578579110953
227, -187500.02, -187500.02, -187500.02, 187500.00, -187500.02, 187500.00, -187500.02, -187500.02, 0.000, 0.000, 0.000, 16:11:50.953, 1578579110953
228, -170017.28, -104227.57, -169939.95, -170004.95, -158712.02, -82855.50, -170381.03, 184623.23, 0.000, 0.000, 0.000, 16:11:50.953, 1578579110953
229, -187500.02, -187500.02, -187500.02, 187500.00, -187500.02, 187500.00, -187500.02, -187500.02, -0.020, -0.014, 0.976, 16:11:50.953, 1578579110953
230, -170026.31, -104584.13, -169936.48, -169914.27, -159058.00, -83121.02, -170303.08, 184636.06, 0.000, 0.000, 0.000, 16:11:50.953, 1578579110953
231, -187500.02, -187500.02, -187500.02, 187500.00, -187500.02, 187500.00, -187500.02, -187500.02, 0.000, 0.000, 0.000, 16:11:50.953, 1578579110953
232, -170016.86, -104927.89, -169930.30, -169814.00, -159390.64, -83374.24, -170403.09, 184665.97, 0.000, 0.000, 0.000, 16:11:50.953, 1578579110953
233, -187500.02, -187500.02, -187500.02, 187500.00, -187500.02, 187500.00, -187500.02, -187500.02, 0.000, 0.000, 0.000, 16:11:50.953, 1578579110953
234, -169998.41, -105288.11, -169924.02, -169726.95, -159737.09, -83639.40, -170316.98, 184673.03, 0.000, 0.000, 0.000, 16:11:50.953, 1578579110953
235, -187500.02, -187500.02, -187500.02, 187500.00, -187500.02, 187500.00, -187500.02, -187500.02, 0.000, 0.000, 0.000, 16:11:50.953, 1578579110953
236, -170014.06, -105639.73, -169918.84, -169631.50, -160073.91, -83896.04, -170319.77, 184696.39, 0.000, 0.000, 0.000, 16:11:50.953, 1578579110953
237, -187500.02, -187500.02, -187500.02, 187500.00, -187500.02, 187500.00, -187500.02, -187500.02, 0.000, 0.000, 0.000, 16:11:50.953, 1578579110953
238, -169995.36, -105993.98, -169913.91, -169537.75, -160414.16, -84154.34, -170375.89, 184713.58, 0.000, 0.000, 0.000, 16:11:50.957, 1578579110957
239, -187500.02, -187500.02, -187500.02, 187500.00, -187500.02, 187500.00, -187500.02, -187500.02, -0.026, -0.010, 0.972, 16:11:50.958, 1578579110958
240, -169988.16, -106355.77, -169902.78, -169419.17, -160760.84, -84420.34, -170276.56, 184719.30, 0.000, 0.000, 0.000, 16:11:50.958, 1578579110958
241, -187500.02, -187500.02, -187500.02, 187500.00, -187500.02, 187500.00, -187500.02, -187500.02, 0.000, 0.000, 0.000, 16:11:50.958, 1578579110958
242, -170045.19, -106671.26, -169909.00, -169118.05, -161068.61, -84646.16, -170349.75, 184777.33, 0.000, 0.000, 0.000, 16:11:50.958, 1578579110958
243, -187500.02, -187500.02, -187500.02, 187500.00, -187500.02, 187500.00, -187500.02, -187500.02, 0.000, 0.000, 0.000, 16:11:50.958, 1578579110958
244, -170024.64, -106976.77, -169898.33, -169546.83, -161371.75, -84866.89, -170292.34, 184832.42, 0.000, 0.000, 0.000, 16:11:50.958, 1578579110958
245, -187500.02, -187500.02, -187500.02, 187500.00, -187500.02, 187500.00, -187500.02, -187500.02, 0.000, 0.000, 0.000, 16:11:50.958, 1578579110958
246, -170001.55, -107281.24, -169887.94, -170252.98, -161671.64, -85084.62, -170316.52, 184896.59, 0.000, 0.000, 0.000, 16:11:50.958, 1578579110958
247, -187500.02, -187500.02, -187500.02, 187500.00, -187500.02, 187500.00, -187500.02, -187500.02, 0.000, 0.000, 0.000, 16:11:50.958, 1578579110958
248, -169955.16, -107629.52, -169876.69, -170428.33, -162011.63, -85341.33, -170331.70, 184919.27, 0.000, 0.000, 0.000, 16:11:50.958, 1578579110958
249, -187500.02, -187500.02, -187500.02, 187500.00, -187500.02, 187500.00, -187500.02, -187500.02, -0.024, -0.008, 0.966, 16:11:50.958, 1578579110958
250, -169960.80, -107984.70, -169874.23, -170337.78, -162358.39, -85604.97, -170236.20, 184943.73, 0.000, 0.000, 0.000, 16:11:50.958, 1578579110958
251, -187500.02, -187500.02, -187500.02, 187500.00, -187500.02, 187500.00, -187500.02, -187500.02, 0.000, 0.000, 0.000, 16:11:50.958, 1578579110958
252, -169907.11, -108349.34, -169868.89, -170255.11, -162714.61, -85876.41, -170359.58, 185601.95, 0.000, 0.000, 0.000, 16:11:50.958, 1578579110958
253, -187500.02, -187500.02, -187500.02, 187500.00, -187500.02, 187500.00, -187500.02, -187500.02, 0.000, 0.000, 0.000, 16:11:50.958, 1578579110958
254, -169879.48, -108775.99, -169863.02, -170220.53, -163125.94, -86203.21, -170354.33, 186195.05, 0.000, 0.000, 0.000, 16:11:50.958, 1578579110958
255, -187500.02, -187500.02, -187500.02, 187500.00, -187500.02, 187500.00, -187500.02, -187500.02, 0.000, 0.000, 0.000, 16:11:50.958, 1578579110958
0, -169881.50, -109203.83, -169860.41, -170186.75, -163538.30, -86531.36, -170309.38, 186685.86, 0.000, 0.000, 0.000, 16:11:50.959, 1578579110959
1, -187500.02, -187500.02, -187500.02, 187500.00, -187500.02, 187500.00, -187500.02, -187500.02, 0.000, 0.000, 0.000, 16:11:50.959, 1578579110959
2, -169883.56, -109629.13, -169861.27, -170152.52, -163952.88, -86859.34, -170263.42, 187174.00, -0.028, -0.008, 0.968, 16:11:50.959, 1578579110959
3, -187500.02, -187500.02, -187500.02, 187500.00, -187500.02, 187500.00, -187500.02, -187500.02, 0.000, 0.000, 0.000, 16:11:50.959, 1578579110959
4, -169875.17, -110057.62, -169858.28, -170119.77, -164370.00, -87189.05, -170220.05, 187500.00, 0.000, 0.000, 0.000, 16:11:50.959, 1578579110959
5, -187500.02, -187500.02, -187500.02, 187500.00, -187500.02, 187500.00, -187500.02, -187500.02, 0.000, 0.000, 0.000, 16:11:50.959, 1578579110959
6, -169895.17, -110463.77, -169857.66, -170070.95, -164765.86, -87498.49, -170330.88, 187500.00, 0.000, 0.000, 0.000, 16:11:50.959, 1578579110959
7, -187500.02, -187500.02, -187500.02, 187500.00, -187500.02, 187500.00, -187500.02, -187500.02, 0.000, 0.000, 0.000, 16:11:50.959, 1578579110959
8, -169878.28, -110882.24, -169856.52, -170033.22, -165175.58, -87821.63, -170358.86, 187500.00, 0.000, 0.000, 0.000, 16:11:50.959, 1578579110959
9, -187500.02, -187500.02, -187500.02, 187500.00, -187500.02, 187500.00, -187500.02, -187500.02, 0.000, 0.000, 0.000, 16:11:50.959, 1578579110959
10, -169874.58, -111307.98, -169854.83, -169999.86, -165592.41, -88148.86, -170315.55, 187500.00, 0.000, 0.000, 0.000, 16:11:50.959, 1578579110959
11, -187500.02, -187500.02, -187500.02, 187500.00, -187500.02, 187500.00, -187500.02, -187500.02, 0.000, 0.000, 0.000, 16:11:50.959, 1578579110959
12, -169869.55, -111736.95, -169854.44, -169967.84, -166013.22, -88479.58, -170273.44, 187500.00, -0.026, -0.010, 0.972, 16:11:50.959, 1578579110959
13, -187500.02, -187500.02, -187500.02, 187500.00, -187500.02, 187500.00, -187500.02, -187500.02, 0.000, 0.000, 0.000, 16:11:50.959, 1578579110959
14, -169872.16, -112164.47, -169853.00, -169937.58, -166433.19, -88810.02, -170230.59, 187500.00, 0.000, 0.000, 0.000, 16:11:50.959, 1578579110959
15, -187500.02, -187500.02, -187500.02, 187500.00, -187500.02, 187500.00, -187500.02, -187500.02, 0.000, 0.000, 0.000, 16:11:50.959, 1578579110959
16, -169898.69, -112570.31, -169855.69, -169889.59, -166832.88, -89121.23, -170296.02, 187500.00, 0.000, 0.000, 0.000, 16:11:50.959, 1578579110959
17, -187500.02, -187500.02, -187500.02, 187500.00, -187500.02, 187500.00, -187500.02, -187500.02, 0.000, 0.000, 0.000, 16:11:50.959, 1578579110959
18, -169877.03, -112986.01, -169854.28, -169848.84, -167243.14, -89438.85, -170366.42, 187500.00, 0.000, 0.000, 0.000, 16:11:50.959, 1578579110959
19, -187500.02, -187500.02, -187500.02, 187500.00, -187500.02, 187500.00, -187500.02, -187500.02, 0.000, 0.000, 0.000, 16:11:50.959, 1578579110959
20, -169863.81, -113413.64, -169852.31, -169817.02, -167668.20, -89767.91, -170322.98, 187500.00, 0.000, 0.000, 0.000, 16:11:50.960, 1578579110960
21, -187500.02, -187500.02, -187500.02, 187500.00, -187500.02, 187500.00, -187500.02, -187500.02, 0.000, 0.000, 0.000, 16:11:50.960, 1578579110960
22, -169866.91, -113842.21, -169851.38, -169785.16, -168093.52, -90094.78, -170281.70, 187500.00, -0.024, -0.012, 0.976, 16:11:50.960, 1578579110960
23, -187500.02, -187500.02, -187500.02, 187500.00, -187500.02, 187500.00, -187500.02, -187500.02, 0.000, 0.000, 0.000, 16:11:50.960, 1578579110960
24, -169874.75, -114269.71, -169851.75, -169753.25, -168516.80, -90423.35, -170238.08, 187500.00, 0.000, 0.000, 0.000, 16:11:50.960, 1578579110960
25, -187500.02, -187500.02, -187500.02, 187500.00, -187500.02, 187500.00, -187500.02, -187500.02, 0.000, 0.000, 0.000, 16:11:50.960, 1578579110960
26, -169877.52, -114682.77, -169849.45, -169708.67, -168926.44, -90736.68, -170283.83, 187500.00, 0.000, 0.000, 0.000, 16:11:50.960, 1578579110960
27, -187500.02, -187500.02, -187500.02, 187500.00, -187500.02, 187500.00, -187500.02, -187500.02, 0.000, 0.000, 0.000, 16:11:50.960, 1578579110960
28, -169863.69, -115101.09, -169848.28, -169668.55, -169341.70, -91057.67, -170363.00, 187500.00, 0.000, 0.000, 0.000, 16:11:50.960, 1578579110960
29, -187500.02, -187500.02, -187500.02, 187500.00, -187500.02, 187500.00, -187500.02, -187500.02, 0.000, 0.000, 0.000, 16:11:50.960, 1578579110960
30, -169862.61, -115530.17, -169847.86, -169637.95, -169748.34, -91388.44, -170322.08, 187500.00, 0.000, 0.000, 0.000, 16:11:50.960, 1578579110960
31, -187500.02, -187500.02, -187500.02, 187500.00, -187500.02, 187500.00, -187500.02, -187500.02, 0.000, 0.000, 0.000, 16:11:50.960, 1578579110960
32, -169853.58, -115966.55, -169848.70, -169614.52, -169959.31, -91742.73, -170288.59, 187500.00, -0.018, -0.014, 0.976, 16:11:50.960, 1578579110960
33, -187500.02, -187500.02, -187500.02, 187500.00, -187500.02, 187500.00, -187500.02, -187500.02, 0.000, 0.000, 0.000, 16:11:50.960, 1578579110960
34, -169846.45, -116423.73, -169844.53, -169607.56, -169981.02, -92139.37, -170270.47, 187500.00, 0.000, 0.000, 0.000, 16:11:50.960, 1578579110960
35, -187500.02, -187500.02, -187500.02, 187500.00, -187500.02, 187500.00, -187500.02, -187500.02, 0.000, 0.000, 0.000, 16:11:50.960, 1578579110960
36, -169851.64, -116888.27, -169853.98, -169607.25, -169986.64, -92551.93, -170261.59, 187500.00, 0.000, 0.000, 0.000, 16:11:50.960, 1578579110960
37, -187500.02, -187500.02, -187500.02, 187500.00, -187500.02, 187500.00, -187500.02, -187500.02, 0.000, 0.000, 0.000, 16:11:50.960, 1578579110960
38, -169862.20, -117352.80, -169856.59, -169607.94, -169989.39, -92966.18, -170252.83, 187500.00, 0.000, 0.000, 0.000, 16:11:50.960, 1578579110960
39, -187500.02, -187500.02, -187500.02, 187500.00, -187500.02, 187500.00, -187500.02, -187500.02, 0.000, 0.000, 0.000, 16:11:50.961, 1578579110961
40, -169870.13, -117817.20, -169855.97, -169607.06, -169991.47, -93380.91, -170242.19, 187500.00, 0.000, 0.000, 0.000, 16:11:50.961, 1578579110961
41, -187500.02, -187500.02, -187500.02, 187500.00, -187500.02, 187500.00, -187500.02, -187500.02, -0.018, -0.014, 0.976, 16:11:50.961, 1578579110961
42, -169877.55, -118283.73, -169854.56, -169604.97, -169994.06, -93794.58, -170231.53, 187500.00, 0.000, 0.000, 0.000, 16:11:50.961, 1578579110961
43, -187500.02, -187500.02, -187500.02, 187500.00, -187500.02, 187500.00, -187500.02, -187500.02, 0.000, 0.000, 0.000, 16:11:50.961, 1578579110961
44, -169885.88, -118748.98, -169859.34, -169603.83, -169997.53, -94207.08, -170223.97, 187500.00, 0.000, 0.000, 0.000, 16:11:50.961, 1578579110961
45, -187500.02, -187500.02, -187500.02, 187500.00, -187500.02, 187500.00, -187500.02, -187500.02, 0.000, 0.000, 0.000, 16:11:50.961, 1578579110961
46, -169878.66, -119195.95, -169862.17, -169587.95, -169993.28, -94603.69, -170375.36, 187500.00, 0.000, 0.000, 0.000, 16:11:50.961, 1578579110961
47, -187500.02, -187500.02, -187500.02, 187500.00, -187500.02, 187500.00, -187500.02, -187500.02, 0.000, 0.000, 0.000, 16:11:50.961, 1578579110961
48, -169884.03, -119659.23, -169862.55, -169584.59, -169994.52, -95015.14, -170401.05, 187500.00, 0.000, 0.000, 0.000, 16:11:50.961, 1578579110961
49, -187500.02, -187500.02, -187500.02, 187500.00, -187500.02, 187500.00, -187500.02, -187500.02, 0.000, 0.000, 0.000, 16:11:50.961, 1578579110961
50, -169892.42, -120125.94, -169869.42, -169584.20, -169998.28, -95427.59, -170390.25, 187500.00, 0.000, 0.000, 0.000, 16:11:50.961, 1578579110961
51, -187500.02, -187500.02, -187500.02, 187500.00, -187500.02, 187500.00, -187500.02, -187500.02, -0.018, -0.010, 0.976, 16:11:50.961, 1578579110961
52, -169902.27, -120591.48, -169872.06, -169584.47, -170004.45, -95842.60, -170382.30, 187500.00, 0.000, 0.000, 0.000, 16:11:50.961, 1578579110961
53, -187500.02, -187500.02, -187500.02, 187500.00, -187500.02, 187500.00, -187500.02, -187500.02, 0.000, 0.000, 0.000, 16:11:50.961, 1578579110961
54, -169912.14, -121058.81, -169874.22, -169585.34, -170011.31, -96257.76, -170374.67, 187500.00, 0.000, 0.000, 0.000, 16:11:50.961, 1578579110961
55, -187500.02, -187500.02, -187500.02, 187500.00, -187500.02, 187500.00, -187500.02, -187500.02, 0.000, 0.000, 0.000, 16:11:50.961, 1578579110961
56, -169919.98, -121525.52, -169874.08, -169584.64, -170015.23, -96671.13, -170365.13, 187500.00, 0.000, 0.000, 0.000, 16:11:50.961, 1578579110961
57, -187500.02, -187500.02, -187500.02, 187500.00, -187500.02, 187500.00, -187500.02, -187500.02, 0.000, 0.000, 0.000, 16:11:50.962, 1578579110962
58, -169928.03, -121989.02, -169874.44, -169584.00, -170018.52, -97081.94, -170354.53, 187500.00, 0.000, 0.000, 0.000, 16:11:50.962, 1578579110962
59, -187500.02, -187500.02, -187500.02, 187500.00, -187500.02, 187500.00, -187500.02, -187500.02, 0.000, 0.000, 0.000, 16:11:50.962, 1578579110962
60, -169939.14, -122454.95, -169876.89, -169584.38, -170024.95, -97496.05, -170346.30, 187500.00, 0.000, 0.000, 0.000, 16:11:50.962, 1578579110962
61, -187500.02, -187500.02, -187500.02, 187500.00, -187500.02, 187500.00, -187500.02, -187500.02, -0.016, -0.010, 0.980, 16:11:50.962, 1578579110962
62, -169948.80, -122921.18, -169878.48, -169584.64, -170030.86, -97911.30, -170338.84, 187500.00, 0.000, 0.000, 0.000, 16:11:50.962, 1578579110962
63, -187500.02, -187500.02, -187500.02, 187500.00, -187500.02, 187500.00, -187500.02, -187500.02, 0.000, 0.000, 0.000, 16:11:50.962, 1578579110962
64, -169955.97, -123385.45, -169880.25, -169583.28, -170035.91, -98322.77, -170328.13, 187500.00, 0.000, 0.000, 0.000, 16:11:50.962, 1578579110962
65, -187500.02, -187500.02, -187500.02, 187500.00, -187500.02, 187500.00, -187500.02, -187500.02, 0.000, 0.000, 0.000, 16:11:50.962, 1578579110962
66, -169962.23, -123849.58, -169888.09, -169581.86, -170040.06, -98735.30, -170318.19, 187500.00, 0.000, 0.000, 0.000, 16:11:50.962, 1578579110962
67, -187500.02, -187500.02, -187500.02, 187500.00, -187500.02, 187500.00, -187500.02, -187500.02, 0.000, 0.000, 0.000, 16:11:50.962, 1578579110962
68, -169972.73, -124316.98, -169889.97, -169583.27, -170046.67, -99150.41, -170310.98, 187500.00, 0.000, 0.000, 0.000, 16:11:50.962, 1578579110962
69, -187500.02, -187500.02, -187500.02, 187500.00, -187500.02, 187500.00, -187500.02, -187500.02, 0.000, 0.000, 0.000, 16:11:50.962, 1578579110962
70, -169983.72, -124785.65, -169892.67, -169585.41, -170053.83, -99566.02, -170304.39, 187500.00, 0.000, 0.000, 0.000, 16:11:50.962, 1578579110962
71, -187500.02, -187500.02, -187500.02, 187500.00, -187500.02, 187500.00, -187500.02, -187500.02, -0.020, -0.012, 0.974, 16:11:50.963, 1578579110963
72, -169991.31, -125251.62, -169893.02, -169584.42, -170058.48, -99978.30, -170294.84, 187500.00, 0.000, 0.000, 0.000, 16:11:50.963, 1578579110963
73, -187500.02, -187500.02, -187500.02, 187500.00, -187500.02, 187500.00, -187500.02, -187500.02, 0.000, 0.000, 0.000, 16:11:50.963, 1578579110963
74, -169998.89, -125720.02, -169892.94, -169584.31, -170064.16, -100392.74, -170285.47, 187500.00, 0.000, 0.000, 0.000, 16:11:50.964, 1578579110964
75, -187500.02, -187500.02, -187500.02, 187500.00, -187500.02, 187500.00, -187500.02, -187500.02, 0.000, 0.000, 0.000, 16:11:50.964, 1578579110964
76, -170010.06, -126187.73, -169895.53, -169586.33, -170071.52, -100806.43, -170277.58, 187500.00, 0.000, 0.000, 0.000, 16:11:50.964, 1578579110964
77, -187500.02, -187500.02, -187500.02, 187500.00, -187500.02, 187500.00, -187500.02, -187500.02, 0.000, 0.000, 0.000, 16:11:50.964, 1578579110964
78, -170020.58, -126657.45, -169897.09, -169587.66, -170078.44, -101220.43, -170270.16, 187500.00, 0.000, 0.000, 0.000, 16:11:50.964, 1578579110964
79, -187500.02, -187500.02, -187500.02, 187500.00, -187500.02, 187500.00, -187500.02, -187500.02, 0.000, 0.000, 0.000, 16:11:50.964, 1578579110964
80, -170026.41, -127119.93, -169899.36, -169583.58, -170081.84, -101630.07, -170271.30, 187500.00, -0.020, -0.016, 0.976, 16:11:50.964, 1578579110964
81, -187500.02, -187500.02, -187500.02, 187500.00, -187500.02, 187500.00, -187500.02, -187500.02, 0.000, 0.000, 0.000, 16:11:50.964, 1578579110964
82, -170018.47, -127566.88, -169906.56, -169567.09, -170071.89, -102023.75, -170431.89, 187500.00, 0.000, 0.000, 0.000, 16:11:50.964, 1578579110964
83, -187500.02, -187500.02, -187500.02, 187500.00, -187500.02, 187500.00, -187500.02, -187500.02, 0.000, 0.000, 0.000, 16:11:50.964, 1578579110964
84, -170029.27, -128032.45, -169913.34, -169568.00, -170080.11, -102437.23, -170444.00, 187500.00, 0.000, 0.000, 0.000, 16:11:50.964, 1578579110964
85, -187500.02, -187500.02, -187500.02, 187500.00, -187500.02, 187500.00, -187500.02, -187500.02, 0.000, 0.000, 0.000, 16:11:50.965, 1578579110965
86, -170040.28, -128500.40, -169916.25, -169570.31, -170087.92, -102846.56, -170437.67, 187500.00, 0.000, 0.000, 0.000, 16:11:50.965, 1578579110965
87, -187500.02, -187500.02, -187500.02, 187500.00, -187500.02, 187500.00, -187500.02, -187500.02, 0.000, 0.000, 0.000, 16:11:50.965, 1578579110965
88, -170049.31, -128968.78, -169916.48, -169569.56, -170094.69, -103257.08, -170428.72, 187500.00, 0.000, 0.000, 0.000, 16:11:50.965, 1578579110965
89, -187500.02, -187500.02, -187500.02, 187500.00, -187500.02, 187500.00, -187500.02, -187500.02, 0.000, 0.000, 0.000, 16:11:51.436, 1578579111436
90, -170057.67, -129436.82, -169917.52, -169570.30, -170100.86, -103670.00, -170419.17, 187500.00, -0.024, -0.012, 0.978, 16:11:51.437, 1578579111437
91, -187500.02, -187500.02, -187500.02, 187500.00, -187500.02, 187500.00, -187500.02, -187500.02, 0.000, 0.000, 0.000, 16:11:51.437, 1578579111437
92, -170068.97, -129905.98, -169919.98, -169571.70, -170108.55, -104084.29, -170411.97, 187500.00, 0.000, 0.000, 0.000, 16:11:51.437, 1578579111437
93, -187500.02, -187500.02, -187500.02, 187500.00, -187500.02, 187500.00, -187500.02, -187500.02, 0.000, 0.000, 0.000, 16:11:51.437, 1578579111437
94, -170080.34, -130376.09, -169922.69, -169573.94, -170116.39, -104497.69, -170406.28, 187500.00, 0.000, 0.000, 0.000, 16:11:51.437, 1578579111437
95, -187500.02, -187500.02, -187500.02, 187500.00, -187500.02, 187500.00, -187500.02, -187500.02, 0.000, 0.000, 0.000, 16:11:51.437, 1578579111437
96, -170088.05, -130842.52, -169921.73, -169573.05, -170122.70, -104909.27, -170396.81, 187500.00, 0.000, 0.000, 0.000, 16:11:51.437, 1578579111437
97, -187500.02, -187500.02, -187500.02, 187500.00, -187500.02, 187500.00, -187500.02, -187500.02, 0.000, 0.000, 0.000, 16:11:51.437, 1578579111437
98, -170096.77, -131308.63, -169921.59, -169572.55, -170128.59, -105321.93, -170387.75, 187500.00, 0.000, 0.000, 0.000, 16:11:51.437, 1578579111437
99, -187500.02, -187500.02, -187500.02, 187500.00, -187500.02, 187500.00, -187500.02, -187500.02, 0.000, 0.000, 0.000, 16:11:51.437, 1578579111437
100, -170107.31, -131776.30, -169924.03, -169574.09, -170136.91, -105736.64, -170381.53, 187500.00, -0.022, -0.010, 0.972, 16:11:51.437, 1578579111437
101, -187500.02, -187500.02, -187500.02, 187500.00, -187500.02, 187500.00, -187500.02, -187500.02, 0.000, 0.000, 0.000, 16:11:51.437, 1578579111437
102, -170117.73, -132245.45, -169925.78, -169574.97, -170145.30, -106147.60, -170373.97, 187500.00, 0.000, 0.000, 0.000, 16:11:51.437, 1578579111437
103, -187500.02, -187500.02, -187500.02, 187500.00, -187500.02, 187500.00, -187500.02, -187500.02, 0.000, 0.000, 0.000, 16:11:51.437, 1578579111437
104, -170126.41, -132709.92, -169927.28, -169575.80, -170152.42, -106560.22, -170364.95, 187500.00, 0.000, 0.000, 0.000, 16:11:51.437, 1578579111437
105, -187500.02, -187500.02, -187500.02, 187500.00, -187500.02, 187500.00, -187500.02, -187500.02, 0.000, 0.000, 0.000, 16:11:51.438, 1578579111438
106, -170135.45, -133175.73, -169928.33, -169575.30, -170157.92, -106972.92, -170356.25, 187500.00, 0.000, 0.000, 0.000, 16:11:51.438, 1578579111438
107, -187500.02, -187500.02, -187500.02, 187500.00, -187500.02, 187500.00, -187500.02, -187500.02, 0.000, 0.000, 0.000, 16:11:51.438, 1578579111438
108, -170146.09, -133639.73, -169930.66, -169576.56, -170167.48, -107386.27, -170349.50, 187500.00, 0.000, 0.000, 0.000, 16:11:51.438, 1578579111438
109, -187500.02, -187500.02, -187500.02, 187500.00, -187500.02, 187500.00, -187500.02, -187500.02, 0.000, 0.000, 0.000, 16:11:51.438, 1578579111438
110, -170157.25, -134108.11, -169933.92, -169578.80, -170176.31, -107800.34, -170343.42, 187500.00, -0.016, -0.010, 0.976, 16:11:51.438, 1578579111438
111, -187500.02, -187500.02, -187500.02, 187500.00, -187500.02, 187500.00, -187500.02, -187500.02, 0.000, 0.000, 0.000, 16:11:51.438, 1578579111438
112, -170166.38, -134573.30, -169934.81, -169578.91, -170183.27, -108211.92, -170335.39, 187500.00, 0.000, 0.000, 0.000, 16:11:51.438, 1578579111438
113, -187500.02, -187500.02, -187500.02, 187500.00, -187500.02, 187500.00, -187500.02, -187500.02, 0.000, 0.000, 0.000, 16:11:51.438, 1578579111438
114, -170175.14, -135040.67, -169935.84, -169579.75, -170189.80, -108622.97, -170327.08, 187500.00, 0.000, 0.000, 0.000, 16:11:51.438, 1578579111438
115, -187500.02, -187500.02, -187500.02, 187500.00, -187500.02, 187500.00, -187500.02, -187500.02, 0.000, 0.000, 0.000, 16:11:51.438, 1578579111438
116, -170185.42, -135509.55, -169946.56, -169581.52, -170198.47, -109034.33, -170319.91, 187500.00, 0.000, 0.000, 0.000, 16:11:51.438, 1578579111438
117, -187500.02, -187500.02, -187500.02, 187500.00, -187500.02, 187500.00, -187500.02, -187500.02, 0.000, 0.000, 0.000, 16:11:51.438, 1578579111438
118, -170197.47, -135979.38, -169951.66, -169582.98, -170207.77, -109445.60, -170314.05, 187500.00, 0.000, 0.000, 0.000, 16:11:51.438, 1578579111438
119, -187500.02, -187500.02, -187500.02, 187500.00, -187500.02, 187500.00, -187500.02, -187500.02, 0.000, 0.000, 0.000, 16:11:51.438, 1578579111438
120, -170205.89, -136444.77, -169951.94, -169583.11, -170213.83, -109855.76, -170303.72, 187500.00, -0.020, -0.012, 0.972, 16:11:51.439, 1578579111439
121, -187500.02, -187500.02, -187500.02, 187500.00, -187500.02, 187500.00, -187500.02, -187500.02, 0.000, 0.000, 0.000, 16:11:51.439, 1578579111439
122, -170199.52, -136893.05, -169946.92, -169568.27, -170205.47, -110250.47, -170443.06, 187500.00, 0.000, 0.000, 0.000, 16:11:51.439, 1578579111439
123, -187500.02, -187500.02, -187500.02, 187500.00, -187500.02, 187500.00, -187500.02, -187500.02, 0.000, 0.000, 0.000, 16:11:51.439, 1578579111439
124, -170208.27, -137357.52, -169948.33, -169567.25, -170211.59, -110660.89, -170490.66, 187500.00, 0.000, 0.000, 0.000, 16:11:51.439, 1578579111439
125, -187500.02, -187500.02, -187500.02, 187500.00, -187500.02, 187500.00, -187500.02, -187500.02, 0.000, 0.000, 0.000, 16:11:51.439, 1578579111439
126, -170219.61, -137824.66, -169950.70, -169568.94, -170221.30, -111073.81, -170483.70, 187500.00, 0.000, 0.000, 0.000, 16:11:51.439, 1578579111439
127, -187500.02, -187500.02, -187500.02, 187500.00, -187500.02, 187500.00, -187500.02, -187500.02, 0.000, 0.000, 0.000, 16:11:51.439, 1578579111439
128, -170228.67, -138291.84, -169950.88, -169568.94, -170228.13, -111484.87, -170474.95, 187500.00, 0.000, 0.000, 0.000, 16:11:51.439, 1578579111439
129, -187500.02, -187500.02, -187500.02, 187500.00, -187500.02, 187500.00, -187500.02, -187500.02, -0.016, -0.012, 0.974, 16:11:51.440, 1578579111440
130, -170238.23, -138757.48, -169953.66, -169570.13, -170236.05, -111894.30, -170467.55, 187500.00, 0.000, 0.000, 0.000, 16:11:51.440, 1578579111440
131, -187500.02, -187500.02, -187500.02, 187500.00, -187500.02, 187500.00, -187500.02, -187500.02, 0.000, 0.000, 0.000, 16:11:51.440, 1578579111440
132, -170250.44, -139222.17, -169957.58, -169572.47, -170245.72, -112306.09, -170461.69, 187500.00, 0.000, 0.000, 0.000, 16:11:51.440, 1578579111440
133, -187500.02, -187500.02, -187500.02, 187500.00, -187500.02, 187500.00, -187500.02, -187500.02, 0.000, 0.000, 0.000, 16:11:51.440, 1578579111440
134, -170262.08, -139690.28, -169961.09, -169575.33, -170256.11, -112719.42, -170455.52, 187500.00, 0.000, 0.000, 0.000, 16:11:51.440, 1578579111440
135, -187500.02, -187500.02, -187500.02, 187500.00, -187500.02, 187500.00, -187500.02, -187500.02, 0.000, 0.000, 0.000, 16:11:51.440, 1578579111440
136, -170271.77, -140154.59, -169961.98, -169576.22, -170262.98, -113132.45, -170447.45, 187500.00, 0.000, 0.000, 0.000, 16:11:51.440, 1578579111440
137, -187500.02, -187500.02, -187500.02, 187500.00, -187500.02, 187500.00, -187500.02, -187500.02, 0.000, 0.000, 0.000, 16:11:51.441, 1578579111441
138, -170280.83, -140616.70, -169963.11, -169576.75, -170270.80, -113543.77, -170439.78, 187500.00, 0.000, 0.000, 0.000, 16:11:51.441, 1578579111441
139, -187500.02, -187500.02, -187500.02, 187500.00, -187500.02, 187500.00, -187500.02, -187500.02, -0.024, -0.016, 0.984, 16:11:51.441, 1578579111441
140, -170292.70, -141082.89, -169966.84, -169579.44, -170281.13, -113957.52, -170434.84, 187500.00, 0.000, 0.000, 0.000, 16:11:51.441, 1578579111441
141, -187500.02, -187500.02, -187500.02, 187500.00, -187500.02, 187500.00, -187500.02, -187500.02, 0.000, 0.000, 0.000, 16:11:51.441, 1578579111441
142, -170304.78, -141550.27, -169969.70, -169581.14, -170290.92, -114368.64, -170428.53, 187500.00, 0.000, 0.000, 0.000, 16:11:51.441, 1578579111441
143, -187500.02, -187500.02, -187500.02, 187500.00, -187500.02, 187500.00, -187500.02, -187500.02, 0.000, 0.000, 0.000, 16:11:51.441, 1578579111441
144, -170314.72, -142017.41, -169971.13, -169582.98, -170298.61, -114777.50, -170421.67, 187500.00, 0.000, 0.000, 0.000, 16:11:51.441, 1578579111441
145, -187500.02, -187500.02, -187500.02, 187500.00, -187500.02, 187500.00, -187500.02, -187500.02, 0.000, 0.000, 0.000, 16:11:51.441, 1578579111441
146, -170323.27, -142483.16, -169971.47, -169583.95, -170306.31, -115186.54, -170413.06, 187500.00, 0.000, 0.000, 0.000, 16:11:51.442, 1578579111442
147, -187500.02, -187500.02, -187500.02, 187500.00, -187500.02, 187500.00, -187500.02, -187500.02, 0.000, 0.000, 0.000, 16:11:51.442, 1578579111442
148, -170334.41, -142946.53, -169974.39, -169585.73, -170315.53, -115598.55, -170406.20, 187500.00, 0.000, 0.000, 0.000, 16:11:51.442, 1578579111442
149, -187500.02, -187500.02, -187500.02, 187500.00, -187500.02, 187500.00, -187500.02, -187500.02, -0.022, -0.018, 0.976, 16:11:51.442, 1578579111442
150, -170347.13, -143412.50, -169977.48, -169588.48, -170324.89, -116009.53, -170400.16, 187500.00, 0.000, 0.000, 0.000, 16:11:51.442, 1578579111442
151, -187500.02, -187500.02, -187500.02, 187500.00, -187500.02, 187500.00, -187500.02, -187500.02, 0.000, 0.000, 0.000, 16:11:51.442, 1578579111442
152, -170355.83, -143876.86, -169978.28, -169587.81, -170331.69, -116417.13, -170391.95, 187500.00, 0.000, 0.000, 0.000, 16:11:51.442, 1578579111442
153, -187500.02, -187500.02, -187500.02, 187500.00, -187500.02, 187500.00, -187500.02, -187500.02, 0.000, 0.000, 0.000, 16:11:51.442, 1578579111442
154, -170364.66, -144343.88, -169979.16, -169587.34, -170338.58, -116827.02, -170384.53, 187500.00, 0.000, 0.000, 0.000, 16:11:51.442, 1578579111442
155, -187500.02, -187500.02, -187500.02, 187500.00, -187500.02, 187500.00, -187500.02, -187500.02, 0.000, 0.000, 0.000, 16:11:51.442, 1578579111442
156, -170376.03, -144809.95, -169982.02, -169588.67, -170348.19, -117238.27, -170377.63, 187500.00, 0.000, 0.000, 0.000, 16:11:51.442, 1578579111442
157, -187500.02, -187500.02, -187500.02, 187500.00, -187500.02, 187500.00, -187500.02, -187500.02, 0.000, 0.000, 0.000, 16:11:51.443, 1578579111443
158, -170386.72, -145275.61, -169984.09, -169590.59, -170356.34, -117648.72, -170370.72, 187500.00, 0.000, 0.000, 0.000, 16:11:51.443, 1578579111443
159, -187500.02, -187500.02, -187500.02, 187500.00, -187500.02, 187500.00, -187500.02, -187500.02, -0.016, -0.014, 0.976, 16:11:51.443, 1578579111443
160, -170396.38, -145740.59, -169985.09, -169591.38, -170363.53, -118059.52, -170362.86, 187500.00, 0.000, 0.000, 0.000, 16:11:51.443, 1578579111443
161, -187500.02, -187500.02, -187500.02, 187500.00, -187500.02, 187500.00, -187500.02, -187500.02, 0.000, 0.000, 0.000, 16:11:51.443, 1578579111443
162, -170400.39, -146197.69, -169988.36, -169585.70, -170365.84, -118464.69, -170377.75, 187500.00, 0.000, 0.000, 0.000, 16:11:51.443, 1578579111443
163, -187500.02, -187500.02, -187500.02, 187500.00, -187500.02, 187500.00, -187500.02, -187500.02, 0.000, 0.000, 0.000, 16:11:51.443, 1578579111443
164, -170397.98, -146648.50, -169990.69, -169574.30, -170361.50, -118860.90, -170540.27, 187500.00, 0.000, 0.000, 0.000, 16:11:51.443, 1578579111443
165, -187500.02, -187500.02, -187500.02, 187500.00, -187500.02, 187500.00, -187500.02, -187500.02, 0.000, 0.000, 0.000, 16:11:51.443, 1578579111443
166, -170408.02, -147113.95, -169992.63, -169575.66, -170370.17, -119271.52, -170541.13, 187500.00, 0.000, 0.000, 0.000, 16:11:51.444, 1578579111444
167, -187500.02, -187500.02, -187500.02, 187500.00, -187500.02, 187500.00, -187500.02, -187500.02, 0.000, 0.000, 0.000, 16:11:51.444, 1578579111444
168, -170417.19, -147579.17, -169993.58, -169575.81, -170377.03, -119682.68, -170532.61, 187500.00, -0.018, -0.014, 0.974, 16:11:51.444, 1578579111444
169, -187500.02, -187500.02, -187500.02, 187500.00, -187500.02, 187500.00, -187500.02, -187500.02, 0.000, 0.000, 0.000, 16:11:51.444, 1578579111444
170, -170426.86, -148043.73, -170000.56, -169575.89, -170385.59, -120094.00, -170524.20, 187500.00, 0.000, 0.000, 0.000, 16:11:51.444, 1578579111444
171, -187500.02, -187500.02, -187500.02, 187500.00, -187500.02, 187500.00, -187500.02, -187500.02, 0.000, 0.000, 0.000, 16:11:51.444, 1578579111444
172, -170437.83, -148508.78, -170006.31, -169577.19, -170394.09, -120506.21, -170516.25, 187500.00, 0.000, 0.000, 0.000, 16:11:51.444, 1578579111444
173, -187500.02, -187500.02, -187500.02, 187500.00, -187500.02, 187500.00, -187500.02, -187500.02, 0.000, 0.000, 0.000, 16:11:51.445, 1578579111445
174, -170449.77, -148974.63, -170009.39, -169578.97, -170403.97, -120917.79, -170510.81, 187500.00, 0.000, 0.000, 0.000, 16:11:51.445, 1578579111445
175, -187500.02, -187500.02, -187500.02, 187500.00, -187500.02, 187500.00, -187500.02, -187500.02, 0.000, 0.000, 0.000, 16:11:51.445, 1578579111445
176, -170459.53, -149437.03, -170010.02, -169579.48, -170411.22, -121326.25, -170502.59, 187500.00, 0.000, 0.000, 0.000, 16:11:51.445, 1578579111445
177, -187500.02, -187500.02, -187500.02, 187500.00, -187500.02, 187500.00, -187500.02, -187500.02, 0.000, 0.000, 0.000, 16:11:51.445, 1578579111445
178, -170469.23, -149900.69, -170010.61, -169580.44, -170418.77, -121736.58, -170494.20, 187500.00, -0.022, -0.012, 0.974, 16:11:51.445, 1578579111445
179, -187500.02, -187500.02, -187500.02, 187500.00, -187500.02, 187500.00, -187500.02, -187500.02, 0.000, 0.000, 0.000, 16:11:51.445, 1578579111445
180, -170480.73, -150366.59, -170013.86, -169583.39, -170428.52, -122149.20, -170488.02, 187500.00, 0.000, 0.000, 0.000, 16:11:51.446, 1578579111446
181, -187500.02, -187500.02, -187500.02, 187500.00, -187500.02, 187500.00, -187500.02, -187500.02, 0.000, 0.000, 0.000, 16:11:51.446, 1578579111446
182, -170491.48, -150832.86, -170016.70, -169584.95, -170437.45, -122558.05, -170481.75, 187500.00, 0.000, 0.000, 0.000, 16:11:51.446, 1578579111446
183, -187500.02, -187500.02, -187500.02, 187500.00, -187500.02, 187500.00, -187500.02, -187500.02, 0.000, 0.000, 0.000, 16:11:51.446, 1578579111446
184, -170501.41, -151297.88, -170018.25, -169585.19, -170445.84, -122965.13, -170474.45, 187500.00, 0.000, 0.000, 0.000, 16:11:51.446, 1578579111446
185, -187500.02, -187500.02, -187500.02, 187500.00, -187500.02, 187500.00, -187500.02, -187500.02, 0.000, 0.000, 0.000, 16:11:51.446, 1578579111446
186, -170510.91, -151762.91, -170019.13, -169585.56, -170452.88, -123375.27, -170466.59, 187500.00, 0.000, 0.000, 0.000, 16:11:51.446, 1578579111446
187, -187500.02, -187500.02, -187500.02, 187500.00, -187500.02, 187500.00, -187500.02, -187500.02, 0.000, 0.000, 0.000, 16:11:51.446, 1578579111446
188, -170521.98, -152229.41, -170020.84, -169588.00, -170461.70, -123786.52, -170460.56, 187500.00, -0.014, -0.014, 0.984, 16:11:51.446, 1578579111446
189, -187500.02, -187500.02, -187500.02, 187500.00, -187500.02, 187500.00, -187500.02, -187500.02, 0.000, 0.000, 0.000, 16:11:51.446, 1578579111446
190, -170533.92, -152697.69, -170023.64, -169591.11, -170472.17, -124198.47, -170455.83, 187500.00, 0.000, 0.000, 0.000, 16:11:51.446, 1578579111446
191, -187500.02, -187500.02, -187500.02, 187500.00, -187500.02, 187500.00, -187500.02, -187500.02, 0.000, 0.000, 0.000, 16:11:51.446, 1578579111446
192, -170543.11, -153161.70, -170024.27, -169591.16, -170479.94, -124609.41, -170447.36, 187500.00, 0.000, 0.000, 0.000, 16:11:51.446, 1578579111446
193, -187500.02, -187500.02, -187500.02, 187500.00, -187500.02, 187500.00, -187500.02, -187500.02, 0.000, 0.000, 0.000, 16:11:51.446, 1578579111446
194, -170551.47, -153625.39, -170024.47, -169590.55, -170486.67, -125017.46, -170438.95, 187500.00, 0.000, 0.000, 0.000, 16:11:51.446, 1578579111446
195, -187500.02, -187500.02, -187500.02, 187500.00, -187500.02, 187500.00, -187500.02, -187500.02, 0.000, 0.000, 0.000, 16:11:51.446, 1578579111446
196, -170563.11, -154090.44, -170027.34, -169593.05, -170496.44, -125426.72, -170432.88, 187500.00, 0.000, 0.000, 0.000, 16:11:51.446, 1578579111446
197, -187500.02, -187500.02, -187500.02, 187500.00, -187500.02, 187500.00, -187500.02, -187500.02, 0.000, 0.000, 0.000, 16:11:51.447, 1578579111447
198, -170575.05, -154556.89, -170030.73, -169594.48, -170505.84, -125837.75, -170426.66, 187500.00, -0.016, -0.014, 0.982, 16:11:51.447, 1578579111447
199, -187500.02, -187500.02, -187500.02, 187500.00, -187500.02, 187500.00, -187500.02, -187500.02, 0.000, 0.000, 0.000, 16:11:51.447, 1578579111447
200, -170584.02, -155021.08, -170031.64, -169594.77, -170514.34, -126246.74, -170418.34, 187500.00, 0.000, 0.000, 0.000, 16:11:51.447, 1578579111447
201, -187500.02, -187500.02, -187500.02, 187500.00, -187500.02, 187500.00, -187500.02, -187500.02, 0.000, 0.000, 0.000, 16:11:51.447, 1578579111447
202, -170593.09, -155484.56, -170031.86, -169594.84, -170523.20, -126654.08, -170409.58, 187500.00, 0.000, 0.000, 0.000, 16:11:51.447, 1578579111447
203, -187500.02, -187500.02, -187500.02, 187500.00, -187500.02, 187500.00, -187500.02, -187500.02, 0.000, 0.000, 0.000, 16:11:51.447, 1578579111447
204, -170604.69, -155951.61, -170034.61, -169597.77, -170533.33, -127065.55, -170404.91, 187500.00, 0.000, 0.000, 0.000, 16:11:51.447, 1578579111447
205, -187500.02, -187500.02, -187500.02, 187500.00, -187500.02, 187500.00, -187500.02, -187500.02, 0.000, 0.000, 0.000, 16:11:51.447, 1578579111447
206, -170606.05, -156409.67, -170032.83, -169588.78, -170531.59, -127464.26, -170466.27, 187500.00, 0.000, 0.000, 0.000, 16:11:51.447, 1578579111447
207, -187500.02, -187500.02, -187500.02, 187500.00, -187500.02, 187500.00, -187500.02, -187500.02, -0.014, -0.010, 0.984, 16:11:51.447, 1578579111447
208, -170606.33, -156866.58, -170027.86, -169579.53, -170530.03, -127860.91, -170591.84, 187500.00, 0.000, 0.000, 0.000, 16:11:51.447, 1578579111447
209, -187500.02, -187500.02, -187500.02, 187500.00, -187500.02, 187500.00, -187500.02, -187500.02, 0.000, 0.000, 0.000, 16:11:51.916, 1578579111916
210, -170617.19, -157332.52, -170029.25, -169581.83, -170538.23, -128270.84, -170584.70, 187500.00, 0.000, 0.000, 0.000, 16:11:51.916, 1578579111916
211, -187500.02, -187500.02, -187500.02, 187500.00, -187500.02, 187500.00, -187500.02, -187500.02, 0.000, 0.000, 0.000, 16:11:51.916, 1578579111916
212, -170629.25, -157800.38, -170032.08, -169584.13, -170548.81, -128679.39, -170577.95, 187500.00, 0.000, 0.000, 0.000, 16:11:51.916, 1578579111916
213, -187500.02, -187500.02, -187500.02, 187500.00, -187500.02, 187500.00, -187500.02, -187500.02, 0.000, 0.000, 0.000, 16:11:51.916, 1578579111916
214, -170640.36, -158268.94, -170042.13, -169586.69, -170559.58, -129088.31, -170571.45, 187500.00, 0.000, 0.000, 0.000, 16:11:51.916, 1578579111916
215, -187500.02, -187500.02, -187500.02, 187500.00, -187500.02, 187500.00, -187500.02, -187500.02, 0.000, 0.000, 0.000, 16:11:51.917, 1578579111917
216, -170650.41, -158737.39, -170046.66, -169587.19, -170566.09, -129495.37, -170563.78, 187500.00, 0.000, 0.000, 0.000, 16:11:51.917, 1578579111917
217, -187500.02, -187500.02, -187500.02, 187500.00, -187500.02, 187500.00, -187500.02, -187500.02, -0.012, -0.006, 0.978, 16:11:51.917, 1578579111917
218, -170658.83, -159207.00, -170047.55, -169587.31, -170574.36, -129906.26, -170556.83, 187500.00, 0.000, 0.000, 0.000, 16:11:51.917, 1578579111917
219, -187500.02, -187500.02, -187500.02, 187500.00, -187500.02, 187500.00, -187500.02, -187500.02, 0.000, 0.000, 0.000, 16:11:51.917, 1578579111917
220, -170672.06, -159677.53, -170052.22, -169589.81, -170584.64, -130317.70, -170551.73, 187500.00, 0.000, 0.000, 0.000, 16:11:51.917, 1578579111917
221, -187500.02, -187500.02, -187500.02, 187500.00, -187500.02, 187500.00, -187500.02, -187500.02, 0.000, 0.000, 0.000, 16:11:51.917, 1578579111917
222, -170683.06, -160147.36, -170055.64, -169592.00, -170594.56, -130727.68, -170545.39, 187500.00, 0.000, 0.000, 0.000, 16:11:51.917, 1578579111917
223, -187500.02, -187500.02, -187500.02, 187500.00, -187500.02, 187500.00, -187500.02, -187500.02, 0.000, 0.000, 0.000, 16:11:51.917, 1578579111917
224, -170693.09, -160617.86, -170056.09, -169593.05, -170602.72, -131135.88, -170537.86, 187500.00, 0.000, 0.000, 0.000, 16:11:51.917, 1578579111917
225, -187500.02, -187500.02, -187500.02, 187500.00, -187500.02, 187500.00, -187500.02, -187500.02, 0.000, 0.000, 0.000, 16:11:51.917, 1578579111917
226, -170702.20, -161086.94, -170055.84, -169592.69, -170609.23, -131546.25, -170529.48, 187500.00, 0.000, 0.000, 0.000, 16:11:51.917, 1578579111917
227, -187500.02, -187500.02, -187500.02, 187500.00, -187500.02, 187500.00, -187500.02, -187500.02, -0.020, -0.010, 0.978, 16:11:51.917, 1578579111917
228, -170712.98, -161558.22, -170058.77, -169593.50, -170618.80, -131955.95, -170522.69, 187500.00, 0.000, 0.000, 0.000, 16:11:51.917, 1578579111917
229, -187500.02, -187500.02, -187500.02, 187500.00, -187500.02, 187500.00, -187500.02, -187500.02, 0.000, 0.000, 0.000, 16:11:51.917, 1578579111917
230, -170724.36, -162032.69, -170061.55, -169596.02, -170628.45, -132364.34, -170516.52, 187500.00, 0.000, 0.000, 0.000, 16:11:51.917, 1578579111917
231, -187500.02, -187500.02, -187500.02, 187500.00, -187500.02, 187500.00, -187500.02, -187500.02, 0.000, 0.000, 0.000, 16:11:51.917, 1578579111917
232, -170732.16, -162506.31, -170060.77, -169595.36, -170634.80, -132771.06, -170507.61, 187500.00, 0.000, 0.000, 0.000, 16:11:51.917, 1578579111917
233, -187500.02, -187500.02, -187500.02, 187500.00, -187500.02, 187500.00, -187500.02, -187500.02, 0.000, 0.000, 0.000, 16:11:51.917, 1578579111917
234, -170741.66, -162982.41, -170062.13, -169595.36, -170642.39, -133177.77, -170499.80, 187500.00, 0.000, 0.000, 0.000, 16:11:51.917, 1578579111917
235, -187500.02, -187500.02, -187500.02, 187500.00, -187500.02, 187500.00, -187500.02, -187500.02, 0.000, 0.000, 0.000, 16:11:51.918, 1578579111918
236, -170753.75, -163459.39, -170063.48, -169596.09, -170652.08, -133586.61, -170493.63, 187500.00, 0.000, 0.000, 0.000, 16:11:51.918, 1578579111918
237, -187500.02, -187500.02, -187500.02, 187500.00, -187500.02, 187500.00, -187500.02, -187500.02, -0.020, -0.010, 0.978, 16:11:51.918, 1578579111918
238, -170757.83, -163928.47, -170069.61, -169404.38, -170654.09, -133987.30, -170479.52, 187500.00, 0.000, 0.000, 0.000, 16:11:51.918, 1578579111918
239, -187500.02, -187500.02, -187500.02, 187500.00, -187500.02, 187500.00, -187500.02, -187500.02, 0.000, 0.000, 0.000, 16:11:51.918, 1578579111918
240, -170720.63, -164355.72, -170077.53, -169630.67, -170616.11, -134345.14, -170461.13, 187500.00, 0.000, 0.000, 0.000, 16:11:51.918, 1578579111918
241, -187500.02, -187500.02, -187500.02, 187500.00, -187500.02, 187500.00, -187500.02, -187500.02, 0.000, 0.000, 0.000, 16:11:51.918, 1578579111918
242, -170675.92, -164776.98, -170070.14, -170434.39, -170570.78, -134695.78, -170612.14, 187500.00, 0.000, 0.000, 0.000, 16:11:51.918, 1578579111918
243, -187500.02, -187500.02, -187500.02, 187500.00, -187500.02, 187500.00, -187500.02, -187500.02, 0.000, 0.000, 0.000, 16:11:51.918, 1578579111918
244, -170682.16, -165255.14, -170068.66, -170717.70, -170575.50, -135100.02, -170610.55, 187500.00, 0.000, 0.000, 0.000, 16:11:51.918, 1578579111918
245, -187500.02, -187500.02, -187500.02, 187500.00, -187500.02, 187500.00, -187500.02, -187500.02, 0.000, 0.000, 0.000, 16:11:51.918, 1578579111918
246, -170692.63, -165736.33, -170071.42, -170716.38, -170584.53, -135506.55, -170602.70, 187500.00, -0.018, -0.012, 0.978, 16:11:51.918, 1578579111918
247, -187500.02, -187500.02, -187500.02, 187500.00, -187500.02, 187500.00, -187500.02, -187500.02, 0.000, 0.000, 0.000, 16:11:51.918, 1578579111918
248, -170699.19, -166217.92, -170078.17, -170713.23, -170589.36, -135910.00, -170592.00, 187500.00, 0.000, 0.000, 0.000, 16:11:51.918, 1578579111918
249, -187500.02, -187500.02, -187500.02, 187500.00, -187500.02, 187500.00, -187500.02, -187500.02, 0.000, 0.000, 0.000, 16:11:51.918, 1578579111918
250, -170708.69, -166705.34, -170077.61, -170711.02, -170596.13, -136316.16, -170583.97, 187500.00, 0.000, 0.000, 0.000, 16:11:51.918, 1578579111918
251, -187500.02, -187500.02, -187500.02, 187500.00, -187500.02, 187500.00, -187500.02, -187500.02, 0.000, 0.000, 0.000, 16:11:51.918, 1578579111918
252, -170718.45, -167195.56, -170079.67, -170710.70, -170605.52, -136725.77, -170576.64, 187500.00, 0.000, 0.000, 0.000, 16:11:51.918, 1578579111918
253, -187500.02, -187500.02, -187500.02, 187500.00, -187500.02, 187500.00, -187500.02, -187500.02, 0.000, 0.000, 0.000, 16:11:51.918, 1578579111918
254, -170730.02, -167687.14, -170081.92, -170711.05, -170614.39, -137132.17, -170569.44, 187500.00, 0.000, 0.000, 0.000, 16:11:51.918, 1578579111918
255, -187500.02, -187500.02, -187500.02, 187500.00, -187500.02, 187500.00, -187500.02, -187500.02, 0.000, 0.000, 0.000, 16:11:51.918, 1578579111918
0, -170737.13, -168177.52, -170080.45, -170709.31, -170619.58, -137534.59, -170559.92, 187500.00, -0.012, -0.010, 0.976, 16:11:51.919, 1578579111919
1, -187500.02, -187500.02, -187500.02, 187500.00, -187500.02, 187500.00, -187500.02, -187500.02, 0.000, 0.000, 0.000, 16:11:51.919, 1578579111919
2, -170743.34, -168666.73, -170086.55, -170706.61, -170624.89, -137939.66, -170549.02, 187500.00, 0.000, 0.000, 0.000, 16:11:51.919, 1578579111919
3, -187500.02, -187500.02, -187500.02, 187500.00, -187500.02, 187500.00, -187500.02, -187500.02, 0.000, 0.000, 0.000, 16:11:51.919, 1578579111919
4, -170752.13, -169159.94, -170088.52, -170704.73, -170632.14, -138346.67, -170540.67, 187500.00, 0.000, 0.000, 0.000, 16:11:51.919, 1578579111919
5, -187500.02, -187500.02, -187500.02, 187500.00, -187500.02, 187500.00, -187500.02, -187500.02, 0.000, 0.000, 0.000, 16:11:51.919, 1578579111919
6, -170760.86, -169654.03, -170087.06, -170702.91, -170639.38, -138752.47, -170532.42, 187500.00, 0.000, 0.000, 0.000, 16:11:51.919, 1578579111919
7, -187500.02, -187500.02, -187500.02, 187500.00, -187500.02, 187500.00, -187500.02, -187500.02, 0.000, 0.000, 0.000, 16:11:51.919, 1578579111919
8, -170775.17, -170149.78, -170092.44, -170707.36, -170650.91, -139162.83, -170527.84, 187500.00, 0.000, 0.000, 0.000, 16:11:51.919, 1578579111919
9, -187500.02, -187500.02, -187500.02, 187500.00, -187500.02, 187500.00, -187500.02, -187500.02, 0.000, 0.000, 0.000, 16:11:51.919, 1578579111919
10, -170816.78, -170316.02, -170125.84, -170739.89, -170692.16, -139606.22, -170552.98, 187500.00, -0.014, -0.018, 0.978, 16:11:51.919, 1578579111919
11, -187500.02, -187500.02, -187500.02, 187500.00, -187500.02, 187500.00, -187500.02, -187500.02, 0.000, 0.000, 0.000, 16:11:51.919, 1578579111919
12, -170866.77, -170356.97, -170167.78, -170779.08, -170740.41, -140054.03, -170586.14, 187500.00, 0.000, 0.000, 0.000, 16:11:51.919, 1578579111919
13, -187500.02, -187500.02, -187500.02, 187500.00, -187500.02, 187500.00, -187500.02, -187500.02, 0.000, 0.000, 0.000, 16:11:51.919, 1578579111919
14, -170916.55, -170398.27, -170209.73, -170818.86, -170789.47, -140500.64, -170619.11, 187500.00, 0.000, 0.000, 0.000, 16:11:51.919, 1578579111919
15, -187500.02, -187500.02, -187500.02, 187500.00, -187500.02, 187500.00, -187500.02, -187500.02, 0.000, 0.000, 0.000, 16:11:51.919, 1578579111919
16, -170963.91, -170439.41, -170248.06, -170857.11, -170835.89, -140945.67, -170650.31, 187500.00, 0.000, 0.000, 0.000, 16:11:51.919, 1578579111919
17, -187500.02, -187500.02, -187500.02, 187500.00, -187500.02, 187500.00, -187500.02, -187500.02, 0.000, 0.000, 0.000, 16:11:51.919, 1578579111919
18, -171011.73, -170480.89, -170287.98, -170895.44, -170883.38, -141391.70, -170681.42, 187500.00, 0.000, 0.000, 0.000, 16:11:51.919, 1578579111919
19, -187500.02, -187500.02, -187500.02, 187500.00, -187500.02, 187500.00, -187500.02, -187500.02, 0.000, 0.000, 0.000, 16:11:51.919, 1578579111919
20, -171061.97, -170524.63, -170329.03, -170934.48, -170932.61, -141837.89, -170714.30, 187500.00, -0.022, -0.018, 0.976, 16:11:51.919, 1578579111919
21, -187500.02, -187500.02, -187500.02, 187500.00, -187500.02, 187500.00, -187500.02, -187500.02, 0.000, 0.000, 0.000, 16:11:51.920, 1578579111920
22, -171110.95, -170567.03, -170369.58, -170974.02, -170980.63, -142285.59, -170746.88, 187500.00, 0.000, 0.000, 0.000, 16:11:51.920, 1578579111920
23, -187500.02, -187500.02, -187500.02, 187500.00, -187500.02, 187500.00, -187500.02, -187500.02, 0.000, 0.000, 0.000, 16:11:51.920, 1578579111920
24, -171159.03, -170608.72, -170408.22, -171011.17, -171025.38, -142731.22, -170777.38, 187500.00, 0.000, 0.000, 0.000, 16:11:51.920, 1578579111920
25, -187500.02, -187500.02, -187500.02, 187500.00, -187500.02, 187500.00, -187500.02, -187500.02, 0.000, 0.000, 0.000, 16:11:51.920, 1578579111920
26, -171205.58, -170649.78, -170445.19, -171047.44, -171070.28, -143175.97, -170805.75, 187500.00, 0.000, 0.000, 0.000, 16:11:51.920, 1578579111920
27, -187500.02, -187500.02, -187500.02, 187500.00, -187500.02, 187500.00, -187500.02, -187500.02, 0.000, 0.000, 0.000, 16:11:51.920, 1578579111920
28, -171254.59, -170692.98, -170485.53, -171086.06, -171117.80, -143619.55, -170837.38, 187500.00, 0.000, 0.000, 0.000, 16:11:51.920, 1578579111920
29, -187500.02, -187500.02, -187500.02, 187500.00, -187500.02, 187500.00, -187500.02, -187500.02, 0.000, 0.000, 0.000, 16:11:51.920, 1578579111920
30, -171304.52, -170737.06, -170526.17, -171124.75, -171165.30, -144060.39, -170869.84, 187500.00, -0.028, -0.014, 0.972, 16:11:51.920, 1578579111920
31, -187500.02, -187500.02, -187500.02, 187500.00, -187500.02, 187500.00, -187500.02, -187500.02, 0.000, 0.000, 0.000, 16:11:51.920, 1578579111920
32, -171352.11, -170780.89, -170565.00, -171162.44, -171211.05, -144502.95, -170899.27, 187500.00, 0.000, 0.000, 0.000, 16:11:51.920, 1578579111920
33, -187500.02, -187500.02, -187500.02, 187500.00, -187500.02, 187500.00, -187500.02, -187500.02, 0.000, 0.000, 0.000, 16:11:51.920, 1578579111920
34, -171399.63, -170823.17, -170603.89, -171199.77, -171257.78, -144948.69, -170929.64, 187500.00, 0.000, 0.000, 0.000, 16:11:51.920, 1578579111920
35, -187500.02, -187500.02, -187500.02, 187500.00, -187500.02, 187500.00, -187500.02, -187500.02, 0.000, 0.000, 0.000, 16:11:51.920, 1578579111920
36, -171448.41, -170868.58, -170644.44, -171238.61, -171306.88, -145393.48, -170963.19, 187500.00, 0.000, 0.000, 0.000, 16:11:51.920, 1578579111920
37, -187500.02, -187500.02, -187500.02, 187500.00, -187500.02, 187500.00, -187500.02, -187500.02, 0.000, 0.000, 0.000, 16:11:51.920, 1578579111920
38, -171500.23, -170914.38, -170687.03, -171279.72, -171355.47, -145838.83, -170997.05, 187500.00, 0.000, 0.000, 0.000, 16:11:51.921, 1578579111921
39, -187500.02, -187500.02, -187500.02, 187500.00, -187500.02, 187500.00, -187500.02, -187500.02, -0.020, -0.014, 0.976, 16:11:51.921, 1578579111921
40, -171547.91, -170958.08, -170725.69, -171317.48, -171402.63, -146282.73, -171028.44, 187500.00, 0.000, 0.000, 0.000, 16:11:51.921, 1578579111921
41, -187500.02, -187500.02, -187500.02, 187500.00, -187500.02, 187500.00, -187500.02, -187500.02, 0.000, 0.000, 0.000, 16:11:51.921, 1578579111921
42, -171595.92, -171001.44, -170764.55, -171355.03, -171449.25, -146725.47, -171058.91, 187500.00, 0.000, 0.000, 0.000, 16:11:51.921, 1578579111921
