%OpenBCI Raw EEG Data
%Number of channels = 8
%Sample Rate = 250.0 Hz
%First Column = SampleIndex
%Last Column = Timestamp 
%Other Columns = EEG data in microvolts followed by Accel Data (in G) interleaved with Aux Data
0, -62130.07, -64565.47, -82374.67, -82506.05, -78496.80, -59442.61, -82350.53, 93749.98, 0.000, -0.014, 0.502, 15:43:10.773, 1578577390773
1, -159702.92, -154519.06, -158187.42, -157767.64, -187500.02, -187500.02, -187500.02, -187500.02, 0.000, 0.000, 0.000, 15:43:10.773, 1578577390773
2, -124560.81, -129430.25, -164749.50, -165009.69, -157327.11, -119142.51, -164786.63, 187500.00, 0.000, 0.000, 0.000, 15:43:10.773, 1578577390773
3, -159700.58, -154509.20, -158182.48, -157765.11, -187500.02, -187500.02, -187500.02, -187500.02, 0.000, 0.000, 0.000, 15:43:10.773, 1578577390773
4, -124971.41, -129837.97, -164756.64, -165014.50, -157780.47, -119496.78, -164783.63, 187500.00, 0.000, 0.000, 0.000, 15:43:10.773, 1578577390773
5, -159699.66, -154502.03, -158179.22, -157764.98, -187500.02, -187500.02, -187500.02, -187500.02, 0.000, 0.000, 0.000, 15:43:10.773, 1578577390773
6, -125382.11, -130239.90, -164759.58, -165013.83, -158232.63, -119846.49, -164776.25, 187500.00, 0.000, 0.000, 0.000, 15:43:10.773, 1578577390773
7, -159698.53, -154494.30, -158175.63, -157764.31, -187500.02, -187500.02, -187500.02, -187500.02, -0.018, -0.012, 0.738, 15:43:10.773, 1578577390773
8, -125793.36, -130646.03, -164765.08, -165015.69, -158685.94, -120198.49, -164770.45, 187500.00, 0.000, 0.000, 0.000, 15:43:10.774, 1578577390774
9, -159696.02, -154485.27, -158170.59, -157762.67, -187500.02, -187500.02, -187500.02, -187500.02, 0.000, 0.000, 0.000, 15:43:10.774, 1578577390774
10, -126200.88, -131047.76, -164766.30, -165015.70, -159137.53, -120544.72, -164760.48, 187500.00, 0.000, 0.000, 0.000, 15:43:10.774, 1578577390774
11, -159694.52, -154476.44, -158166.58, -157761.00, -187500.02, -187500.02, -187500.02, -187500.02, 0.000, 0.000, 0.000, 15:43:10.774, 1578577390774
12, -126612.73, -131454.53, -164770.30, -165016.86, -159595.70, -120893.98, -164753.31, 187500.00, 0.000, 0.000, 0.000, 15:43:10.774, 1578577390774
13, -159693.73, -154470.52, -158163.36, -157762.19, -187500.02, -187500.02, -187500.02, -187500.02, 0.000, 0.000, 0.000, 15:43:10.774, 1578577390774
14, -127027.02, -131860.48, -164775.63, -165019.66, -160055.61, -121244.42, -164749.73, 187500.00, 0.000, 0.000, 0.000, 15:43:10.774, 1578577390774
15, -159693.28, -154460.72, -158160.33, -157759.75, -187500.02, -187500.02, -187500.02, -187500.02, 0.000, 0.000, 0.000, 15:43:10.774, 1578577390774
16, -127436.32, -132262.36, -164775.58, -165017.00, -160509.17, -121590.29, -164738.52, 187500.00, -0.018, -0.012, 0.852, 15:43:10.774, 1578577390774
17, -159691.77, -154452.94, -158156.38, -157759.09, -187500.02, -187500.02, -187500.02, -187500.02, 0.000, 0.000, 0.000, 15:43:10.774, 1578577390774
18, -127848.24, -132667.30, -164779.48, -165018.70, -160968.66, -121942.02, -164732.27, 187500.00, 0.000, 0.000, 0.000, 15:43:10.774, 1578577390774
19, -159690.09, -154443.53, -158152.28, -157757.05, -187500.02, -187500.02, -187500.02, -187500.02, 0.000, 0.000, 0.000, 15:43:10.774, 1578577390774
20, -128256.49, -133071.64, -164782.38, -165019.38, -161425.66, -122290.73, -164725.41, 187500.00, 0.000, 0.000, 0.000, 15:43:10.774, 1578577390774
21, -159687.34, -154433.86, -158146.95, -157754.45, -187500.02, -187500.02, -187500.02, -187500.02, 0.000, 0.000, 0.000, 15:43:10.774, 1578577390774
22, -128667.41, -133476.25, -164786.98, -165020.59, -161885.83, -122638.25, -164717.86, 187500.00, 0.000, 0.000, 0.000, 15:43:10.774, 1578577390774
23, -159686.11, -154426.78, -158143.17, -157754.47, -187500.02, -187500.02, -187500.02, -187500.02, 0.000, 0.000, 0.000, 15:43:10.774, 1578577390774
24, -129075.66, -133880.33, -164790.36, -165022.86, -162348.78, -122988.03, -164710.45, 187500.00, 0.000, 0.000, 0.000, 15:43:10.774, 1578577390774
25, -159685.84, -154417.98, -158140.47, -157752.84, -187500.02, -187500.02, -187500.02, -187500.02, 0.000, 0.000, 0.000, 15:43:10.774, 1578577390774
26, -129481.05, -134282.89, -164789.13, -165018.61, -162807.78, -123331.11, -164699.52, 187500.00, -0.024, -0.010, 0.910, 15:43:10.774, 1578577390774
27, -159682.58, -154411.48, -158134.70, -157753.36, -187500.02, -187500.02, -187500.02, -187500.02, 0.000, 0.000, 0.000, 15:43:10.774, 1578577390774
28, -129895.26, -134691.20, -164795.67, -165022.52, -163273.30, -123684.38, -164695.47, 187500.00, 0.000, 0.000, 0.000, 15:43:10.775, 1578577390775
29, -159681.75, -154403.41, -158131.36, -157752.33, -187500.02, -187500.02, -187500.02, -187500.02, 0.000, 0.000, 0.000, 15:43:10.775, 1578577390775
30, -130305.62, -135094.30, -164798.88, -165022.00, -163738.77, -124033.80, -164687.14, 187500.00, 0.000, 0.000, 0.000, 15:43:10.775, 1578577390775
31, -159679.05, -154393.86, -158126.27, -157750.03, -187500.02, -187500.02, -187500.02, -187500.02, 0.000, 0.000, 0.000, 15:43:10.775, 1578577390775
32, -130715.57, -135501.80, -164799.89, -165021.56, -164176.34, -124384.93, -164678.03, 187500.00, 0.000, 0.000, 0.000, 15:43:10.775, 1578577390775
33, -159677.58, -154388.20, -158122.36, -157751.44, -187500.02, -187500.02, -187500.02, -187500.02, 0.000, 0.000, 0.000, 15:43:10.775, 1578577390775
34, -131136.42, -135919.97, -164812.84, -165031.75, -164391.84, -124764.86, -164680.81, 187500.00, 0.000, 0.000, 0.000, 15:43:10.775, 1578577390775
35, -159677.27, -154378.05, -158119.55, -157748.53, -187500.02, -187500.02, -187500.02, -187500.02, 0.000, 0.000, 0.000, 15:43:10.775, 1578577390775
36, -131571.61, -136351.98, -164838.00, -165053.36, -164420.13, -125186.59, -164695.22, 187500.00, -0.020, -0.016, 0.934, 15:43:10.775, 1578577390775
37, -159677.64, -154371.56, -158117.23, -157749.31, -187500.02, -187500.02, -187500.02, -187500.02, 0.000, 0.000, 0.000, 15:43:10.775, 1578577390775
38, -132014.73, -136788.36, -164871.64, -165083.94, -164454.91, -125623.88, -164717.94, 187500.00, 0.000, 0.000, 0.000, 15:43:10.775, 1578577390775
39, -159678.70, -154367.94, -158115.88, -157752.77, -187500.02, -187500.02, -187500.02, -187500.02, 0.000, 0.000, 0.000, 15:43:10.775, 1578577390775
40, -132454.59, -137221.22, -164899.30, -165108.42, -164486.19, -126053.15, -164735.84, 187500.00, 0.000, 0.000, 0.000, 15:43:10.775, 1578577390775
41, -159680.36, -154365.45, -158114.98, -157757.33, -187500.02, -187500.02, -187500.02, -187500.02, 0.000, 0.000, 0.000, 15:43:10.775, 1578577390775
42, -132893.98, -137657.13, -164928.36, -165134.64, -164518.38, -126483.76, -164754.59, 187500.00, 0.000, 0.000, 0.000, 15:43:10.775, 1578577390775
43, -159681.92, -154362.11, -158113.91, -157761.11, -187500.02, -187500.02, -187500.02, -187500.02, 0.000, 0.000, 0.000, 15:43:10.775, 1578577390775
44, -133335.70, -138095.89, -164962.34, -165164.86, -164555.19, -126918.34, -164777.50, 187500.00, 0.000, 0.000, 0.000, 15:43:10.775, 1578577390775
45, -159682.31, -154357.13, -158111.77, -157763.06, -187500.02, -187500.02, -187500.02, -187500.02, 0.000, 0.000, 0.000, 15:43:10.775, 1578577390775
46, -133771.47, -138529.38, -164992.22, -165190.50, -164587.89, -127347.96, -164795.61, 187500.00, -0.018, -0.016, 0.954, 15:43:10.775, 1578577390775
47, -159683.03, -154352.88, -158110.00, -157765.83, -187500.02, -187500.02, -187500.02, -187500.02, 0.000, 0.000, 0.000, 15:43:10.775, 1578577390775
48, -134211.67, -138968.84, -165022.34, -165218.66, -164624.02, -127781.25, -164816.17, 187500.00, 0.000, 0.000, 0.000, 15:43:10.776, 1578577390776
49, -159683.92, -154351.55, -158108.19, -157771.42, -187500.02, -187500.02, -187500.02, -187500.02, 0.000, 0.000, 0.000, 15:43:10.776, 1578577390776
50, -134649.20, -139404.30, -165049.33, -165243.42, -164655.14, -128209.22, -164832.78, 187500.00, 0.000, 0.000, 0.000, 15:43:10.776, 1578577390776
51, -159685.34, -154348.77, -158107.20, -157775.69, -187500.02, -187500.02, -187500.02, -187500.02, 0.000, 0.000, 0.000, 15:43:10.776, 1578577390776
52, -135091.33, -139841.11, -165079.09, -165269.84, -164689.92, -128643.52, -164853.08, 187500.00, 0.000, 0.000, 0.000, 15:43:10.776, 1578577390776
53, -159686.75, -154345.16, -158106.09, -157779.17, -187500.02, -187500.02, -187500.02, -187500.02, 0.000, 0.000, 0.000, 15:43:10.776, 1578577390776
54, -135531.45, -140276.61, -165111.19, -165298.75, -164726.78, -129077.07, -164875.36, 187500.00, 0.000, 0.000, 0.000, 15:43:10.776, 1578577390776
55, -159689.06, -154341.70, -158105.81, -157782.67, -187500.02, -187500.02, -187500.02, -187500.02, -0.018, -0.018, 0.970, 15:43:10.776, 1578577390776
56, -135966.47, -140709.84, -165137.20, -165322.33, -164759.44, -129503.99, -164891.05, 187500.00, 0.000, 0.000, 0.000, 15:43:10.777, 1578577390777
57, -159691.34, -154338.83, -158105.58, -157787.00, -187500.02, -187500.02, -187500.02, -187500.02, 0.000, 0.000, 0.000, 15:43:10.777, 1578577390777
58, -136406.19, -141147.80, -165167.09, -165348.88, -164795.20, -129935.52, -164910.50, 187500.00, 0.000, 0.000, 0.000, 15:43:10.777, 1578577390777
59, -159692.59, -154334.55, -158104.39, -157789.70, -187500.02, -187500.02, -187500.02, -187500.02, 0.000, 0.000, 0.000, 15:43:10.777, 1578577390777
60, -136843.52, -141580.48, -165196.06, -165374.58, -164828.03, -130366.66, -164929.42, 187500.00, 0.000, 0.000, 0.000, 15:43:10.777, 1578577390777
61, -159693.64, -154328.98, -158102.89, -157791.16, -187500.02, -187500.02, -187500.02, -187500.02, 0.000, 0.000, 0.000, 15:43:10.777, 1578577390777
62, -137282.39, -142015.42, -165225.67, -165401.41, -164862.92, -130797.24, -164948.42, 187500.00, 0.000, 0.000, 0.000, 15:43:10.777, 1578577390777
63, -159695.78, -154325.72, -158102.56, -157794.92, -187500.02, -187500.02, -187500.02, -187500.02, 0.000, 0.000, 0.000, 15:43:10.777, 1578577390777
64, -137723.64, -142451.78, -165254.67, -165426.95, -164896.80, -131226.66, -164966.94, 187500.00, 0.000, 0.000, 0.000, 15:43:10.777, 1578577390777
65, -159696.81, -154320.69, -158101.02, -157797.00, -187500.02, -187500.02, -187500.02, -187500.02, -0.014, -0.020, 0.974, 15:43:10.777, 1578577390777
66, -138158.20, -142883.75, -165280.58, -165449.27, -164927.77, -131650.47, -164981.97, 187500.00, 0.000, 0.000, 0.000, 15:43:10.777, 1578577390777
67, -159695.97, -154316.66, -158097.73, -157799.80, -187500.02, -187500.02, -187500.02, -187500.02, 0.000, 0.000, 0.000, 15:43:10.777, 1578577390777
68, -138600.17, -143323.22, -165311.64, -165477.25, -164964.47, -132082.78, -165002.30, 187500.00, 0.000, 0.000, 0.000, 15:43:10.777, 1578577390777
69, -159699.50, -154316.58, -158098.73, -157806.63, -187500.02, -187500.02, -187500.02, -187500.02, 0.000, 0.000, 0.000, 15:43:10.777, 1578577390777
70, -139041.53, -143755.34, -165339.48, -165501.27, -164997.48, -132513.98, -165019.25, 187500.00, 0.000, 0.000, 0.000, 15:43:10.777, 1578577390777
71, -159701.39, -154314.81, -158098.06, -157811.83, -187500.02, -187500.02, -187500.02, -187500.02, 0.000, 0.000, 0.000, 15:43:10.778, 1578577390778
72, -139478.72, -144187.72, -165365.36, -165523.94, -165029.34, -132942.52, -165036.16, 187500.00, 0.000, 0.000, 0.000, 15:43:10.778, 1578577390778
73, -159700.59, -154306.05, -158094.70, -157810.23, -187500.02, -187500.02, -187500.02, -187500.02, 0.000, 0.000, 0.000, 15:43:10.778, 1578577390778
74, -139917.59, -144621.80, -165394.08, -165550.14, -165064.59, -133372.41, -165055.28, 187500.00, 0.000, 0.000, 0.000, 15:43:10.778, 1578577390778
75, -159701.06, -154300.09, -158092.75, -157811.38, -187500.02, -187500.02, -187500.02, -187500.02, -0.016, -0.022, 0.974, 15:43:10.778, 1578577390778
76, -140354.22, -145054.55, -165419.59, -165573.88, -165096.03, -133800.63, -165071.19, 187500.00, 0.000, 0.000, 0.000, 15:43:10.778, 1578577390778
77, -159703.67, -154297.48, -158092.86, -157815.72, -187500.02, -187500.02, -187500.02, -187500.02, 0.000, 0.000, 0.000, 15:43:10.778, 1578577390778
78, -140793.48, -145491.91, -165449.97, -165601.08, -165133.09, -134232.53, -165092.19, 187500.00, 0.000, 0.000, 0.000, 15:43:10.778, 1578577390778
79, -159705.59, -154294.28, -158092.19, -157819.47, -187500.02, -187500.02, -187500.02, -187500.02, 0.000, 0.000, 0.000, 15:43:10.778, 1578577390778
80, -141227.53, -145923.53, -165475.30, -165623.50, -165164.48, -134661.19, -165107.64, 187500.00, 0.000, 0.000, 0.000, 15:43:10.778, 1578577390778
81, -159707.45, -154287.20, -158091.56, -157819.50, -187500.02, -187500.02, -187500.02, -187500.02, 0.000, 0.000, 0.000, 15:43:10.778, 1578577390778
82, -141663.34, -146356.27, -165501.47, -165646.56, -165197.09, -135090.52, -165122.77, 187500.00, 0.000, 0.000, 0.000, 15:43:10.778, 1578577390778
83, -159707.48, -154278.98, -158089.17, -157818.47, -187500.02, -187500.02, -187500.02, -187500.02, 0.000, 0.000, 0.000, 15:43:10.778, 1578577390778
84, -142100.72, -146790.45, -165531.53, -165673.67, -165233.36, -135521.02, -165142.91, 187500.00, 0.000, 0.000, 0.000, 15:43:10.778, 1578577390778
85, -159708.94, -154273.97, -158088.19, -157820.61, -187500.02, -187500.02, -187500.02, -187500.02, -0.022, -0.018, 0.970, 15:43:10.778, 1578577390778
86, -142533.36, -147222.86, -165557.88, -165697.61, -165265.89, -135945.56, -165159.61, 187500.00, 0.000, 0.000, 0.000, 15:43:10.778, 1578577390778
87, -159711.84, -154271.94, -158088.66, -157825.50, -187500.02, -187500.02, -187500.02, -187500.02, 0.000, 0.000, 0.000, 15:43:10.778, 1578577390778
88, -142968.45, -147656.16, -165586.95, -165722.91, -165301.09, -136371.63, -165178.64, 187500.00, 0.000, 0.000, 0.000, 15:43:10.778, 1578577390778
89, -159711.33, -154264.41, -158085.66, -157825.06, -187500.02, -187500.02, -187500.02, -187500.02, 0.000, 0.000, 0.000, 15:43:10.779, 1578577390779
90, -143401.61, -148085.27, -165612.42, -165746.69, -165333.81, -136796.47, -165194.16, 187500.00, 0.000, 0.000, 0.000, 15:43:10.779, 1578577390779
91, -159712.39, -154261.83, -158084.08, -157829.50, -187500.02, -187500.02, -187500.02, -187500.02, 0.000, 0.000, 0.000, 15:43:10.779, 1578577390779
92, -143835.06, -148516.66, -165641.58, -165771.78, -165368.23, -137222.86, -165211.75, 187500.00, 0.000, 0.000, 0.000, 15:43:10.779, 1578577390779
93, -159713.77, -154258.19, -158082.86, -157832.77, -187500.02, -187500.02, -187500.02, -187500.02, 0.000, 0.000, 0.000, 15:43:10.779, 1578577390779
94, -144271.30, -148949.98, -165671.39, -165799.67, -165405.66, -137649.08, -165231.69, 187500.00, -0.028, -0.014, 0.968, 15:43:10.779, 1578577390779
95, -159716.58, -154255.39, -158083.20, -157837.02, -187500.02, -187500.02, -187500.02, -187500.02, 0.000, 0.000, 0.000, 15:43:10.779, 1578577390779
96, -144703.38, -149377.63, -165695.98, -165822.02, -165436.23, -138072.95, -165247.16, 187500.00, 0.000, 0.000, 0.000, 15:43:10.779, 1578577390779
97, -159718.81, -154252.48, -158083.02, -157841.00, -187500.02, -187500.02, -187500.02, -187500.02, 0.000, 0.000, 0.000, 15:43:10.779, 1578577390779
98, -145137.89, -149809.98, -165723.53, -165847.59, -165472.27, -138501.02, -165265.78, 187500.00, 0.000, 0.000, 0.000, 15:43:10.779, 1578577390779
99, -159720.11, -154248.05, -158081.80, -157843.56, -187500.02, -187500.02, -187500.02, -187500.02, 0.000, 0.000, 0.000, 15:43:10.779, 1578577390779
100, -145569.89, -150239.50, -165751.14, -165872.06, -165507.08, -138926.09, -165283.09, 187500.00, 0.000, 0.000, 0.000, 15:43:10.779, 1578577390779
101, -159722.92, -154247.08, -158082.03, -157849.47, -187500.02, -187500.02, -187500.02, -187500.02, 0.000, 0.000, 0.000, 15:43:10.779, 1578577390779
102, -146006.81, -150672.66, -165780.25, -165897.34, -165543.55, -139352.33, -165303.11, 187500.00, 0.000, 0.000, 0.000, 15:43:10.780, 1578577390780
103, -159721.63, -154236.75, -158078.33, -157846.25, -187500.02, -187500.02, -187500.02, -187500.02, 0.000, 0.000, 0.000, 15:43:10.780, 1578577390780
104, -146443.50, -151106.64, -165808.78, -165923.05, -165578.97, -139780.30, -165321.41, 187500.00, -0.022, -0.016, 0.980, 15:43:10.780, 1578577390780
105, -159722.86, -154232.31, -158076.98, -157848.91, -187500.02, -187500.02, -187500.02, -187500.02, 0.000, 0.000, 0.000, 15:43:10.780, 1578577390780
106, -146875.91, -151535.66, -165835.19, -165946.59, -165612.45, -140201.89, -165337.97, 187500.00, 0.000, 0.000, 0.000, 15:43:10.780, 1578577390780
107, -159725.30, -154229.53, -158077.09, -157853.13, -187500.02, -187500.02, -187500.02, -187500.02, 0.000, 0.000, 0.000, 15:43:10.780, 1578577390780
108, -147315.53, -151971.52, -165867.27, -165975.69, -165650.77, -140629.77, -165359.72, 187500.00, 0.000, 0.000, 0.000, 15:43:10.780, 1578577390780
109, -159729.05, -154228.11, -158078.38, -157858.59, -187500.02, -187500.02, -187500.02, -187500.02, 0.000, 0.000, 0.000, 15:43:10.780, 1578577390780
110, -147752.58, -152403.83, -165896.41, -166001.13, -165686.44, -141057.30, -165378.14, 187500.00, 0.000, 0.000, 0.000, 15:43:10.780, 1578577390780
111, -159731.02, -154225.83, -158077.70, -157863.30, -187500.02, -187500.02, -187500.02, -187500.02, 0.000, 0.000, 0.000, 15:43:10.780, 1578577390780
112, -148188.80, -152837.05, -165925.05, -166026.81, -165721.44, -141481.00, -165396.20, 187500.00, 0.000, 0.000, 0.000, 15:43:10.780, 1578577390780
113, -159733.30, -154222.67, -158077.52, -157867.03, -187500.02, -187500.02, -187500.02, -187500.02, 0.000, 0.000, 0.000, 15:43:10.780, 1578577390780
114, -148627.70, -153273.28, -165956.17, -166055.47, -165759.28, -141907.47, -165416.84, 187500.00, -0.022, -0.014, 0.982, 15:43:10.780, 1578577390780
115, -159732.84, -154215.28, -158074.73, -157866.70, -187500.02, -187500.02, -187500.02, -187500.02, 0.000, 0.000, 0.000, 15:43:10.780, 1578577390780
116, -149063.48, -153706.19, -165983.16, -166080.52, -165794.14, -142334.81, -165434.16, 187500.00, 0.000, 0.000, 0.000, 15:43:10.781, 1578577390781
117, -159735.55, -154215.70, -158074.89, -157873.98, -187500.02, -187500.02, -187500.02, -187500.02, 0.000, 0.000, 0.000, 15:43:10.781, 1578577390781
118, -149502.50, -154143.09, -166015.14, -166109.42, -165833.98, -142764.13, -165456.55, 187500.00, 0.000, 0.000, 0.000, 15:43:10.781, 1578577390781
119, -159735.53, -154211.05, -158072.30, -157876.27, -187500.02, -187500.02, -187500.02, -187500.02, 0.000, 0.000, 0.000, 15:43:10.782, 1578577390782
120, -149937.22, -154578.38, -166042.75, -166135.14, -165868.02, -143191.73, -165473.53, 187500.00, 0.000, 0.000, 0.000, 15:43:10.782, 1578577390782
121, -159736.63, -154205.50, -158070.91, -157877.72, -187500.02, -187500.02, -187500.02, -187500.02, 0.000, 0.000, 0.000, 15:43:11.252, 1578577391252
122, -150372.61, -155014.39, -166071.75, -166161.50, -165903.77, -143619.50, -165491.91, 187500.00, 0.000, 0.000, 0.000, 15:43:11.252, 1578577391252
123, -159740.92, -154204.13, -158072.63, -157883.33, -187500.02, -187500.02, -187500.02, -187500.02, 0.000, 0.000, 0.000, 15:43:11.252, 1578577391252
124, -150811.75, -155453.19, -166104.59, -166190.98, -165944.58, -144050.84, -165513.81, 187500.00, -0.024, -0.012, 0.982, 15:43:11.252, 1578577391252
125, -159739.75, -154195.31, -158069.08, -157881.52, -187500.02, -187500.02, -187500.02, -187500.02, 0.000, 0.000, 0.000, 15:43:11.252, 1578577391252
126, -151247.09, -155889.89, -166132.69, -166215.33, -165978.95, -144476.69, -165531.42, 187500.00, 0.000, 0.000, 0.000, 15:43:11.252, 1578577391252
127, -159741.31, -154190.36, -158068.05, -157883.58, -187500.02, -187500.02, -187500.02, -187500.02, 0.000, 0.000, 0.000, 15:43:11.253, 1578577391253
128, -151686.47, -156328.66, -166163.00, -166243.11, -166016.61, -144902.06, -165552.13, 187500.00, 0.000, 0.000, 0.000, 15:43:11.253, 1578577391253
129, -159744.41, -154187.42, -158068.56, -157887.64, -187500.02, -187500.02, -187500.02, -187500.02, 0.000, 0.000, 0.000, 15:43:11.253, 1578577391253
130, -152122.64, -156768.42, -166189.27, -166268.88, -166050.91, -145326.20, -165569.14, 187500.00, 0.000, 0.000, 0.000, 15:43:11.253, 1578577391253
131, -159745.47, -154183.44, -158067.28, -157890.59, -187500.02, -187500.02, -187500.02, -187500.02, 0.000, 0.000, 0.000, 15:43:11.253, 1578577391253
132, -152562.19, -157210.03, -166218.52, -166295.05, -166086.89, -145753.66, -165588.95, 187500.00, 0.000, 0.000, 0.000, 15:43:11.253, 1578577391253
133, -159747.23, -154179.36, -158066.48, -157893.48, -187500.02, -187500.02, -187500.02, -187500.02, -0.024, -0.016, 0.982, 15:43:11.253, 1578577391253
134, -153003.31, -157654.02, -166250.25, -166323.59, -166126.11, -146182.66, -165611.05, 187500.00, 0.000, 0.000, 0.000, 15:43:11.253, 1578577391253
135, -159748.06, -154174.45, -158064.88, -157895.52, -187500.02, -187500.02, -187500.02, -187500.02, 0.000, 0.000, 0.000, 15:43:11.254, 1578577391254
136, -153436.67, -158091.14, -166274.05, -166345.91, -166158.48, -146602.97, -165625.17, 187500.00, 0.000, 0.000, 0.000, 15:43:11.254, 1578577391254
137, -159749.72, -154169.83, -158064.11, -157897.91, -187500.02, -187500.02, -187500.02, -187500.02, 0.000, 0.000, 0.000, 15:43:11.254, 1578577391254
138, -153873.78, -158533.75, -166303.34, -166373.34, -166195.78, -147029.95, -165645.58, 187500.00, 0.000, 0.000, 0.000, 15:43:11.255, 1578577391255
139, -159751.95, -154166.66, -158063.80, -157901.77, -187500.02, -187500.02, -187500.02, -187500.02, 0.000, 0.000, 0.000, 15:43:11.255, 1578577391255
140, -154311.45, -158976.16, -166332.44, -166398.31, -166231.44, -147453.94, -165665.47, 187500.00, 0.000, 0.000, 0.000, 15:43:11.255, 1578577391255
141, -159754.94, -154161.67, -158064.27, -157903.88, -187500.02, -187500.02, -187500.02, -187500.02, 0.000, 0.000, 0.000, 15:43:11.255, 1578577391255
142, -154747.83, -159421.20, -166361.02, -166423.75, -166267.78, -147878.23, -165683.11, 187500.00, 0.000, 0.000, 0.000, 15:43:11.255, 1578577391255
143, -159754.38, -154155.39, -158061.27, -157904.42, -187500.02, -187500.02, -187500.02, -187500.02, -0.014, -0.006, 0.974, 15:43:11.255, 1578577391255
144, -155185.94, -159869.48, -166388.50, -166449.92, -166303.34, -148302.77, -165700.83, 187500.00, 0.000, 0.000, 0.000, 15:43:11.255, 1578577391255
145, -159754.08, -154149.66, -158058.44, -157905.56, -187500.02, -187500.02, -187500.02, -187500.02, 0.000, 0.000, 0.000, 15:43:11.255, 1578577391255
146, -155619.08, -160311.02, -166412.84, -166470.53, -166334.53, -148723.52, -165715.22, 187500.00, 0.000, 0.000, 0.000, 15:43:11.255, 1578577391255
147, -159757.36, -154149.63, -158059.23, -157912.41, -187500.02, -187500.02, -187500.02, -187500.02, 0.000, 0.000, 0.000, 15:43:11.255, 1578577391255
148, -156063.86, -160761.81, -166442.80, -166497.27, -166370.67, -149148.22, -165735.14, 187500.00, 0.000, 0.000, 0.000, 15:43:11.256, 1578577391256
149, -159757.50, -154142.91, -158056.84, -157912.67, -187500.02, -187500.02, -187500.02, -187500.02, 0.000, 0.000, 0.000, 15:43:11.256, 1578577391256
150, -156505.50, -161212.59, -166468.08, -166520.94, -166404.27, -149570.42, -165751.09, 187500.00, 0.000, 0.000, 0.000, 15:43:11.256, 1578577391256
151, -159758.19, -154137.69, -158055.13, -157914.47, -187500.02, -187500.02, -187500.02, -187500.02, 0.000, 0.000, 0.000, 15:43:11.256, 1578577391256
152, -156945.50, -161663.64, -166492.55, -166542.59, -166436.09, -149989.05, -165764.91, 187500.00, 0.000, 0.000, 0.000, 15:43:11.256, 1578577391256
153, -159760.70, -154134.72, -158055.14, -157918.52, -187500.02, -187500.02, -187500.02, -187500.02, -0.014, -0.008, 0.970, 15:43:11.256, 1578577391256
154, -157384.27, -162117.17, -166519.22, -166567.14, -166471.73, -150408.84, -165781.98, 187500.00, 0.000, 0.000, 0.000, 15:43:11.256, 1578577391256
155, -159763.36, -154133.38, -158055.23, -157924.03, -187500.02, -187500.02, -187500.02, -187500.02, 0.000, 0.000, 0.000, 15:43:11.256, 1578577391256
156, -157824.56, -162570.25, -166542.63, -166588.44, -166504.11, -150826.81, -165796.09, 187500.00, 0.000, 0.000, 0.000, 15:43:11.256, 1578577391256
157, -159764.45, -154128.08, -158054.00, -157925.66, -187500.02, -187500.02, -187500.02, -187500.02, 0.000, 0.000, 0.000, 15:43:11.256, 1578577391256
158, -158269.36, -163028.03, -166571.30, -166613.55, -166539.44, -151251.64, -165815.53, 187500.00, 0.000, 0.000, 0.000, 15:43:11.256, 1578577391256
159, -159767.69, -154123.88, -158054.72, -157928.41, -187500.02, -187500.02, -187500.02, -187500.02, 0.000, 0.000, 0.000, 15:43:11.256, 1578577391256
160, -158710.81, -163484.05, -166594.70, -166634.38, -166569.75, -151672.20, -165828.95, 187500.00, 0.000, 0.000, 0.000, 15:43:11.256, 1578577391256
161, -159767.20, -154112.25, -158051.73, -157923.89, -187500.02, -187500.02, -187500.02, -187500.02, 0.000, 0.000, 0.000, 15:43:11.256, 1578577391256
162, -159155.23, -163940.19, -166617.36, -166654.27, -166601.30, -152090.03, -165841.89, 187500.00, 0.000, 0.000, 0.000, 15:43:11.256, 1578577391256
163, -159767.41, -154107.63, -158049.52, -157926.38, -187500.02, -187500.02, -187500.02, -187500.02, -0.018, -0.012, 0.976, 15:43:11.256, 1578577391256
164, -159604.70, -164405.45, -166646.53, -166680.31, -166636.55, -152511.00, -165860.08, 187500.00, 0.000, 0.000, 0.000, 15:43:11.256, 1578577391256
165, -159770.23, -154106.42, -158049.72, -157932.08, -187500.02, -187500.02, -187500.02, -187500.02, 0.000, 0.000, 0.000, 15:43:11.256, 1578577391256
166, -160090.03, -164777.33, -166680.23, -166711.42, -166678.45, -152941.67, -165883.89, 187500.00, 0.000, 0.000, 0.000, 15:43:11.257, 1578577391257
167, -159773.81, -154105.48, -158050.70, -157938.00, -187500.02, -187500.02, -187500.02, -187500.02, 0.000, 0.000, 0.000, 15:43:11.257, 1578577391257
168, -160618.38, -164847.27, -166729.13, -166758.22, -166735.52, -153386.69, -165922.42, 187500.00, 0.000, 0.000, 0.000, 15:43:11.257, 1578577391257
169, -159776.48, -154103.94, -158050.98, -157943.39, -187500.02, -187500.02, -187500.02, -187500.02, 0.000, 0.000, 0.000, 15:43:11.257, 1578577391257
170, -161145.81, -164896.50, -166774.77, -166801.16, -166789.20, -153830.28, -165959.22, 187500.00, 0.000, 0.000, 0.000, 15:43:11.257, 1578577391257
171, -159780.05, -154100.97, -158051.97, -157947.53, -187500.02, -187500.02, -187500.02, -187500.02, 0.000, 0.000, 0.000, 15:43:11.257, 1578577391257
172, -161678.66, -164949.08, -166822.03, -166845.16, -166844.80, -154274.97, -165997.39, 187500.00, 0.000, 0.000, 0.000, 15:43:11.257, 1578577391257
173, -159784.25, -154103.72, -158053.69, -157956.89, -187500.02, -187500.02, -187500.02, -187500.02, -0.024, -0.012, 0.972, 15:43:11.257, 1578577391257
174, -162219.41, -165005.83, -166872.59, -166892.48, -166903.38, -154724.05, -166037.63, 187500.00, 0.000, 0.000, 0.000, 15:43:11.257, 1578577391257
175, -159786.06, -154100.86, -158053.00, -157960.98, -187500.02, -187500.02, -187500.02, -187500.02, 0.000, 0.000, 0.000, 15:43:11.257, 1578577391257
176, -162753.27, -165054.55, -166914.84, -166933.44, -166954.66, -155166.98, -166070.92, 187500.00, 0.000, 0.000, 0.000, 15:43:11.257, 1578577391257
177, -159788.19, -154099.52, -158052.64, -157966.48, -187500.02, -187500.02, -187500.02, -187500.02, 0.000, 0.000, 0.000, 15:43:11.257, 1578577391257
178, -163286.64, -165101.36, -166954.88, -166971.55, -167002.80, -155608.03, -166102.53, 187500.00, 0.000, 0.000, 0.000, 15:43:11.257, 1578577391257
179, -159791.56, -154097.95, -158053.42, -157971.81, -187500.02, -187500.02, -187500.02, -187500.02, 0.000, 0.000, 0.000, 15:43:11.257, 1578577391257
180, -163811.23, -165146.50, -166993.50, -167006.70, -167049.25, -156046.42, -166131.50, 187500.00, 0.000, 0.000, 0.000, 15:43:11.257, 1578577391257
181, -159797.59, -154099.83, -158056.89, -157980.61, -187500.02, -187500.02, -187500.02, -187500.02, 0.000, 0.000, 0.000, 15:43:11.257, 1578577391257
182, -164033.55, -165202.09, -167042.63, -167052.19, -167106.59, -156494.08, -166170.38, 187500.00, -0.026, -0.010, 0.976, 15:43:11.257, 1578577391257
183, -159799.23, -154097.84, -158056.17, -157985.45, -187500.02, -187500.02, -187500.02, -187500.02, 0.000, 0.000, 0.000, 15:43:11.258, 1578577391258
184, -164300.00, -165269.34, -167103.05, -167109.09, -167175.02, -156957.59, -166221.17, 187500.00, 0.000, 0.000, 0.000, 15:43:11.258, 1578577391258
185, -159803.19, -154101.22, -158057.56, -157995.47, -187500.02, -187500.02, -187500.02, -187500.02, 0.000, 0.000, 0.000, 15:43:11.258, 1578577391258
186, -164607.88, -165334.31, -167161.83, -167164.63, -167241.56, -157419.94, -166270.06, 187500.00, 0.000, 0.000, 0.000, 15:43:11.258, 1578577391258
187, -159806.78, -154098.22, -158058.50, -157999.53, -187500.02, -187500.02, -187500.02, -187500.02, 0.000, 0.000, 0.000, 15:43:11.258, 1578577391258
188, -164706.25, -165408.64, -167230.88, -167230.30, -167318.53, -157894.58, -166329.03, 187500.00, 0.000, 0.000, 0.000, 15:43:11.258, 1578577391258
189, -159813.36, -154101.45, -158062.56, -158009.66, -187500.02, -187500.02, -187500.02, -187500.02, 0.000, 0.000, 0.000, 15:43:11.258, 1578577391258
190, -164696.13, -165494.95, -167308.88, -167305.39, -167404.92, -158378.52, -166397.25, 187500.00, 0.000, 0.000, 0.000, 15:43:11.258, 1578577391258
191, -159817.81, -154104.19, -158064.48, -158019.08, -187500.02, -187500.02, -187500.02, -187500.02, 0.000, 0.000, 0.000, 15:43:11.258, 1578577391258
192, -164775.48, -165580.38, -167387.05, -167380.42, -167491.19, -158864.53, -166466.41, 187500.00, -0.028, -0.012, 0.976, 15:43:11.258, 1578577391258
193, -159824.53, -154111.41, -158068.69, -158033.05, -187500.02, -187500.02, -187500.02, -187500.02, 0.000, 0.000, 0.000, 15:43:11.258, 1578577391258
194, -164858.03, -165667.33, -167466.38, -167457.47, -167579.88, -159352.94, -166537.14, 187500.00, 0.000, 0.000, 0.000, 15:43:11.258, 1578577391258
195, -159830.30, -154115.27, -158071.94, -158043.75, -187500.02, -187500.02, -187500.02, -187500.02, 0.000, 0.000, 0.000, 15:43:11.258, 1578577391258
196, -164939.02, -165751.66, -167544.00, -167531.73, -167665.19, -159839.16, -166604.89, 187500.00, 0.000, 0.000, 0.000, 15:43:11.258, 1578577391258
197, -159837.16, -154122.72, -158076.19, -158057.73, -187500.02, -187500.02, -187500.02, -187500.02, 0.000, 0.000, 0.000, 15:43:11.258, 1578577391258
198, -165023.53, -165839.59, -167625.06, -167609.25, -167754.98, -160328.08, -166676.08, 187500.00, 0.000, 0.000, 0.000, 15:43:11.258, 1578577391258
199, -159842.91, -154123.36, -158079.47, -158065.23, -187500.02, -187500.02, -187500.02, -187500.02, 0.000, 0.000, 0.000, 15:43:11.258, 1578577391258
200, -165103.33, -165923.61, -167701.06, -167682.41, -167840.20, -160816.38, -166743.61, 187500.00, 0.000, 0.000, 0.000, 15:43:11.259, 1578577391259
201, -159850.33, -154128.84, -158084.42, -158077.59, -187500.02, -187500.02, -187500.02, -187500.02, 0.000, 0.000, 0.000, 15:43:11.259, 1578577391259
202, -165185.67, -166007.66, -167779.14, -167757.56, -167926.06, -161305.19, -166811.78, 187500.00, -0.020, -0.016, 0.974, 15:43:11.259, 1578577391259
203, -159856.70, -154133.69, -158088.20, -158089.17, -187500.02, -187500.02, -187500.02, -187500.02, 0.000, 0.000, 0.000, 15:43:11.259, 1578577391259
204, -165271.41, -166096.33, -167861.14, -167835.78, -168015.28, -161797.86, -166884.94, 187500.00, 0.000, 0.000, 0.000, 15:43:11.259, 1578577391259
205, -159861.19, -154134.06, -158090.27, -158096.39, -187500.02, -187500.02, -187500.02, -187500.02, 0.000, 0.000, 0.000, 15:43:11.259, 1578577391259
206, -165352.67, -166181.50, -167938.70, -167909.86, -168100.05, -162292.33, -166951.80, 187500.00, 0.000, 0.000, 0.000, 15:43:11.259, 1578577391259
207, -159866.84, -154139.19, -158093.41, -158108.20, -187500.02, -187500.02, -187500.02, -187500.02, 0.000, 0.000, 0.000, 15:43:11.259, 1578577391259
208, -165437.45, -166269.39, -168018.19, -167987.41, -168188.42, -162789.63, -167020.92, 187500.00, 0.000, 0.000, 0.000, 15:43:11.259, 1578577391259
209, -159872.44, -154140.50, -158096.31, -158116.44, -187500.02, -187500.02, -187500.02, -187500.02, 0.000, 0.000, 0.000, 15:43:11.259, 1578577391259
210, -165518.66, -166353.97, -168094.64, -168061.53, -168274.36, -163285.56, -167088.50, 187500.00, 0.000, 0.000, 0.000, 15:43:11.259, 1578577391259
211, -159878.42, -154145.14, -158099.72, -158127.97, -187500.02, -187500.02, -187500.02, -187500.02, 0.000, 0.000, 0.000, 15:43:11.259, 1578577391259
212, -165602.48, -166439.83, -168173.33, -168136.61, -168360.75, -163782.30, -167158.23, 187500.00, -0.016, -0.010, 0.988, 15:43:11.259, 1578577391259
213, -159885.31, -154152.13, -158104.08, -158141.56, -187500.02, -187500.02, -187500.02, -187500.02, 0.000, 0.000, 0.000, 15:43:11.259, 1578577391259
214, -165688.53, -166528.36, -168254.25, -168214.38, -168450.41, -164284.25, -167230.52, 187500.00, 0.000, 0.000, 0.000, 15:43:11.259, 1578577391259
215, -159890.63, -154157.19, -158106.95, -158153.25, -187500.02, -187500.02, -187500.02, -187500.02, 0.000, 0.000, 0.000, 15:43:11.259, 1578577391259
216, -165778.22, -166621.61, -168339.20, -168295.91, -168544.02, -164885.92, -167305.22, 187500.00, 0.000, 0.000, 0.000, 15:43:11.259, 1578577391259
217, -159897.48, -154160.67, -158111.14, -158163.73, -187500.02, -187500.02, -187500.02, -187500.02, 0.000, 0.000, 0.000, 15:43:11.259, 1578577391259
218, -165898.23, -166743.53, -168454.77, -168406.73, -168667.06, -165112.84, -167410.36, 187500.00, 0.000, 0.000, 0.000, 15:43:11.259, 1578577391259
219, -159906.31, -154172.14, -158117.52, -158181.91, -187500.02, -187500.02, -187500.02, -187500.02, 0.000, 0.000, 0.000, 15:43:11.260, 1578577391260
220, -166019.67, -166866.42, -168571.53, -168518.33, -168792.45, -165228.17, -167517.36, 187500.00, 0.000, 0.000, 0.000, 15:43:11.260, 1578577391260
221, -159912.67, -154176.30, -158121.23, -158192.72, -187500.02, -187500.02, -187500.02, -187500.02, -0.014, -0.012, 0.984, 15:43:11.260, 1578577391260
222, -166141.83, -166989.94, -168687.58, -168630.14, -168916.80, -165344.67, -167623.19, 187500.00, 0.000, 0.000, 0.000, 15:43:11.260, 1578577391260
223, -159920.88, -154182.97, -158126.92, -158206.25, -187500.02, -187500.02, -187500.02, -187500.02, 0.000, 0.000, 0.000, 15:43:11.260, 1578577391260
224, -166263.92, -167115.05, -168805.22, -168743.84, -169042.53, -165460.91, -167728.67, 187500.00, 0.000, 0.000, 0.000, 15:43:11.260, 1578577391260
225, -159931.06, -154194.59, -158134.41, -158224.48, -187500.02, -187500.02, -187500.02, -187500.02, 0.000, 0.000, 0.000, 15:43:11.260, 1578577391260
226, -166380.95, -167233.56, -168917.63, -168852.50, -169163.70, -165572.83, -167831.58, 187500.00, 0.000, 0.000, 0.000, 15:43:11.260, 1578577391260
227, -159939.48, -154202.36, -158140.27, -158238.95, -187500.02, -187500.02, -187500.02, -187500.02, 0.000, 0.000, 0.000, 15:43:11.260, 1578577391260
228, -166504.06, -167358.81, -169037.44, -168967.61, -169291.86, -165691.83, -167940.00, 187500.00, 0.000, 0.000, 0.000, 15:43:11.260, 1578577391260
229, -159948.98, -154213.52, -158147.27, -158256.63, -187500.02, -187500.02, -187500.02, -187500.02, 0.000, 0.000, 0.000, 15:43:11.260, 1578577391260
230, -166624.11, -167481.97, -169154.44, -169079.86, -169418.17, -165807.89, -168045.77, 187500.00, 0.000, 0.000, 0.000, 15:43:11.260, 1578577391260
231, -159955.78, -154218.06, -158151.53, -158267.91, -187500.02, -187500.02, -187500.02, -187500.02, -0.014, -0.020, 0.984, 15:43:11.260, 1578577391260
232, -166742.44, -167602.11, -169269.27, -169189.78, -169541.42, -165922.58, -168149.03, 187500.00, 0.000, 0.000, 0.000, 15:43:11.260, 1578577391260
233, -159965.44, -154230.36, -158158.53, -158286.73, -187500.02, -187500.02, -187500.02, -187500.02, 0.000, 0.000, 0.000, 15:43:11.260, 1578577391260
234, -166864.70, -167725.72, -169386.59, -169303.75, -169668.38, -166039.53, -168255.17, 187500.00, 0.000, 0.000, 0.000, 15:43:11.260, 1578577391260
235, -159975.16, -154238.59, -158165.72, -158301.73, -187500.02, -187500.02, -187500.02, -187500.02, 0.000, 0.000, 0.000, 15:43:11.260, 1578577391260
236, -166984.83, -167846.33, -169501.70, -169414.42, -169793.39, -166154.19, -168358.78, 187500.00, 0.000, 0.000, 0.000, 15:43:11.260, 1578577391260
237, -159983.95, -154245.61, -158171.95, -158315.44, -187500.02, -187500.02, -187500.02, -187500.02, 0.000, 0.000, 0.000, 15:43:11.260, 1578577391260
238, -167109.58, -167971.78, -169623.22, -169530.63, -169922.98, -166273.48, -168466.55, 187500.00, 0.000, 0.000, 0.000, 15:43:11.260, 1578577391260
239, -159992.39, -154256.25, -158177.81, -158332.83, -187500.02, -187500.02, -187500.02, -187500.02, 0.000, 0.000, 0.000, 15:43:11.261, 1578577391261
240, -167228.17, -168091.95, -169740.23, -169641.22, -170049.70, -166388.17, -168569.67, 187500.00, 0.000, 0.000, 0.000, 15:43:11.261, 1578577391261
241, -159999.25, -154262.80, -158182.13, -158345.92, -187500.02, -187500.02, -187500.02, -187500.02, -0.010, -0.018, 0.978, 15:43:11.729, 1578577391729
242, -167347.55, -168213.13, -169856.73, -169753.17, -170178.53, -166502.45, -168673.02, 187500.00, 0.000, 0.000, 0.000, 15:43:11.730, 1578577391730
243, -160008.59, -154270.58, -158188.92, -158360.34, -187500.02, -187500.02, -187500.02, -187500.02, 0.000, 0.000, 0.000, 15:43:11.730, 1578577391730
244, -167471.06, -168338.77, -169979.09, -169871.39, -170311.95, -166622.58, -168782.05, 187500.00, 0.000, 0.000, 0.000, 15:43:11.730, 1578577391730
245, -160017.36, -154280.63, -158195.16, -158377.02, -187500.02, -187500.02, -187500.02, -187500.02, 0.000, 0.000, 0.000, 15:43:11.730, 1578577391730
246, -167591.30, -168459.92, -170097.66, -169982.94, -170442.47, -166737.25, -168885.23, 187500.00, 0.000, 0.000, 0.000, 15:43:11.730, 1578577391730
247, -160025.44, -154290.23, -158200.52, -158393.13, -187500.02, -187500.02, -187500.02, -187500.02, 0.000, 0.000, 0.000, 15:43:11.730, 1578577391730
248, -167711.50, -168583.98, -170218.55, -170099.23, -170576.61, -166854.30, -168991.00, 187500.00, 0.000, 0.000, 0.000, 15:43:11.730, 1578577391730
249, -160032.09, -154297.28, -158204.66, -158406.70, -187500.02, -187500.02, -187500.02, -187500.02, 0.000, 0.000, 0.000, 15:43:11.730, 1578577391730
250, -167829.78, -168703.63, -170337.47, -170213.80, -170710.38, -166969.84, -169094.94, 187500.00, 0.000, 0.000, 0.000, 15:43:11.730, 1578577391730
251, -160041.44, -154307.41, -158211.50, -158423.45, -187500.02, -187500.02, -187500.02, -187500.02, -0.014, -0.020, 0.982, 15:43:11.730, 1578577391730
252, -167951.16, -168827.06, -170461.19, -170331.98, -170845.95, -167088.06, -169201.58, 187500.00, 0.000, 0.000, 0.000, 15:43:11.731, 1578577391731
253, -160050.20, -154316.08, -158217.83, -158438.69, -187500.02, -187500.02, -187500.02, -187500.02, 0.000, 0.000, 0.000, 15:43:11.731, 1578577391731
254, -168076.42, -168953.48, -170589.05, -170454.11, -170986.17, -167208.95, -169310.30, 187500.00, 0.000, 0.000, 0.000, 15:43:11.731, 1578577391731
255, -160058.67, -154324.08, -158223.75, -158453.23, -187500.02, -187500.02, -187500.02, -187500.02, 0.000, 0.000, 0.000, 15:43:11.731, 1578577391731
0, -168193.41, -169074.53, -170710.50, -170568.70, -171117.84, -167322.81, -169412.83, 187500.00, 0.000, 0.000, 0.000, 15:43:11.731, 1578577391731
1, -160067.36, -154331.86, -158229.88, -158467.61, -187500.02, -187500.02, -187500.02, -187500.02, 0.000, 0.000, 0.000, 15:43:11.731, 1578577391731
2, -168316.25, -169199.86, -170836.25, -170689.41, -171252.33, -167441.47, -169520.61, 187500.00, 0.000, 0.000, 0.000, 15:43:11.731, 1578577391731
3, -160076.39, -154342.13, -158236.47, -158484.45, -187500.02, -187500.02, -187500.02, -187500.02, 0.000, 0.000, 0.000, 15:43:11.731, 1578577391731
4, -168438.31, -169323.33, -170960.70, -170809.41, -171384.03, -167558.38, -169626.59, 187500.00, -0.018, -0.020, 0.982, 15:43:11.731, 1578577391731
5, -160086.36, -154354.77, -158243.91, -158503.64, -187500.02, -187500.02, -187500.02, -187500.02, 0.000, 0.000, 0.000, 15:43:11.731, 1578577391731
6, -168561.09, -169448.44, -171085.63, -170930.09, -171511.52, -167677.03, -169734.61, 187500.00, 0.000, 0.000, 0.000, 15:43:11.731, 1578577391731
7, -160093.38, -154361.30, -158248.28, -158516.59, -187500.02, -187500.02, -187500.02, -187500.02, 0.000, 0.000, 0.000, 15:43:11.731, 1578577391731
8, -168682.84, -169574.55, -171210.13, -171051.95, -171635.75, -167795.91, -169844.06, 187500.00, 0.000, 0.000, 0.000, 15:43:11.732, 1578577391732
9, -160100.20, -154369.17, -158252.64, -158531.02, -187500.02, -187500.02, -187500.02, -187500.02, 0.000, 0.000, 0.000, 15:43:11.732, 1578577391732
10, -168801.58, -169696.97, -171327.75, -171167.55, -171749.44, -167908.91, -169948.47, 187500.00, 0.000, 0.000, 0.000, 15:43:11.732, 1578577391732
11, -160108.45, -154375.56, -158258.39, -158544.00, -187500.02, -187500.02, -187500.02, -187500.02, 0.000, 0.000, 0.000, 15:43:11.732, 1578577391732
12, -168926.95, -169825.42, -171450.28, -171288.70, -171867.81, -168030.44, -170060.06, 187500.00, 0.000, 0.000, 0.000, 15:43:11.732, 1578577391732
13, -160117.56, -154383.83, -158265.03, -158558.83, -187500.02, -187500.02, -187500.02, -187500.02, 0.000, 0.000, 0.000, 15:43:11.732, 1578577391732
14, -169048.63, -169952.09, -171567.33, -171404.64, -171968.81, -168149.27, -170169.23, 187500.00, -0.020, -0.018, 0.976, 15:43:11.732, 1578577391732
15, -160126.27, -154392.91, -158271.31, -158574.31, -187500.02, -187500.02, -187500.02, -187500.02, 0.000, 0.000, 0.000, 15:43:11.732, 1578577391732
16, -169169.33, -170078.64, -171677.55, -171516.81, -172009.66, -168264.44, -170276.59, 187500.00, 0.000, 0.000, 0.000, 15:43:11.732, 1578577391732
17, -160135.38, -154403.25, -158277.95, -158591.13, -187500.02, -187500.02, -187500.02, -187500.02, 0.000, 0.000, 0.000, 15:43:11.732, 1578577391732
18, -169293.53, -170209.56, -171787.39, -171628.06, -172029.19, -168383.64, -170387.19, 187500.00, 0.000, 0.000, 0.000, 15:43:11.732, 1578577391732
19, -160144.14, -154413.31, -158284.25, -158607.61, -187500.02, -187500.02, -187500.02, -187500.02, 0.000, 0.000, 0.000, 15:43:11.735, 1578577391735
20, -169414.42, -170338.64, -171893.30, -171734.09, -172043.77, -168500.39, -170495.34, 187500.00, 0.000, 0.000, 0.000, 15:43:11.736, 1578577391736
21, -160152.56, -154422.28, -158290.27, -158622.75, -187500.02, -187500.02, -187500.02, -187500.02, 0.000, 0.000, 0.000, 15:43:11.736, 1578577391736
22, -169540.84, -170473.19, -171999.84, -171840.81, -172055.44, -168620.61, -170610.19, 187500.00, 0.000, 0.000, 0.000, 15:43:11.736, 1578577391736
23, -160160.34, -154429.88, -158295.58, -158636.77, -187500.02, -187500.02, -187500.02, -187500.02, 0.000, 0.000, 0.000, 15:43:11.736, 1578577391736
24, -169663.03, -170604.41, -172066.53, -171942.86, -172068.59, -168736.91, -170720.89, 187500.00, -0.016, -0.012, 0.978, 15:43:11.736, 1578577391736
25, -160169.78, -154439.63, -158302.64, -158652.92, -187500.02, -187500.02, -187500.02, -187500.02, 0.000, 0.000, 0.000, 15:43:11.736, 1578577391736
26, -169785.45, -170736.97, -172091.03, -172039.67, -172080.42, -168854.48, -170831.34, 187500.00, 0.000, 0.000, 0.000, 15:43:11.736, 1578577391736
27, -160178.19, -154448.73, -158308.42, -158668.44, -187500.02, -187500.02, -187500.02, -187500.02, 0.000, 0.000, 0.000, 15:43:11.736, 1578577391736
28, -169913.84, -170874.86, -172107.53, -172098.19, -172092.17, -168976.67, -170947.44, 187500.00, 0.000, 0.000, 0.000, 15:43:11.736, 1578577391736
29, -160188.06, -154457.36, -158315.91, -158683.50, -187500.02, -187500.02, -187500.02, -187500.02, 0.000, 0.000, 0.000, 15:43:11.736, 1578577391736
30, -170037.88, -171006.98, -172121.02, -172118.69, -172104.05, -169094.45, -171059.38, 187500.00, 0.000, 0.000, 0.000, 15:43:11.738, 1578577391738
31, -160199.17, -154466.91, -158324.69, -158699.48, -187500.02, -187500.02, -187500.02, -187500.02, 0.000, 0.000, 0.000, 15:43:11.738, 1578577391738
32, -170165.25, -171142.23, -172135.27, -172135.36, -172117.48, -169214.09, -171172.88, 187500.00, 0.000, 0.000, 0.000, 15:43:11.738, 1578577391738
33, -160207.13, -154479.22, -158330.16, -158717.97, -187500.02, -187500.02, -187500.02, -187500.02, 0.000, 0.000, 0.000, 15:43:11.738, 1578577391738
34, -170291.92, -171273.08, -172148.30, -172149.53, -172129.95, -169331.48, -171281.95, 187500.00, -0.020, -0.014, 0.978, 15:43:11.738, 1578577391738
35, -160217.83, -154489.69, -158338.44, -158734.70, -187500.02, -187500.02, -187500.02, -187500.02, 0.000, 0.000, 0.000, 15:43:11.738, 1578577391738
36, -170420.22, -171402.84, -172159.17, -172161.02, -172140.34, -169451.03, -171394.44, 187500.00, 0.000, 0.000, 0.000, 15:43:11.738, 1578577391738
37, -160226.23, -154498.42, -158344.36, -158749.80, -187500.02, -187500.02, -187500.02, -187500.02, 0.000, 0.000, 0.000, 15:43:11.738, 1578577391738
38, -170553.06, -171532.16, -172172.13, -172174.30, -172152.95, -169574.59, -171508.84, 187500.00, 0.000, 0.000, 0.000, 15:43:11.738, 1578577391738
39, -160236.41, -154514.44, -158352.11, -158771.78, -187500.02, -187500.02, -187500.02, -187500.02, 0.000, 0.000, 0.000, 15:43:11.738, 1578577391738
40, -170679.28, -171650.48, -172186.08, -172188.45, -172166.72, -169690.66, -171613.31, 187500.00, 0.000, 0.000, 0.000, 15:43:11.738, 1578577391738
41, -160245.08, -154524.73, -158358.38, -158788.31, -187500.02, -187500.02, -187500.02, -187500.02, 0.000, 0.000, 0.000, 15:43:11.738, 1578577391738
42, -170811.73, -171768.56, -172197.61, -172200.20, -172178.14, -169811.89, -171720.42, 187500.00, 0.000, 0.000, 0.000, 15:43:11.738, 1578577391738
43, -160253.86, -154537.30, -158364.61, -158806.92, -187500.02, -187500.02, -187500.02, -187500.02, -0.014, -0.014, 0.982, 15:43:11.738, 1578577391738
44, -170944.86, -171882.47, -172210.17, -172212.92, -172190.64, -169934.00, -171824.84, 187500.00, 0.000, 0.000, 0.000, 15:43:11.739, 1578577391739
45, -160265.38, -154549.23, -158373.70, -158825.14, -187500.02, -187500.02, -187500.02, -187500.02, 0.000, 0.000, 0.000, 15:43:11.739, 1578577391739
46, -171077.59, -171987.92, -172222.95, -172225.81, -172203.63, -170055.44, -171926.30, 187500.00, 0.000, 0.000, 0.000, 15:43:11.739, 1578577391739
47, -160274.61, -154559.84, -158380.52, -158841.89, -187500.02, -187500.02, -187500.02, -187500.02, 0.000, 0.000, 0.000, 15:43:11.740, 1578577391740
48, -171211.66, -172039.31, -172232.77, -172235.81, -172213.55, -170179.11, -172026.50, 187500.00, 0.000, 0.000, 0.000, 15:43:11.740, 1578577391740
49, -160282.14, -154567.31, -158385.78, -158855.50, -187500.02, -187500.02, -187500.02, -187500.02, 0.000, 0.000, 0.000, 15:43:11.740, 1578577391740
50, -171338.23, -172057.52, -172243.92, -172246.97, -172224.67, -170298.30, -172119.47, 187500.00, 0.000, 0.000, 0.000, 15:43:11.740, 1578577391740
51, -160291.55, -154578.41, -158392.75, -158872.69, -187500.02, -187500.02, -187500.02, -187500.02, 0.000, 0.000, 0.000, 15:43:11.740, 1578577391740
52, -171468.30, -172070.94, -172254.16, -172257.31, -172234.92, -170425.55, -172216.59, 187500.00, 0.000, 0.000, 0.000, 15:43:11.740, 1578577391740
53, -160300.27, -154588.59, -158399.16, -158889.05, -187500.02, -187500.02, -187500.02, -187500.02, -0.018, -0.014, 0.980, 15:43:11.740, 1578577391740
54, -171594.30, -172085.25, -172266.72, -172269.83, -172247.28, -170551.30, -172301.52, 187500.00, 0.000, 0.000, 0.000, 15:43:11.740, 1578577391740
55, -160311.73, -154603.44, -158408.27, -158909.91, -187500.02, -187500.02, -187500.02, -187500.02, 0.000, 0.000, 0.000, 15:43:11.740, 1578577391740
56, -171713.83, -172099.80, -172280.00, -172283.28, -172260.53, -170674.66, -172338.83, 187500.00, 0.000, 0.000, 0.000, 15:43:11.740, 1578577391740
57, -160322.69, -154618.52, -158416.69, -158930.84, -187500.02, -187500.02, -187500.02, -187500.02, 0.000, 0.000, 0.000, 15:43:11.740, 1578577391740
58, -171831.47, -172113.19, -172292.31, -172295.63, -172272.95, -170802.53, -172357.02, 187500.00, 0.000, 0.000, 0.000, 15:43:11.740, 1578577391740
59, -160333.45, -154630.80, -158425.22, -158949.16, -187500.02, -187500.02, -187500.02, -187500.02, 0.000, 0.000, 0.000, 15:43:11.740, 1578577391740
60, -171943.27, -172126.47, -172304.58, -172307.89, -172285.23, -170927.69, -172372.05, 187500.00, 0.000, 0.000, 0.000, 15:43:11.740, 1578577391740
61, -160342.69, -154641.92, -158432.11, -158966.11, -187500.02, -187500.02, -187500.02, -187500.02, 0.000, 0.000, 0.000, 15:43:11.740, 1578577391740
62, -172057.11, -172139.00, -172313.81, -172317.17, -172294.80, -171058.88, -172383.06, 187500.00, 0.000, 0.000, 0.000, 15:43:11.740, 1578577391740
63, -160351.78, -154652.50, -158438.86, -158982.72, -187500.02, -187500.02, -187500.02, -187500.02, -0.020, -0.016, 0.974, 15:43:11.740, 1578577391740
64, -172136.30, -172155.13, -172327.14, -172330.58, -172308.41, -171185.36, -172397.53, 187500.00, 0.000, 0.000, 0.000, 15:43:11.740, 1578577391740
65, -160363.34, -154669.75, -158447.98, -159005.75, -187500.02, -187500.02, -187500.02, -187500.02, 0.000, 0.000, 0.000, 15:43:11.741, 1578577391741
66, -172162.41, -172167.91, -172339.50, -172342.98, -172320.77, -171310.38, -172410.73, 187500.00, 0.000, 0.000, 0.000, 15:43:11.741, 1578577391741
67, -160375.27, -154682.92, -158457.69, -159024.92, -187500.02, -187500.02, -187500.02, -187500.02, 0.000, 0.000, 0.000, 15:43:11.741, 1578577391741
68, -172182.03, -172183.23, -172354.55, -172358.05, -172335.88, -171440.47, -172426.42, 187500.00, 0.000, 0.000, 0.000, 15:43:11.741, 1578577391741
69, -160387.91, -154697.89, -158468.13, -159045.83, -187500.02, -187500.02, -187500.02, -187500.02, 0.000, 0.000, 0.000, 15:43:11.741, 1578577391741
70, -172195.23, -172194.33, -172365.36, -172368.84, -172346.78, -171563.31, -172437.75, 187500.00, 0.000, 0.000, 0.000, 15:43:11.741, 1578577391741
71, -160399.36, -154710.77, -158477.27, -159064.58, -187500.02, -187500.02, -187500.02, -187500.02, 0.000, 0.000, 0.000, 15:43:11.741, 1578577391741
72, -172208.63, -172206.39, -172377.27, -172380.73, -172358.70, -171687.08, -172449.94, 187500.00, 0.000, 0.000, 0.000, 15:43:11.741, 1578577391741
73, -160408.30, -154720.63, -158483.89, -159080.27, -187500.02, -187500.02, -187500.02, -187500.02, -0.022, -0.016, 0.974, 15:43:11.741, 1578577391741
74, -172219.72, -172216.61, -172387.33, -172390.81, -172368.84, -171805.67, -172460.36, 187500.00, 0.000, 0.000, 0.000, 15:43:11.741, 1578577391741
75, -160418.94, -154732.83, -158492.09, -159098.38, -187500.02, -187500.02, -187500.02, -187500.02, 0.000, 0.000, 0.000, 15:43:11.741, 1578577391741
76, -172231.25, -172227.63, -172398.13, -172401.69, -172379.69, -171922.30, -172471.31, 187500.00, 0.000, 0.000, 0.000, 15:43:11.741, 1578577391741
77, -160429.78, -154744.41, -158500.59, -159115.80, -187500.02, -187500.02, -187500.02, -187500.02, 0.000, 0.000, 0.000, 15:43:11.741, 1578577391741
78, -172244.19, -172240.14, -172410.31, -172413.91, -172392.00, -172038.58, -172483.88, 187500.00, 0.000, 0.000, 0.000, 15:43:11.741, 1578577391741
79, -160441.13, -154758.64, -158509.78, -159135.77, -187500.02, -187500.02, -187500.02, -187500.02, 0.000, 0.000, 0.000, 15:43:11.741, 1578577391741
80, -172257.27, -172252.73, -172422.84, -172426.42, -172404.75, -172145.39, -172496.61, 187500.00, 0.000, 0.000, 0.000, 15:43:11.741, 1578577391741
81, -160452.11, -154771.94, -158518.59, -159154.89, -187500.02, -187500.02, -187500.02, -187500.02, 0.000, 0.000, 0.000, 15:43:11.741, 1578577391741
82, -172269.69, -172264.84, -172434.77, -172438.30, -172418.13, -172256.39, -172508.59, 187500.00, -0.022, -0.014, 0.978, 15:43:11.741, 1578577391741
83, -160462.75, -154784.84, -158526.84, -159173.55, -187500.02, -187500.02, -187500.02, -187500.02, 0.000, 0.000, 0.000, 15:43:11.742, 1578577391742
84, -172281.55, -172276.41, -172445.94, -172449.47, -172431.36, -172343.77, -172519.81, 187500.00, 0.000, 0.000, 0.000, 15:43:11.742, 1578577391742
85, -160474.80, -154799.22, -158536.66, -159193.67, -187500.02, -187500.02, -187500.02, -187500.02, 0.000, 0.000, 0.000, 15:43:11.742, 1578577391742
86, -172295.64, -172290.38, -172459.66, -172463.33, -172445.22, -172377.50, -172533.89, 187500.00, 0.000, 0.000, 0.000, 15:43:11.742, 1578577391742
87, -160485.31, -154815.13, -158544.81, -159215.09, -187500.02, -187500.02, -187500.02, -187500.02, 0.000, 0.000, 0.000, 15:43:11.742, 1578577391742
88, -172305.66, -172300.09, -172469.31, -172472.98, -172454.97, -172392.63, -172543.64, 187500.00, 0.000, 0.000, 0.000, 15:43:11.742, 1578577391742
89, -160494.38, -154826.45, -158551.63, -159232.13, -187500.02, -187500.02, -187500.02, -187500.02, 0.000, 0.000, 0.000, 15:43:11.742, 1578577391742
90, -172316.03, -172310.39, -172479.58, -172483.16, -172465.16, -172405.39, -172553.92, 187500.00, 0.000, 0.000, 0.000, 15:43:11.742, 1578577391742
91, -160503.22, -154839.31, -158558.16, -159250.50, -187500.02, -187500.02, -187500.02, -187500.02, 0.000, 0.000, 0.000, 15:43:11.742, 1578577391742
92, -172326.78, -172321.08, -172490.06, -172493.72, -172475.69, -172417.59, -172564.63, 187500.00, -0.018, -0.014, 0.978, 15:43:11.742, 1578577391742
93, -160513.61, -154852.81, -158566.44, -159269.63, -187500.02, -187500.02, -187500.02, -187500.02, 0.000, 0.000, 0.000, 15:43:11.742, 1578577391742
94, -172339.00, -172333.08, -172502.05, -172505.77, -172487.64, -172430.73, -172576.67, 187500.00, 0.000, 0.000, 0.000, 15:43:11.742, 1578577391742
95, -160525.34, -154870.03, -158575.98, -159292.27, -187500.02, -187500.02, -187500.02, -187500.02, 0.000, 0.000, 0.000, 15:43:11.742, 1578577391742
96, -172351.56, -172345.42, -172514.48, -172518.14, -172499.92, -172443.92, -172589.08, 187500.00, 0.000, 0.000, 0.000, 15:43:11.742, 1578577391742
97, -160536.44, -154882.63, -158585.00, -159310.52, -187500.02, -187500.02, -187500.02, -187500.02, 0.000, 0.000, 0.000, 15:43:11.742, 1578577391742
98, -172363.95, -172357.78, -172526.66, -172530.36, -172512.19, -172456.80, -172601.33, 187500.00, 0.000, 0.000, 0.000, 15:43:11.742, 1578577391742
99, -160548.91, -154898.34, -158595.25, -159331.72, -187500.02, -187500.02, -187500.02, -187500.02, 0.000, 0.000, 0.000, 15:43:11.742, 1578577391742
100, -172376.48, -172370.23, -172539.08, -172542.78, -172524.59, -172469.77, -172613.80, 187500.00, 0.000, 0.000, 0.000, 15:43:11.742, 1578577391742
101, -160558.44, -154910.33, -158602.55, -159349.31, -187500.02, -187500.02, -187500.02, -187500.02, 0.000, 0.000, 0.000, 15:43:11.742, 1578577391742
102, -172387.31, -172380.92, -172549.72, -172553.52, -172535.23, -172480.88, -172624.50, 187500.00, -0.018, -0.014, 0.978, 15:43:11.743, 1578577391743
103, -160569.61, -154924.45, -158611.38, -159369.00, -187500.02, -187500.02, -187500.02, -187500.02, 0.000, 0.000, 0.000, 15:43:11.743, 1578577391743
104, -172398.69, -172392.34, -172561.03, -172564.80, -172546.47, -172492.63, -172635.86, 187500.00, 0.000, 0.000, 0.000, 15:43:11.743, 1578577391743
105, -160580.33, -154940.16, -158619.86, -159390.03, -187500.02, -187500.02, -187500.02, -187500.02, 0.000, 0.000, 0.000, 15:43:12.214, 1578577392214
106, -172410.06, -172403.73, -172572.34, -172576.11, -172557.77, -172504.28, -172647.27, 187500.00, 0.000, 0.000, 0.000, 15:43:12.215, 1578577392215
107, -160590.66, -154951.27, -158628.16, -159406.75, -187500.02, -187500.02, -187500.02, -187500.02, 0.000, 0.000, 0.000, 15:43:12.215, 1578577392215
108, -172420.81, -172414.28, -172582.91, -172586.78, -172568.33, -172515.19, -172657.75, 187500.00, 0.000, 0.000, 0.000, 15:43:12.215, 1578577392215
109, -160601.61, -154965.28, -158636.94, -159426.22, -187500.02, -187500.02, -187500.02, -187500.02, 0.000, 0.000, 0.000, 15:43:12.215, 1578577392215
110, -172433.06, -172426.67, -172595.11, -172598.94, -172580.55, -172527.70, -172669.95, 187500.00, 0.000, 0.000, 0.000, 15:43:12.215, 1578577392215
111, -160612.80, -154981.05, -158645.91, -159447.13, -187500.02, -187500.02, -187500.02, -187500.02, 0.000, 0.000, 0.000, 15:43:12.215, 1578577392215
112, -172445.38, -172438.73, -172607.31, -172611.08, -172592.61, -172540.11, -172682.22, 187500.00, -0.018, -0.012, 0.974, 15:43:12.215, 1578577392215
113, -160623.83, -154993.63, -158654.78, -159465.20, -187500.02, -187500.02, -187500.02, -187500.02, 0.000, 0.000, 0.000, 15:43:12.215, 1578577392215
114, -172457.06, -172450.41, -172618.94, -172622.72, -172604.39, -172551.97, -172693.94, 187500.00, 0.000, 0.000, 0.000, 15:43:12.215, 1578577392215
115, -160636.19, -155006.38, -158665.22, -159483.36, -187500.02, -187500.02, -187500.02, -187500.02, 0.000, 0.000, 0.000, 15:43:12.215, 1578577392215
116, -172469.19, -172462.39, -172630.94, -172634.70, -172616.19, -172564.11, -172705.86, 187500.00, 0.000, 0.000, 0.000, 15:43:12.215, 1578577392215
117, -160647.77, -155023.64, -158674.58, -159505.95, -187500.02, -187500.02, -187500.02, -187500.02, 0.000, 0.000, 0.000, 15:43:12.215, 1578577392215
118, -172482.08, -172475.23, -172643.64, -172647.48, -172629.02, -172577.03, -172718.77, 187500.00, 0.000, 0.000, 0.000, 15:43:12.215, 1578577392215
119, -160657.52, -155036.61, -158682.20, -159524.16, -187500.02, -187500.02, -187500.02, -187500.02, 0.000, 0.000, 0.000, 15:43:12.215, 1578577392215
120, -172492.52, -172485.55, -172653.98, -172657.78, -172639.34, -172587.48, -172728.95, 187500.00, 0.000, 0.000, 0.000, 15:43:12.215, 1578577392215
121, -160668.11, -155051.13, -158690.66, -159543.97, -187500.02, -187500.02, -187500.02, -187500.02, 0.000, 0.000, 0.000, 15:43:12.215, 1578577392215
122, -172503.58, -172496.66, -172664.94, -172668.83, -172650.34, -172598.64, -172740.06, 187500.00, -0.018, -0.014, 0.976, 15:43:12.215, 1578577392215
123, -160678.66, -155062.77, -158699.09, -159561.05, -187500.02, -187500.02, -187500.02, -187500.02, 0.000, 0.000, 0.000, 15:43:12.216, 1578577392216
124, -172514.63, -172507.72, -172675.95, -172679.83, -172661.34, -172609.91, -172751.11, 187500.00, 0.000, 0.000, 0.000, 15:43:12.216, 1578577392216
125, -160688.70, -155075.55, -158707.11, -159579.06, -187500.02, -187500.02, -187500.02, -187500.02, 0.000, 0.000, 0.000, 15:43:12.216, 1578577392216
126, -172526.47, -172519.41, -172687.81, -172691.58, -172673.02, -172621.72, -172762.80, 187500.00, 0.000, 0.000, 0.000, 15:43:12.216, 1578577392216
127, -160699.61, -155091.63, -158715.95, -159600.34, -187500.02, -187500.02, -187500.02, -187500.02, 0.000, 0.000, 0.000, 15:43:12.216, 1578577392216
128, -172538.05, -172530.97, -172699.34, -172703.14, -172684.47, -172633.38, -172774.36, 187500.00, 0.000, 0.000, 0.000, 15:43:12.216, 1578577392216
129, -160711.81, -155106.06, -158726.08, -159619.92, -187500.02, -187500.02, -187500.02, -187500.02, 0.000, 0.000, 0.000, 15:43:12.216, 1578577392216
130, -172550.52, -172543.48, -172711.77, -172715.59, -172697.02, -172645.94, -172786.78, 187500.00, 0.000, 0.000, 0.000, 15:43:12.216, 1578577392216
131, -160722.98, -155117.50, -158735.16, -159636.69, -187500.02, -187500.02, -187500.02, -187500.02, -0.018, -0.012, 0.972, 15:43:12.216, 1578577392216
132, -172562.25, -172555.22, -172723.48, -172727.23, -172708.69, -172657.77, -172798.36, 187500.00, 0.000, 0.000, 0.000, 15:43:12.216, 1578577392216
133, -160733.89, -155132.81, -158744.13, -159657.13, -187500.02, -187500.02, -187500.02, -187500.02, 0.000, 0.000, 0.000, 15:43:12.216, 1578577392216
134, -172574.02, -172566.88, -172735.14, -172738.88, -172720.33, -172669.45, -172810.03, 187500.00, 0.000, 0.000, 0.000, 15:43:12.216, 1578577392216
135, -160744.47, -155145.16, -158752.59, -159674.63, -187500.02, -187500.02, -187500.02, -187500.02, 0.000, 0.000, 0.000, 15:43:12.216, 1578577392216
136, -172582.84, -172575.75, -172744.00, -172747.75, -172729.16, -172678.33, -172818.92, 187500.00, 0.000, 0.000, 0.000, 15:43:12.216, 1578577392216
137, -160754.70, -155155.66, -158760.77, -159690.31, -187500.02, -187500.02, -187500.02, -187500.02, 0.000, 0.000, 0.000, 15:43:12.216, 1578577392216
138, -172596.16, -172588.97, -172757.16, -172760.89, -172742.34, -172691.66, -172832.17, 187500.00, 0.000, 0.000, 0.000, 15:43:12.216, 1578577392216
139, -160765.88, -155173.52, -158769.86, -159713.20, -187500.02, -187500.02, -187500.02, -187500.02, 0.000, 0.000, 0.000, 15:43:12.217, 1578577392217
140, -172607.45, -172600.23, -172768.39, -172772.19, -172753.63, -172702.92, -172843.34, 187500.00, 0.000, 0.000, 0.000, 15:43:12.217, 1578577392217
141, -160776.31, -155186.64, -158778.20, -159731.44, -187500.02, -187500.02, -187500.02, -187500.02, -0.014, -0.012, 0.976, 15:43:12.217, 1578577392217
142, -172620.02, -172612.81, -172780.95, -172784.75, -172766.11, -172715.56, -172855.88, 187500.00, 0.000, 0.000, 0.000, 15:43:12.217, 1578577392217
143, -160788.70, -155203.28, -158788.58, -159753.13, -187500.02, -187500.02, -187500.02, -187500.02, 0.000, 0.000, 0.000, 15:43:12.217, 1578577392217
144, -172631.81, -172624.69, -172792.81, -172796.53, -172777.86, -172727.41, -172867.73, 187500.00, 0.000, 0.000, 0.000, 15:43:12.217, 1578577392217
145, -160799.16, -155216.70, -158797.06, -159771.58, -187500.02, -187500.02, -187500.02, -187500.02, 0.000, 0.000, 0.000, 15:43:12.217, 1578577392217
146, -172643.91, -172636.84, -172804.75, -172808.59, -172789.91, -172739.58, -172879.81, 187500.00, 0.000, 0.000, 0.000, 15:43:12.217, 1578577392217
147, -160810.61, -155233.34, -158806.56, -159793.27, -187500.02, -187500.02, -187500.02, -187500.02, 0.000, 0.000, 0.000, 15:43:12.217, 1578577392217
148, -172656.30, -172649.20, -172817.06, -172821.02, -172802.30, -172752.02, -172892.13, 187500.00, 0.000, 0.000, 0.000, 15:43:12.217, 1578577392217
149, -160820.94, -155246.94, -158814.91, -159811.81, -187500.02, -187500.02, -187500.02, -187500.02, 0.000, 0.000, 0.000, 15:43:12.217, 1578577392217
150, -172667.38, -172660.17, -172828.11, -172831.95, -172813.27, -172763.05, -172903.09, 187500.00, 0.000, 0.000, 0.000, 15:43:12.217, 1578577392217
151, -160831.45, -155259.81, -158823.47, -159829.63, -187500.02, -187500.02, -187500.02, -187500.02, -0.018, -0.012, 0.976, 15:43:12.217, 1578577392217
152, -172677.05, -172669.81, -172837.78, -172841.61, -172822.92, -172772.78, -172912.70, 187500.00, 0.000, 0.000, 0.000, 15:43:12.217, 1578577392217
153, -160839.91, -155270.44, -158829.80, -159845.17, -187500.02, -187500.02, -187500.02, -187500.02, 0.000, 0.000, 0.000, 15:43:12.217, 1578577392217
154, -172687.53, -172680.30, -172848.27, -172852.09, -172833.45, -172783.34, -172923.23, 187500.00, 0.000, 0.000, 0.000, 15:43:12.217, 1578577392217
155, -160852.20, -155287.52, -158839.98, -159867.06, -187500.02, -187500.02, -187500.02, -187500.02, 0.000, 0.000, 0.000, 15:43:12.217, 1578577392217
156, -172701.16, -172693.95, -172861.80, -172865.72, -172846.97, -172797.00, -172936.78, 187500.00, 0.000, 0.000, 0.000, 15:43:12.218, 1578577392218
157, -160863.08, -155302.33, -158848.98, -159886.83, -187500.02, -187500.02, -187500.02, -187500.02, 0.000, 0.000, 0.000, 15:43:12.218, 1578577392218
158, -172712.06, -172704.86, -172872.70, -172876.55, -172857.80, -172807.88, -172947.73, 187500.00, 0.000, 0.000, 0.000, 15:43:12.218, 1578577392218
159, -160873.13, -155313.55, -158857.23, -159902.98, -187500.02, -187500.02, -187500.02, -187500.02, 0.000, 0.000, 0.000, 15:43:12.218, 1578577392218
160, -172724.39, -172717.17, -172885.00, -172888.84, -172870.08, -172820.17, -172959.88, 187500.00, 0.000, 0.000, 0.000, 15:43:12.218, 1578577392218
161, -160885.14, -155330.83, -158867.09, -159924.98, -187500.02, -187500.02, -187500.02, -187500.02, -0.014, -0.016, 0.974, 15:43:12.218, 1578577392218
162, -172735.19, -172727.92, -172895.77, -172899.56, -172880.81, -172830.91, -172970.73, 187500.00, 0.000, 0.000, 0.000, 15:43:12.218, 1578577392218
163, -160894.17, -155342.94, -158874.19, -159941.97, -187500.02, -187500.02, -187500.02, -187500.02, 0.000, 0.000, 0.000, 15:43:12.218, 1578577392218
164, -172746.08, -172738.81, -172906.63, -172910.52, -172891.77, -172841.92, -172981.55, 187500.00, 0.000, 0.000, 0.000, 15:43:12.218, 1578577392218
165, -160904.55, -155355.92, -158882.67, -159959.81, -187500.02, -187500.02, -187500.02, -187500.02, 0.000, 0.000, 0.000, 15:43:12.218, 1578577392218
166, -172758.50, -172751.13, -172919.02, -172922.80, -172904.02, -172854.22, -172993.88, 187500.00, 0.000, 0.000, 0.000, 15:43:12.218, 1578577392218
167, -160917.36, -155372.94, -158893.52, -159981.48, -187500.02, -187500.02, -187500.02, -187500.02, 0.000, 0.000, 0.000, 15:43:12.218, 1578577392218
168, -172770.31, -172763.02, -172930.84, -172934.70, -172915.81, -172866.16, -173005.64, 187500.00, 0.000, 0.000, 0.000, 15:43:12.218, 1578577392218
169, -160927.70, -155386.80, -158901.98, -160000.13, -187500.02, -187500.02, -187500.02, -187500.02, 0.000, 0.000, 0.000, 15:43:12.218, 1578577392218
170, -172782.94, -172775.61, -172943.28, -172947.13, -172928.28, -172878.67, -173018.19, 187500.00, -0.012, -0.016, 0.976, 15:43:12.218, 1578577392218
171, -160937.19, -155399.56, -158909.50, -160017.72, -187500.02, -187500.02, -187500.02, -187500.02, 0.000, 0.000, 0.000, 15:43:12.218, 1578577392218
172, -172791.30, -172783.97, -172951.64, -172955.56, -172936.67, -172887.16, -173026.56, 187500.00, 0.000, 0.000, 0.000, 15:43:12.218, 1578577392218
173, -160946.84, -155411.73, -158917.17, -160034.47, -187500.02, -187500.02, -187500.02, -187500.02, 0.000, 0.000, 0.000, 15:43:12.219, 1578577392219
174, -172802.69, -172795.30, -172963.00, -172966.84, -172947.95, -172898.41, -173037.91, 187500.00, 0.000, 0.000, 0.000, 15:43:12.219, 1578577392219
175, -160957.36, -155426.67, -158925.77, -160054.16, -187500.02, -187500.02, -187500.02, -187500.02, 0.000, 0.000, 0.000, 15:43:12.219, 1578577392219
176, -172814.89, -172807.52, -172975.23, -172979.11, -172960.20, -172910.67, -173050.13, 187500.00, 0.000, 0.000, 0.000, 15:43:12.219, 1578577392219
177, -160968.20, -155440.73, -158934.75, -160072.95, -187500.02, -187500.02, -187500.02, -187500.02, 0.000, 0.000, 0.000, 15:43:12.219, 1578577392219
178, -172825.31, -172817.98, -172985.59, -172989.47, -172970.56, -172921.14, -173060.44, 187500.00, 0.000, 0.000, 0.000, 15:43:12.219, 1578577392219
179, -160978.55, -155452.75, -158943.30, -160089.58, -187500.02, -187500.02, -187500.02, -187500.02, 0.000, 0.000, 0.000, 15:43:12.219, 1578577392219
180, -172837.94, -172830.59, -172998.16, -173002.11, -172983.14, -172933.78, -173073.06, 187500.00, -0.014, -0.020, 0.976, 15:43:12.219, 1578577392219
181, -160991.50, -155470.50, -158954.33, -160111.94, -187500.02, -187500.02, -187500.02, -187500.02, 0.000, 0.000, 0.000, 15:43:12.219, 1578577392219
182, -172851.36, -172843.95, -173011.58, -173015.48, -172996.48, -172947.17, -173086.42, 187500.00, 0.000, 0.000, 0.000, 15:43:12.219, 1578577392219
183, -161003.00, -155484.89, -158963.98, -160131.00, -187500.02, -187500.02, -187500.02, -187500.02, 0.000, 0.000, 0.000, 15:43:12.219, 1578577392219
184, -172862.34, -172854.89, -173022.56, -173026.53, -173007.53, -172958.17, -173097.36, 187500.00, 0.000, 0.000, 0.000, 15:43:12.219, 1578577392219
185, -161012.59, -155494.84, -158971.72, -160145.66, -187500.02, -187500.02, -187500.02, -187500.02, 0.000, 0.000, 0.000, 15:43:12.219, 1578577392219
186, -172872.61, -172865.14, -173032.77, -173036.69, -173017.81, -172968.41, -173107.58, 187500.00, 0.000, 0.000, 0.000, 15:43:12.219, 1578577392219
187, -161022.91, -155508.66, -158980.16, -160163.98, -187500.02, -187500.02, -187500.02, -187500.02, 0.000, 0.000, 0.000, 15:43:12.219, 1578577392219
188, -172883.25, -172875.78, -173043.47, -173047.31, -173028.38, -172979.00, -173118.13, 187500.00, 0.000, 0.000, 0.000, 15:43:12.219, 1578577392219
189, -161033.98, -155520.27, -158989.30, -160180.28, -187500.02, -187500.02, -187500.02, -187500.02, 0.000, 0.000, 0.000, 15:43:12.219, 1578577392219
190, -172896.06, -172888.61, -173056.23, -173060.19, -173041.23, -172991.92, -173130.97, 187500.00, -0.012, -0.016, 0.978, 15:43:12.220, 1578577392220
191, -161046.28, -155538.52, -158999.80, -160202.95, -187500.02, -187500.02, -187500.02, -187500.02, 0.000, 0.000, 0.000, 15:43:12.220, 1578577392220
192, -172907.75, -172900.22, -173067.83, -173071.73, -173052.67, -173003.55, -173142.50, 187500.00, 0.000, 0.000, 0.000, 15:43:12.220, 1578577392220
193, -161056.39, -155550.44, -159008.03, -160219.47, -187500.02, -187500.02, -187500.02, -187500.02, 0.000, 0.000, 0.000, 15:43:12.220, 1578577392220
194, -172918.86, -172911.38, -173078.92, -173082.97, -173063.83, -173014.70, -173153.59, 187500.00, 0.000, 0.000, 0.000, 15:43:12.220, 1578577392220
195, -161066.42, -155565.67, -159016.09, -160239.11, -187500.02, -187500.02, -187500.02, -187500.02, 0.000, 0.000, 0.000, 15:43:12.220, 1578577392220
196, -172931.95, -172924.48, -173092.03, -173096.06, -173076.97, -173027.80, -173166.78, 187500.00, 0.000, 0.000, 0.000, 15:43:12.220, 1578577392220
197, -161077.42, -155583.02, -159025.25, -160260.70, -187500.02, -187500.02, -187500.02, -187500.02, 0.000, 0.000, 0.000, 15:43:12.220, 1578577392220
198, -172942.09, -172934.56, -173102.14, -173106.13, -173087.03, -173037.86, -173176.84, 187500.00, 0.000, 0.000, 0.000, 15:43:12.220, 1578577392220
199, -161085.94, -155592.23, -159031.97, -160274.45, -187500.02, -187500.02, -187500.02, -187500.02, 0.000, 0.000, 0.000, 15:43:12.220, 1578577392220
200, -172951.75, -172944.31, -173111.80, -173115.80, -173096.66, -173047.58, -173186.41, 187500.00, -0.014, -0.014, 0.978, 15:43:12.220, 1578577392220
201, -161098.20, -155609.06, -159042.31, -160295.59, -187500.02, -187500.02, -187500.02, -187500.02, 0.000, 0.000, 0.000, 15:43:12.220, 1578577392220
202, -172964.45, -172957.02, -173124.52, -173128.52, -173109.47, -173060.31, -173199.14, 187500.00, 0.000, 0.000, 0.000, 15:43:12.220, 1578577392220
203, -161107.25, -155621.59, -159049.70, -160312.45, -187500.02, -187500.02, -187500.02, -187500.02, 0.000, 0.000, 0.000, 15:43:12.220, 1578577392220
204, -172974.58, -172967.14, -173134.66, -173138.69, -173119.55, -173070.44, -173209.36, 187500.00, 0.000, 0.000, 0.000, 15:43:12.220, 1578577392220
205, -161117.38, -155634.41, -159058.09, -160329.66, -187500.02, -187500.02, -187500.02, -187500.02, 0.000, 0.000, 0.000, 15:43:12.220, 1578577392220
206, -172986.20, -172978.84, -173146.38, -173150.38, -173131.17, -173082.16, -173220.94, 187500.00, 0.000, 0.000, 0.000, 15:43:12.220, 1578577392220
207, -161128.02, -155649.16, -159066.86, -160348.80, -187500.02, -187500.02, -187500.02, -187500.02, 0.000, 0.000, 0.000, 15:43:12.220, 1578577392220
208, -172997.73, -172990.38, -173157.78, -173161.80, -173142.55, -173093.64, -173232.27, 187500.00, 0.000, 0.000, 0.000, 15:43:12.221, 1578577392221
209, -161138.66, -155660.67, -159075.59, -160364.64, -187500.02, -187500.02, -187500.02, -187500.02, -0.016, -0.014, 0.978, 15:43:12.221, 1578577392221
210, -173007.69, -173000.27, -173167.61, -173171.67, -173152.36, -173103.58, -173242.13, 187500.00, 0.000, 0.000, 0.000, 15:43:12.221, 1578577392221
211, -161149.20, -155675.63, -159084.33, -160383.78, -187500.02, -187500.02, -187500.02, -187500.02, 0.000, 0.000, 0.000, 15:43:12.221, 1578577392221
212, -173021.03, -173013.47, -173180.95, -173184.95, -173165.64, -173116.83, -173255.41, 187500.00, 0.000, 0.000, 0.000, 15:43:12.222, 1578577392222
213, -161159.33, -155691.55, -159092.77, -160403.98, -187500.02, -187500.02, -187500.02, -187500.02, 0.000, 0.000, 0.000, 15:43:12.222, 1578577392222
214, -173029.98, -173022.45, -173189.89, -173193.94, -173174.61, -173125.81, -173264.39, 187500.00, 0.000, 0.000, 0.000, 15:43:12.222, 1578577392222
215, -161168.80, -155704.58, -159100.53, -160421.23, -187500.02, -187500.02, -187500.02, -187500.02, 0.000, 0.000, 0.000, 15:43:12.222, 1578577392222
216, -173043.91, -173036.41, -173203.84, -173207.80, -173188.66, -173139.92, -173278.31, 187500.00, 0.000, 0.000, 0.000, 15:43:12.222, 1578577392222
217, -161181.11, -155718.89, -159111.06, -160439.81, -187500.02, -187500.02, -187500.02, -187500.02, 0.000, 0.000, 0.000, 15:43:12.222, 1578577392222
218, -173054.06, -173046.69, -173214.14, -173218.06, -173198.81, -173150.11, -173288.48, 187500.00, 0.000, 0.000, 0.000, 15:43:12.222, 1578577392222
219, -161190.83, -155731.44, -159119.02, -160456.58, -187500.02, -187500.02, -187500.02, -187500.02, -0.016, -0.010, 0.980, 15:43:12.222, 1578577392222
220, -173064.03, -173056.52, -173224.06, -173228.00, -173208.72, -173159.97, -173298.25, 187500.00, 0.000, 0.000, 0.000, 15:43:12.222, 1578577392222
221, -161200.16, -155743.83, -159126.41, -160473.06, -187500.02, -187500.02, -187500.02, -187500.02, 0.000, 0.000, 0.000, 15:43:12.222, 1578577392222
222, -173076.13, -173068.66, -173236.09, -173240.08, -173220.78, -173172.09, -173310.44, 187500.00, 0.000, 0.000, 0.000, 15:43:12.223, 1578577392223
223, -161211.55, -155759.56, -159136.06, -160492.83, -187500.02, -187500.02, -187500.02, -187500.02, 0.000, 0.000, 0.000, 15:43:12.223, 1578577392223
224, -173087.61, -173080.06, -173247.45, -173251.42, -173232.19, -173183.52, -173321.81, 187500.00, 0.000, 0.000, 0.000, 15:43:12.223, 1578577392223
225, -161220.73, -155772.94, -159143.45, -160510.42, -187500.02, -187500.02, -187500.02, -187500.02, 0.000, 0.000, 0.000, 15:43:12.693, 1578577392693
226, -173097.16, -173089.59, -173257.00, -173260.95, -173241.69, -173193.05, -173331.31, 187500.00, 0.000, 0.000, 0.000, 15:43:12.694, 1578577392694
227, -161231.47, -155785.47, -159152.55, -160527.11, -187500.02, -187500.02, -187500.02, -187500.02, 0.000, 0.000, 0.000, 15:43:12.694, 1578577392694
228, -173109.84, -173102.34, -173269.72, -173273.69, -173254.38, -173205.72, -173343.98, 187500.00, 0.000, 0.000, 0.000, 15:43:12.694, 1578577392694
229, -161243.38, -155800.23, -159162.86, -160545.88, -187500.02, -187500.02, -187500.02, -187500.02, -0.022, -0.010, 0.978, 15:43:12.694, 1578577392694
230, -173122.81, -173115.17, -173282.58, -173286.55, -173267.28, -173218.56, -173356.80, 187500.00, 0.000, 0.000, 0.000, 15:43:12.694, 1578577392694
231, -161253.91, -155815.77, -159171.64, -160565.38, -187500.02, -187500.02, -187500.02, -187500.02, 0.000, 0.000, 0.000, 15:43:12.694, 1578577392694
232, -173133.30, -173125.78, -173293.03, -173297.11, -173277.80, -173229.19, -173367.28, 187500.00, 0.000, 0.000, 0.000, 15:43:12.694, 1578577392694
233, -161263.25, -155829.66, -159179.27, -160583.27, -187500.02, -187500.02, -187500.02, -187500.02, 0.000, 0.000, 0.000, 15:43:12.694, 1578577392694
234, -173145.66, -173138.17, -173305.42, -173309.39, -173290.16, -173241.48, -173379.61, 187500.00, 0.000, 0.000, 0.000, 15:43:12.694, 1578577392694
235, -161273.67, -155843.64, -159187.94, -160601.17, -187500.02, -187500.02, -187500.02, -187500.02, 0.000, 0.000, 0.000, 15:43:12.694, 1578577392694
236, -173155.00, -173147.41, -173314.69, -173318.75, -173299.42, -173250.83, -173388.89, 187500.00, 0.000, 0.000, 0.000, 15:43:12.694, 1578577392694
237, -161284.61, -155858.08, -159197.25, -160619.63, -187500.02, -187500.02, -187500.02, -187500.02, 0.000, 0.000, 0.000, 15:43:12.694, 1578577392694
238, -173166.80, -173159.14, -173326.53, -173330.53, -173311.16, -173262.58, -173400.69, 187500.00, 0.000, 0.000, 0.000, 15:43:12.694, 1578577392694
239, -161294.05, -155868.56, -159205.03, -160634.09, -187500.02, -187500.02, -187500.02, -187500.02, -0.020, -0.010, 0.978, 15:43:12.694, 1578577392694
240, -173177.84, -173170.16, -173337.55, -173341.58, -173322.13, -173273.59, -173411.63, 187500.00, 0.000, 0.000, 0.000, 15:43:12.695, 1578577392695
241, -161306.23, -155885.94, -159215.38, -160655.34, -187500.02, -187500.02, -187500.02, -187500.02, 0.000, 0.000, 0.000, 15:43:12.695, 1578577392695
242, -173191.17, -173183.48, -173350.83, -173354.83, -173335.42, -173286.92, -173424.94, 187500.00, 0.000, 0.000, 0.000, 15:43:12.695, 1578577392695
243, -161315.97, -155899.48, -159223.47, -160672.84, -187500.02, -187500.02, -187500.02, -187500.02, 0.000, 0.000, 0.000, 15:43:12.695, 1578577392695
244, -173201.97, -173194.31, -173361.63, -173365.63, -173346.20, -173297.67, -173435.66, 187500.00, 0.000, 0.000, 0.000, 15:43:12.695, 1578577392695
245, -161327.27, -155914.75, -159233.16, -160691.89, -187500.02, -187500.02, -187500.02, -187500.02, 0.000, 0.000, 0.000, 15:43:12.695, 1578577392695
246, -173212.88, -173205.31, -173372.50, -173376.59, -173357.16, -173308.64, -173446.64, 187500.00, 0.000, 0.000, 0.000, 15:43:12.695, 1578577392695
247, -161337.13, -155927.97, -159241.36, -160709.03, -187500.02, -187500.02, -187500.02, -187500.02, 0.000, 0.000, 0.000, 15:43:12.695, 1578577392695
248, -173223.78, -173216.16, -173383.39, -173387.38, -173367.97, -173319.53, -173457.38, 187500.00, -0.022, -0.012, 0.976, 15:43:12.695, 1578577392695
249, -161346.70, -155937.30, -159249.38, -160722.34, -187500.02, -187500.02, -187500.02, -187500.02, 0.000, 0.000, 0.000, 15:43:12.695, 1578577392695
250, -173234.34, -173226.73, -173393.94, -173397.94, -173378.52, -173330.11, -173467.91, 187500.00, 0.000, 0.000, 0.000, 15:43:12.695, 1578577392695
251, -161357.59, -155951.72, -159258.56, -160740.44, -187500.02, -187500.02, -187500.02, -187500.02, 0.000, 0.000, 0.000, 15:43:12.695, 1578577392695
252, -173244.98, -173237.34, -173404.56, -173408.56, -173389.06, -173340.70, -173478.47, 187500.00, 0.000, 0.000, 0.000, 15:43:12.695, 1578577392695
253, -161367.03, -155965.42, -159266.36, -160757.88, -187500.02, -187500.02, -187500.02, -187500.02, 0.000, 0.000, 0.000, 15:43:12.695, 1578577392695
254, -173255.20, -173247.52, -173414.80, -173418.80, -173399.28, -173350.83, -173488.72, 187500.00, 0.000, 0.000, 0.000, 15:43:12.695, 1578577392695
255, -161376.14, -155978.31, -159273.86, -160774.50, -187500.02, -187500.02, -187500.02, -187500.02, 0.000, 0.000, 0.000, 15:43:12.695, 1578577392695
0, -173267.44, -173259.70, -173427.02, -173430.94, -173411.56, -173363.09, -173500.78, 187500.00, 0.000, 0.000, 0.000, 15:43:12.696, 1578577392696
1, -161388.69, -155996.48, -159284.69, -160796.36, -187500.02, -187500.02, -187500.02, -187500.02, 0.000, 0.000, 0.000, 15:43:12.696, 1578577392696
2, -173280.50, -173272.92, -173440.13, -173444.09, -173424.66, -173376.28, -173513.97, 187500.00, -0.020, -0.016, 0.974, 15:43:12.696, 1578577392696
3, -161398.56, -156012.41, -159292.98, -160815.83, -187500.02, -187500.02, -187500.02, -187500.02, 0.000, 0.000, 0.000, 15:43:12.696, 1578577392696
4, -173292.00, -173284.34, -173451.66, -173455.61, -173436.03, -173387.61, -173525.39, 187500.00, 0.000, 0.000, 0.000, 15:43:12.696, 1578577392696
5, -161409.66, -156027.00, -159302.48, -160834.16, -187500.02, -187500.02, -187500.02, -187500.02, 0.000, 0.000, 0.000, 15:43:12.696, 1578577392696
6, -173305.16, -173297.52, -173464.73, -173468.70, -173449.17, -173400.80, -173538.52, 187500.00, 0.000, 0.000, 0.000, 15:43:12.696, 1578577392696
7, -161421.50, -156041.48, -159312.72, -160852.38, -187500.02, -187500.02, -187500.02, -187500.02, 0.000, 0.000, 0.000, 15:43:12.696, 1578577392696
8, -173315.53, -173307.89, -173475.03, -173479.03, -173459.56, -173411.25, -173548.80, 187500.00, 0.000, 0.000, 0.000, 15:43:12.696, 1578577392696
9, -161430.53, -156054.58, -159320.13, -160869.03, -187500.02, -187500.02, -187500.02, -187500.02, 0.000, 0.000, 0.000, 15:43:12.696, 1578577392696
10, -173325.20, -173317.45, -173484.64, -173488.61, -173469.11, -173420.77, -173558.50, 187500.00, 0.000, 0.000, 0.000, 15:43:12.696, 1578577392696
11, -161439.06, -156065.73, -159327.03, -160883.73, -187500.02, -187500.02, -187500.02, -187500.02, 0.000, 0.000, 0.000, 15:43:12.696, 1578577392696
12, -173337.33, -173329.64, -173496.69, -173500.83, -173481.20, -173432.97, -173570.56, 187500.00, -0.018, -0.014, 0.970, 15:43:12.696, 1578577392696
13, -161451.03, -156084.34, -159337.52, -160905.89, -187500.02, -187500.02, -187500.02, -187500.02, 0.000, 0.000, 0.000, 15:43:12.696, 1578577392696
14, -173350.94, -173343.34, -173510.44, -173514.47, -173494.75, -173446.58, -173584.20, 187500.00, 0.000, 0.000, 0.000, 15:43:12.697, 1578577392697
15, -161462.17, -156103.97, -159347.03, -160928.75, -187500.02, -187500.02, -187500.02, -187500.02, 0.000, 0.000, 0.000, 15:43:12.697, 1578577392697
16, -173362.20, -173354.63, -173521.70, -173525.77, -173506.03, -173457.88, -173595.38, 187500.00, 0.000, 0.000, 0.000, 15:43:12.697, 1578577392697
17, -161470.14, -156114.17, -159353.41, -160942.64, -187500.02, -187500.02, -187500.02, -187500.02, 0.000, 0.000, 0.000, 15:43:12.697, 1578577392697
18, -173371.86, -173364.22, -173531.30, -173535.31, -173515.67, -173467.48, -173604.92, 187500.00, 0.000, 0.000, 0.000, 15:43:12.697, 1578577392697
19, -161481.02, -156128.09, -159362.61, -160959.95, -187500.02, -187500.02, -187500.02, -187500.02, 0.000, 0.000, 0.000, 15:43:12.697, 1578577392697
20, -173383.38, -173375.75, -173542.78, -173546.83, -173527.20, -173479.03, -173616.55, 187500.00, 0.000, 0.000, 0.000, 15:43:12.697, 1578577392697
21, -161492.48, -156142.36, -159372.52, -160977.75, -187500.02, -187500.02, -187500.02, -187500.02, 0.000, 0.000, 0.000, 15:43:12.697, 1578577392697
22, -173395.94, -173388.33, -173555.48, -173559.39, -173539.83, -173491.63, -173629.11, 187500.00, -0.014, -0.012, 0.970, 15:43:12.697, 1578577392697
23, -161504.00, -156156.66, -159382.50, -160995.63, -187500.02, -187500.02, -187500.02, -187500.02, 0.000, 0.000, 0.000, 15:43:12.697, 1578577392697
24, -173408.58, -173401.00, -173568.06, -173572.02, -173552.48, -173504.25, -173641.75, 187500.00, 0.000, 0.000, 0.000, 15:43:12.697, 1578577392697
25, -161516.14, -156174.31, -159393.09, -161016.59, -187500.02, -187500.02, -187500.02, -187500.02, 0.000, 0.000, 0.000, 15:43:12.698, 1578577392698
26, -173422.02, -173414.42, -173581.42, -173585.56, -173565.80, -173517.55, -173655.08, 187500.00, 0.000, 0.000, 0.000, 15:43:12.698, 1578577392698
27, -161527.42, -156188.27, -159402.88, -161034.02, -187500.02, -187500.02, -187500.02, -187500.02, 0.000, 0.000, 0.000, 15:43:12.698, 1578577392698
28, -173432.39, -173424.78, -173591.89, -173596.00, -173576.22, -173528.09, -173665.52, 187500.00, 0.000, 0.000, 0.000, 15:43:12.698, 1578577392698
29, -161538.27, -156203.16, -159412.19, -161052.34, -187500.02, -187500.02, -187500.02, -187500.02, 0.000, 0.000, 0.000, 15:43:12.698, 1578577392698
30, -173443.97, -173436.30, -173603.41, -173607.48, -173587.69, -173539.66, -173676.92, 187500.00, 0.000, 0.000, 0.000, 15:43:12.698, 1578577392698
31, -161547.00, -156215.38, -159419.14, -161068.05, -187500.02, -187500.02, -187500.02, -187500.02, -0.014, -0.010, 0.978, 15:43:12.698, 1578577392698
32, -173454.27, -173446.67, -173613.73, -173617.73, -173597.95, -173549.89, -173687.16, 187500.00, 0.000, 0.000, 0.000, 15:43:12.698, 1578577392698
33, -161558.47, -156232.31, -159429.11, -161088.22, -187500.02, -187500.02, -187500.02, -187500.02, 0.000, 0.000, 0.000, 15:43:12.698, 1578577392698
34, -173467.41, -173459.72, -173626.73, -173630.84, -173611.06, -173562.94, -173700.23, 187500.00, 0.000, 0.000, 0.000, 15:43:12.698, 1578577392698
35, -161568.94, -156247.45, -159437.94, -161106.56, -187500.02, -187500.02, -187500.02, -187500.02, 0.000, 0.000, 0.000, 15:43:12.698, 1578577392698
36, -173478.28, -173470.55, -173637.53, -173641.64, -173621.91, -173573.83, -173711.09, 187500.00, 0.000, 0.000, 0.000, 15:43:12.698, 1578577392698
37, -161578.66, -156262.30, -159446.36, -161124.42, -187500.02, -187500.02, -187500.02, -187500.02, 0.000, 0.000, 0.000, 15:43:12.699, 1578577392699
38, -173491.33, -173483.58, -173650.58, -173654.58, -173634.98, -173586.84, -173724.03, 187500.00, 0.000, 0.000, 0.000, 15:43:12.699, 1578577392699
39, -161590.52, -156280.06, -159456.61, -161145.48, -187500.02, -187500.02, -187500.02, -187500.02, 0.000, 0.000, 0.000, 15:43:12.699, 1578577392699
40, -173504.83, -173497.16, -173664.11, -173668.16, -173648.44, -173600.41, -173737.63, 187500.00, 0.000, 0.000, 0.000, 15:43:12.699, 1578577392699
41, -161601.98, -156298.55, -159466.61, -161166.94, -187500.02, -187500.02, -187500.02, -187500.02, -0.020, -0.012, 0.978, 15:43:12.699, 1578577392699
42, -173516.00, -173508.27, -173675.28, -173679.34, -173659.59, -173611.52, -173748.73, 187500.00, 0.000, 0.000, 0.000, 15:43:12.699, 1578577392699
43, -161612.09, -156310.66, -159475.22, -161182.47, -187500.02, -187500.02, -187500.02, -187500.02, 0.000, 0.000, 0.000, 15:43:12.699, 1578577392699
44, -173527.19, -173519.52, -173686.55, -173690.70, -173670.81, -173622.73, -173759.97, 187500.00, 0.000, 0.000, 0.000, 15:43:12.699, 1578577392699
45, -161622.53, -156324.03, -159484.11, -161198.97, -187500.02, -187500.02, -187500.02, -187500.02, 0.000, 0.000, 0.000, 15:43:12.699, 1578577392699
46, -173537.31, -173529.61, -173696.63, -173700.73, -173680.89, -173632.77, -173769.98, 187500.00, 0.000, 0.000, 0.000, 15:43:12.699, 1578577392699
47, -161631.67, -156338.59, -159491.78, -161216.53, -187500.02, -187500.02, -187500.02, -187500.02, 0.000, 0.000, 0.000, 15:43:12.699, 1578577392699
48, -173548.70, -173540.95, -173707.94, -173712.03, -173692.20, -173644.22, -173781.28, 187500.00, 0.000, 0.000, 0.000, 15:43:12.699, 1578577392699
49, -161644.44, -156353.78, -159503.09, -161235.06, -187500.02, -187500.02, -187500.02, -187500.02, 0.000, 0.000, 0.000, 15:43:12.699, 1578577392699
50, -173562.09, -173554.31, -173721.33, -173725.42, -173705.61, -173657.67, -173794.66, 187500.00, 0.000, 0.000, 0.000, 15:43:12.699, 1578577392699
51, -161655.05, -156370.23, -159512.39, -161254.53, -187500.02, -187500.02, -187500.02, -187500.02, -0.026, -0.014, 0.984, 15:43:12.699, 1578577392699
52, -173574.41, -173566.66, -173733.63, -173737.73, -173717.91, -173669.94, -173807.00, 187500.00, 0.000, 0.000, 0.000, 15:43:12.700, 1578577392700
53, -161665.02, -156386.59, -159520.84, -161273.69, -187500.02, -187500.02, -187500.02, -187500.02, 0.000, 0.000, 0.000, 15:43:12.700, 1578577392700
54, -173586.06, -173578.28, -173745.25, -173749.22, -173729.42, -173681.47, -173818.48, 187500.00, 0.000, 0.000, 0.000, 15:43:12.700, 1578577392700
55, -161675.17, -156401.81, -159529.45, -161292.00, -187500.02, -187500.02, -187500.02, -187500.02, 0.000, 0.000, 0.000, 15:43:12.700, 1578577392700
56, -173596.69, -173588.89, -173755.92, -173759.92, -173740.11, -173692.16, -173829.13, 187500.00, 0.000, 0.000, 0.000, 15:43:12.700, 1578577392700
57, -161685.56, -156417.64, -159538.31, -161310.83, -187500.02, -187500.02, -187500.02, -187500.02, 0.000, 0.000, 0.000, 15:43:12.700, 1578577392700
58, -173609.19, -173601.50, -173768.48, -173772.42, -173752.67, -173704.75, -173841.72, 187500.00, 0.000, 0.000, 0.000, 15:43:12.700, 1578577392700
59, -161696.06, -156431.06, -159547.55, -161327.22, -187500.02, -187500.02, -187500.02, -187500.02, 0.000, 0.000, 0.000, 15:43:12.700, 1578577392700
60, -173618.95, -173611.25, -173778.17, -173782.13, -173762.36, -173714.41, -173851.30, 187500.00, 0.000, 0.000, 0.000, 15:43:12.700, 1578577392700
61, -161705.08, -156446.05, -159555.08, -161345.03, -187500.02, -187500.02, -187500.02, -187500.02, -0.020, -0.016, 0.976, 15:43:12.700, 1578577392700
62, -173631.86, -173624.20, -173791.05, -173795.11, -173775.27, -173727.39, -173864.16, 187500.00, 0.000, 0.000, 0.000, 15:43:12.700, 1578577392700
63, -161716.14, -156459.36, -159564.78, -161361.44, -187500.02, -187500.02, -187500.02, -187500.02, 0.000, 0.000, 0.000, 15:43:12.700, 1578577392700
64, -173640.73, -173633.00, -173799.89, -173803.94, -173784.05, -173736.14, -173872.98, 187500.00, 0.000, 0.000, 0.000, 15:43:12.700, 1578577392700
65, -161725.77, -156471.81, -159573.05, -161376.89, -187500.02, -187500.02, -187500.02, -187500.02, 0.000, 0.000, 0.000, 15:43:12.700, 1578577392700
66, -173652.16, -173644.39, -173811.23, -173815.36, -173795.42, -173747.55, -173884.39, 187500.00, 0.000, 0.000, 0.000, 15:43:12.700, 1578577392700
67, -161735.92, -156488.17, -159581.75, -161396.08, -187500.02, -187500.02, -187500.02, -187500.02, 0.000, 0.000, 0.000, 15:43:12.700, 1578577392700
68, -173663.48, -173655.80, -173822.63, -173826.69, -173806.88, -173758.91, -173895.77, 187500.00, 0.000, 0.000, 0.000, 15:43:12.700, 1578577392700
69, -161745.47, -156500.73, -159589.95, -161411.55, -187500.02, -187500.02, -187500.02, -187500.02, 0.000, 0.000, 0.000, 15:43:12.700, 1578577392700
70, -173675.19, -173667.44, -173834.34, -173838.39, -173818.53, -173770.61, -173907.27, 187500.00, 0.000, 0.000, 0.000, 15:43:12.700, 1578577392700
71, -161758.73, -156517.58, -159601.86, -161431.27, -187500.02, -187500.02, -187500.02, -187500.02, -0.008, -0.024, 0.976, 15:43:12.701, 1578577392701
72, -173686.59, -173678.86, -173845.72, -173849.78, -173829.95, -173781.98, -173918.63, 187500.00, 0.000, 0.000, 0.000, 15:43:12.701, 1578577392701
73, -161768.02, -156529.89, -159609.78, -161446.42, -187500.02, -187500.02, -187500.02, -187500.02, 0.000, 0.000, 0.000, 15:43:12.701, 1578577392701
74, -173697.92, -173690.08, -173857.06, -173861.08, -173841.22, -173793.34, -173929.95, 187500.00, 0.000, 0.000, 0.000, 15:43:12.701, 1578577392701
75, -161777.83, -156546.63, -159618.20, -161465.91, -187500.02, -187500.02, -187500.02, -187500.02, 0.000, 0.000, 0.000, 15:43:12.701, 1578577392701
76, -173709.61, -173701.81, -173868.77, -173872.83, -173852.94, -173805.11, -173941.67, 187500.00, 0.000, 0.000, 0.000, 15:43:12.701, 1578577392701
77, -161788.78, -156563.61, -159627.84, -161485.52, -187500.02, -187500.02, -187500.02, -187500.02, 0.000, 0.000, 0.000, 15:43:12.701, 1578577392701
78, -173722.47, -173714.63, -173881.41, -173885.56, -173865.67, -173817.75, -173954.33, 187500.00, 0.000, 0.000, 0.000, 15:43:12.701, 1578577392701
79, -161798.91, -156578.81, -159636.63, -161503.44, -187500.02, -187500.02, -187500.02, -187500.02, 0.000, 0.000, 0.000, 15:43:12.701, 1578577392701
80, -173733.47, -173725.73, -173892.45, -173896.61, -173876.72, -173828.81, -173965.34, 187500.00, -0.012, -0.022, 0.970, 15:43:12.701, 1578577392701
81, -161809.53, -156591.84, -159645.78, -161519.27, -187500.02, -187500.02, -187500.02, -187500.02, 0.000, 0.000, 0.000, 15:43:12.701, 1578577392701
82, -173742.16, -173734.36, -173901.11, -173905.27, -173885.30, -173837.47, -173973.97, 187500.00, 0.000, 0.000, 0.000, 15:43:12.701, 1578577392701
83, -161817.69, -156602.94, -159652.72, -161533.08, -187500.02, -187500.02, -187500.02, -187500.02, 0.000, 0.000, 0.000, 15:43:12.701, 1578577392701
84, -173754.08, -173746.30, -173913.02, -173917.17, -173897.22, -173849.38, -173985.81, 187500.00, 0.000, 0.000, 0.000, 15:43:12.701, 1578577392701
85, -161828.55, -156618.33, -159662.22, -161550.98, -187500.02, -187500.02, -187500.02, -187500.02, 0.000, 0.000, 0.000, 15:43:12.701, 1578577392701
86, -173765.41, -173757.50, -173924.34, -173928.53, -173908.50, -173860.73, -173997.06, 187500.00, 0.000, 0.000, 0.000, 15:43:12.701, 1578577392701
87, -161839.14, -156635.92, -159671.56, -161571.03, -187500.02, -187500.02, -187500.02, -187500.02, 0.000, 0.000, 0.000, 15:43:12.701, 1578577392701
88, -173778.03, -173770.08, -173936.89, -173941.05, -173921.08, -173873.23, -174009.63, 187500.00, 0.000, 0.000, 0.000, 15:43:12.701, 1578577392701
89, -161849.52, -156651.33, -159680.45, -161589.09, -187500.02, -187500.02, -187500.02, -187500.02, 0.000, 0.000, 0.000, 15:43:12.702, 1578577392702
90, -173790.33, -173782.34, -173949.25, -173953.42, -173933.41, -173885.56, -174022.00, 187500.00, -0.026, -0.024, 0.980, 15:43:13.176, 1578577393176
91, -161862.34, -156670.25, -159691.94, -161610.45, -187500.02, -187500.02, -187500.02, -187500.02, 0.000, 0.000, 0.000, 15:43:13.176, 1578577393176
92, -173802.94, -173794.98, -173961.91, -173966.11, -173945.97, -173898.17, -174034.59, 187500.00, 0.000, 0.000, 0.000, 15:43:13.176, 1578577393176
93, -161872.06, -156680.88, -159700.42, -161623.77, -187500.02, -187500.02, -187500.02, -187500.02, 0.000, 0.000, 0.000, 15:43:13.176, 1578577393176
94, -173813.48, -173805.58, -173972.42, -173976.55, -173956.53, -173908.72, -174045.08, 187500.00, 0.000, 0.000, 0.000, 15:43:13.176, 1578577393176
95, -161882.02, -156696.41, -159709.05, -161641.84, -187500.02, -187500.02, -187500.02, -187500.02, 0.000, 0.000, 0.000, 15:43:13.177, 1578577393177
96, -173824.02, -173816.17, -173982.98, -173987.16, -173967.08, -173919.31, -174055.58, 187500.00, 0.000, 0.000, 0.000, 15:43:13.177, 1578577393177
97, -161892.22, -156710.25, -159717.95, -161658.25, -187500.02, -187500.02, -187500.02, -187500.02, 0.000, 0.000, 0.000, 15:43:13.177, 1578577393177
98, -173835.52, -173827.70, -173994.58, -173998.78, -173978.58, -173930.88, -174067.09, 187500.00, 0.000, 0.000, 0.000, 15:43:13.177, 1578577393177
99, -161902.06, -156728.39, -159726.44, -161678.59, -187500.02, -187500.02, -187500.02, -187500.02, 0.000, 0.000, 0.000, 15:43:13.177, 1578577393177
100, -173847.42, -173839.56, -174006.31, -174010.66, -173990.42, -173942.72, -174078.95, 187500.00, -0.012, -0.014, 0.980, 15:43:13.177, 1578577393177
101, -161911.41, -156742.52, -159734.50, -161695.22, -187500.02, -187500.02, -187500.02, -187500.02, 0.000, 0.000, 0.000, 15:43:13.177, 1578577393177
102, -173859.31, -173851.50, -174018.30, -174022.45, -174002.36, -173954.66, -174090.89, 187500.00, 0.000, 0.000, 0.000, 15:43:13.177, 1578577393177
103, -161923.34, -156760.58, -159745.09, -161715.56, -187500.02, -187500.02, -187500.02, -187500.02, 0.000, 0.000, 0.000, 15:43:13.177, 1578577393177
104, -173870.81, -173863.02, -174029.77, -174033.94, -174013.94, -173966.14, -174102.36, 187500.00, 0.000, 0.000, 0.000, 15:43:13.177, 1578577393177
105, -161931.98, -156772.36, -159752.53, -161729.91, -187500.02, -187500.02, -187500.02, -187500.02, 0.000, 0.000, 0.000, 15:43:13.177, 1578577393177
106, -173881.56, -173873.72, -174040.42, -174044.59, -174024.55, -173976.72, -174113.02, 187500.00, 0.000, 0.000, 0.000, 15:43:13.177, 1578577393177
107, -161943.09, -156787.73, -159762.47, -161747.59, -187500.02, -187500.02, -187500.02, -187500.02, 0.000, 0.000, 0.000, 15:43:13.177, 1578577393177
108, -173893.44, -173885.75, -174052.36, -174056.61, -174036.52, -173988.61, -174124.94, 187500.00, 0.000, 0.000, 0.000, 15:43:13.177, 1578577393177
109, -161954.19, -156805.55, -159772.23, -161767.66, -187500.02, -187500.02, -187500.02, -187500.02, 0.000, 0.000, 0.000, 15:43:13.177, 1578577393177
110, -173906.80, -173899.11, -174065.67, -174069.95, -174049.92, -174002.05, -174138.20, 187500.00, -0.014, -0.012, 0.978, 15:43:13.177, 1578577393177
111, -161965.05, -156821.20, -159781.94, -161785.61, -187500.02, -187500.02, -187500.02, -187500.02, 0.000, 0.000, 0.000, 15:43:13.178, 1578577393178
112, -173917.23, -173909.38, -174076.16, -174080.30, -174060.20, -174012.53, -174148.67, 187500.00, 0.000, 0.000, 0.000, 15:43:13.178, 1578577393178
113, -161973.88, -156834.50, -159789.58, -161801.30, -187500.02, -187500.02, -187500.02, -187500.02, 0.000, 0.000, 0.000, 15:43:13.178, 1578577393178
114, -173927.52, -173919.72, -174086.36, -174090.52, -174070.44, -174022.81, -174158.78, 187500.00, 0.000, 0.000, 0.000, 15:43:13.178, 1578577393178
115, -161983.38, -156848.13, -159797.78, -161817.14, -187500.02, -187500.02, -187500.02, -187500.02, 0.000, 0.000, 0.000, 15:43:13.178, 1578577393178
116, -173939.13, -173931.23, -174097.95, -174102.09, -174081.97, -174034.25, -174170.33, 187500.00, 0.000, 0.000, 0.000, 15:43:13.178, 1578577393178
117, -161994.86, -156866.13, -159808.06, -161837.31, -187500.02, -187500.02, -187500.02, -187500.02, 0.000, 0.000, 0.000, 15:43:13.178, 1578577393178
118, -173952.09, -173944.27, -174111.02, -174115.20, -174095.08, -174047.33, -174183.42, 187500.00, 0.000, 0.000, 0.000, 15:43:13.178, 1578577393178
119, -162005.13, -156880.42, -159817.03, -161853.83, -187500.02, -187500.02, -187500.02, -187500.02, -0.008, -0.014, 0.978, 15:43:13.178, 1578577393178
120, -173961.98, -173954.23, -174120.75, -174125.05, -174104.97, -174057.19, -174193.27, 187500.00, 0.000, 0.000, 0.000, 15:43:13.178, 1578577393178
121, -162013.81, -156894.06, -159824.47, -161869.66, -187500.02, -187500.02, -187500.02, -187500.02, 0.000, 0.000, 0.000, 15:43:13.178, 1578577393178
122, -173973.41, -173965.63, -174132.20, -174136.38, -174116.31, -174068.58, -174204.50, 187500.00, 0.000, 0.000, 0.000, 15:43:13.178, 1578577393178
123, -162025.20, -156910.25, -159834.72, -161888.00, -187500.02, -187500.02, -187500.02, -187500.02, 0.000, 0.000, 0.000, 15:43:13.178, 1578577393178
124, -173985.34, -173977.59, -174144.25, -174148.38, -174128.22, -174080.55, -174216.44, 187500.00, 0.000, 0.000, 0.000, 15:43:13.178, 1578577393178
125, -162034.23, -156925.53, -159842.55, -161905.45, -187500.02, -187500.02, -187500.02, -187500.02, 0.000, 0.000, 0.000, 15:43:13.178, 1578577393178
126, -173997.47, -173989.75, -174156.34, -174160.55, -174140.38, -174092.61, -174228.63, 187500.00, 0.000, 0.000, 0.000, 15:43:13.179, 1578577393179
127, -162047.23, -156944.13, -159854.27, -161926.11, -187500.02, -187500.02, -187500.02, -187500.02, 0.000, 0.000, 0.000, 15:43:13.179, 1578577393179
128, -174011.30, -174003.56, -174170.13, -174174.42, -174154.11, -174106.42, -174242.44, 187500.00, 0.000, 0.000, 0.000, 15:43:13.179, 1578577393179
129, -162058.17, -156958.38, -159864.05, -161942.41, -187500.02, -187500.02, -187500.02, -187500.02, -0.006, 0.012, 1.042, 15:43:13.179, 1578577393179
130, -174022.25, -174014.41, -174181.03, -174185.34, -174165.08, -174117.31, -174253.25, 187500.00, 0.000, 0.000, 0.000, 15:43:13.179, 1578577393179
131, -162068.66, -156975.45, -159873.38, -161961.50, -187500.02, -187500.02, -187500.02, -187500.02, 0.000, 0.000, 0.000, 15:43:13.179, 1578577393179
132, -174035.33, -174027.50, -174194.16, -174198.36, -174178.13, -174130.39, -174266.33, 187500.00, 0.000, 0.000, 0.000, 15:43:13.179, 1578577393179
133, -162079.59, -156993.59, -159883.08, -161981.61, -187500.02, -187500.02, -187500.02, -187500.02, 0.000, 0.000, 0.000, 15:43:13.179, 1578577393179
134, -174046.80, -174038.98, -174205.69, -174209.80, -174189.66, -174141.89, -174277.75, 187500.00, 0.000, 0.000, 0.000, 15:43:13.179, 1578577393179
135, -162088.16, -157005.36, -159890.50, -161995.56, -187500.02, -187500.02, -187500.02, -187500.02, 0.000, 0.000, 0.000, 15:43:13.179, 1578577393179
136, -174056.41, -174048.48, -174215.08, -174219.34, -174199.14, -174151.39, -174287.28, 187500.00, 0.000, 0.000, 0.000, 15:43:13.179, 1578577393179
137, -162099.14, -157020.11, -159900.39, -162012.36, -187500.02, -187500.02, -187500.02, -187500.02, 0.000, 0.000, 0.000, 15:43:13.179, 1578577393179
138, -174069.56, -174061.67, -174228.22, -174232.47, -174212.33, -174164.56, -174300.38, 187500.00, 0.000, 0.000, 0.000, 15:43:13.179, 1578577393179
139, -162109.80, -157036.02, -159909.81, -162030.22, -187500.02, -187500.02, -187500.02, -187500.02, -0.014, -0.006, 1.014, 15:43:13.179, 1578577393179
140, -174081.08, -174073.23, -174239.80, -174244.00, -174223.80, -174176.09, -174311.84, 187500.00, 0.000, 0.000, 0.000, 15:43:13.179, 1578577393179
141, -162119.45, -157051.86, -159918.33, -162048.02, -187500.02, -187500.02, -187500.02, -187500.02, 0.000, 0.000, 0.000, 15:43:13.179, 1578577393179
142, -174092.17, -174084.36, -174250.91, -174255.09, -174234.86, -174187.20, -174322.88, 187500.00, 0.000, 0.000, 0.000, 15:43:13.180, 1578577393180
143, -162130.09, -157068.20, -159927.83, -162066.22, -187500.02, -187500.02, -187500.02, -187500.02, 0.000, 0.000, 0.000, 15:43:13.180, 1578577393180
144, -174102.78, -174095.05, -174261.50, -174265.70, -174245.47, -174197.83, -174333.56, 187500.00, 0.000, 0.000, 0.000, 15:43:13.180, 1578577393180
145, -162137.73, -157077.27, -159934.42, -162077.25, -187500.02, -187500.02, -187500.02, -187500.02, 0.000, 0.000, 0.000, 15:43:13.180, 1578577393180
146, -174112.59, -174104.70, -174271.22, -174275.50, -174255.25, -174207.56, -174343.20, 187500.00, 0.000, 0.000, 0.000, 15:43:13.180, 1578577393180
147, -162147.59, -157093.38, -159943.20, -162095.27, -187500.02, -187500.02, -187500.02, -187500.02, 0.000, 0.000, 0.000, 15:43:13.180, 1578577393180
148, -174124.16, -174116.27, -174282.80, -174287.05, -174266.75, -174219.22, -174354.64, 187500.00, 0.000, 0.000, 0.000, 15:43:13.180, 1578577393180
149, -162158.44, -157108.55, -159952.91, -162112.30, -187500.02, -187500.02, -187500.02, -187500.02, -0.014, -0.010, 0.988, 15:43:13.180, 1578577393180
150, -174136.94, -174129.11, -174295.64, -174299.83, -174279.56, -174231.95, -174367.52, 187500.00, 0.000, 0.000, 0.000, 15:43:13.180, 1578577393180
151, -162168.92, -157124.13, -159962.33, -162129.63, -187500.02, -187500.02, -187500.02, -187500.02, 0.000, 0.000, 0.000, 15:43:13.180, 1578577393180
152, -174149.52, -174141.63, -174308.13, -174312.33, -174292.13, -174244.47, -174380.03, 187500.00, 0.000, 0.000, 0.000, 15:43:13.180, 1578577393180
153, -162182.67, -157143.55, -159974.83, -162150.95, -187500.02, -187500.02, -187500.02, -187500.02, 0.000, 0.000, 0.000, 15:43:13.180, 1578577393180
154, -174161.97, -174154.03, -174320.53, -174324.84, -174304.50, -174256.97, -174392.38, 187500.00, 0.000, 0.000, 0.000, 15:43:13.180, 1578577393180
155, -162190.78, -157155.58, -159981.95, -162164.77, -187500.02, -187500.02, -187500.02, -187500.02, 0.000, 0.000, 0.000, 15:43:13.180, 1578577393180
156, -174172.19, -174164.47, -174330.91, -174335.16, -174314.81, -174267.22, -174402.67, 187500.00, 0.000, 0.000, 0.000, 15:43:13.180, 1578577393180
157, -162200.19, -157172.09, -159990.23, -162182.95, -187500.02, -187500.02, -187500.02, -187500.02, 0.000, 0.000, 0.000, 15:43:13.180, 1578577393180
158, -174183.25, -174175.42, -174341.88, -174346.13, -174325.83, -174278.20, -174413.66, 187500.00, -0.016, -0.012, 0.986, 15:43:13.180, 1578577393180
159, -162209.05, -157185.73, -159998.03, -162198.42, -187500.02, -187500.02, -187500.02, -187500.02, 0.000, 0.000, 0.000, 15:43:13.180, 1578577393180
160, -174193.58, -174185.73, -174352.25, -174356.44, -174336.16, -174288.55, -174423.95, 187500.00, 0.000, 0.000, 0.000, 15:43:13.181, 1578577393181
161, -162218.94, -157201.98, -160006.95, -162216.28, -187500.02, -187500.02, -187500.02, -187500.02, 0.000, 0.000, 0.000, 15:43:13.181, 1578577393181
162, -174206.03, -174198.25, -174364.81, -174368.86, -174348.61, -174301.11, -174436.41, 187500.00, 0.000, 0.000, 0.000, 15:43:13.181, 1578577393181
163, -162229.72, -157216.53, -160016.58, -162232.63, -187500.02, -187500.02, -187500.02, -187500.02, 0.000, 0.000, 0.000, 15:43:13.181, 1578577393181
164, -174217.58, -174209.80, -174376.28, -174380.48, -174360.13, -174312.67, -174447.89, 187500.00, 0.000, 0.000, 0.000, 15:43:13.181, 1578577393181
165, -162240.22, -157231.48, -160026.03, -162249.31, -187500.02, -187500.02, -187500.02, -187500.02, 0.000, 0.000, 0.000, 15:43:13.181, 1578577393181
166, -174230.45, -174222.61, -174389.16, -174393.36, -174373.02, -174325.42, -174460.75, 187500.00, 0.000, 0.000, 0.000, 15:43:13.181, 1578577393181
167, -162250.75, -157248.55, -160035.44, -162267.98, -187500.02, -187500.02, -187500.02, -187500.02, 0.000, 0.000, 0.000, 15:43:13.181, 1578577393181
168, -174241.09, -174233.20, -174399.72, -174403.86, -174383.47, -174335.98, -174471.28, 187500.00, -0.016, -0.016, 0.986, 15:43:13.181, 1578577393181
169, -162260.67, -157262.70, -160044.39, -162283.78, -187500.02, -187500.02, -187500.02, -187500.02, 0.000, 0.000, 0.000, 15:43:13.181, 1578577393181
170, -174252.77, -174244.97, -174411.34, -174415.69, -174395.25, -174347.73, -174482.92, 187500.00, 0.000, 0.000, 0.000, 15:43:13.181, 1578577393181
171, -162270.91, -157277.48, -160053.53, -162300.14, -187500.02, -187500.02, -187500.02, -187500.02, 0.000, 0.000, 0.000, 15:43:13.181, 1578577393181
172, -174264.61, -174256.86, -174423.17, -174427.42, -174407.06, -174359.52, -174494.81, 187500.00, 0.000, 0.000, 0.000, 15:43:13.181, 1578577393181
173, -162279.83, -157291.17, -160061.39, -162315.48, -187500.02, -187500.02, -187500.02, -187500.02, 0.000, 0.000, 0.000, 15:43:13.181, 1578577393181
174, -174273.39, -174265.45, -174431.89, -174436.11, -174415.84, -174368.33, -174503.50, 187500.00, 0.000, 0.000, 0.000, 15:43:13.181, 1578577393181
175, -162288.97, -157303.61, -160069.59, -162329.56, -187500.02, -187500.02, -187500.02, -187500.02, 0.000, 0.000, 0.000, 15:43:13.181, 1578577393181
176, -174285.31, -174277.42, -174443.83, -174448.13, -174427.67, -174380.23, -174515.47, 187500.00, 0.000, 0.000, 0.000, 15:43:13.181, 1578577393181
177, -162300.03, -157320.42, -160079.75, -162347.91, -187500.02, -187500.02, -187500.02, -187500.02, 0.000, 0.000, 0.000, 15:43:13.181, 1578577393181
178, -174297.53, -174289.63, -174456.00, -174460.33, -174439.95, -174392.44, -174527.64, 187500.00, -0.018, -0.016, 0.980, 15:43:13.182, 1578577393182
179, -162308.17, -157334.86, -160086.92, -162363.83, -187500.02, -187500.02, -187500.02, -187500.02, 0.000, 0.000, 0.000, 15:43:13.182, 1578577393182
180, -174307.61, -174299.67, -174466.17, -174470.42, -174450.02, -174402.47, -174537.66, 187500.00, 0.000, 0.000, 0.000, 15:43:13.182, 1578577393182
181, -162317.47, -157352.50, -160095.09, -162382.78, -187500.02, -187500.02, -187500.02, -187500.02, 0.000, 0.000, 0.000, 15:43:13.182, 1578577393182
182, -174320.63, -174312.78, -174479.14, -174483.44, -174463.03, -174415.48, -174550.64, 187500.00, 0.000, 0.000, 0.000, 15:43:13.182, 1578577393182
183, -162326.97, -157366.89, -160103.59, -162398.69, -187500.02, -187500.02, -187500.02, -187500.02, 0.000, 0.000, 0.000, 15:43:13.182, 1578577393182
184, -174328.53, -174320.73, -174487.19, -174491.41, -174471.03, -174423.55, -174558.69, 187500.00, 0.000, 0.000, 0.000, 15:43:13.182, 1578577393182
185, -162335.66, -157376.95, -160111.23, -162410.42, -187500.02, -187500.02, -187500.02, -187500.02, 0.000, 0.000, 0.000, 15:43:13.182, 1578577393182
186, -174340.72, -174332.84, -174499.28, -174503.55, -174483.03, -174435.63, -174570.73, 187500.00, 0.000, 0.000, 0.000, 15:43:13.182, 1578577393182
187, -162347.80, -157393.47, -160122.45, -162428.44, -187500.02, -187500.02, -187500.02, -187500.02, 0.000, 0.000, 0.000, 15:43:13.182, 1578577393182
188, -174353.80, -174345.91, -174512.31, -174516.61, -174496.11, -174448.63, -174583.80, 187500.00, -0.020, -0.016, 0.974, 15:43:13.182, 1578577393182
189, -162358.47, -157410.44, -160132.23, -162446.80, -187500.02, -187500.02, -187500.02, -187500.02, 0.000, 0.000, 0.000, 15:43:13.182, 1578577393182
190, -174365.03, -174357.09, -174523.47, -174527.80, -174507.23, -174459.86, -174594.95, 187500.00, 0.000, 0.000, 0.000, 15:43:13.182, 1578577393182
191, -162367.98, -157423.63, -160140.75, -162461.44, -187500.02, -187500.02, -187500.02, -187500.02, 0.000, 0.000, 0.000, 15:43:13.182, 1578577393182
192, -174377.00, -174369.03, -174535.33, -174539.61, -174519.08, -174471.63, -174606.88, 187500.00, 0.000, 0.000, 0.000, 15:43:13.182, 1578577393182
193, -162378.95, -157439.33, -160150.69, -162478.53, -187500.02, -187500.02, -187500.02, -187500.02, 0.000, 0.000, 0.000, 15:43:13.182, 1578577393182
194, -174388.14, -174380.19, -174546.55, -174550.83, -174530.28, -174482.89, -174618.02, 187500.00, 0.000, 0.000, 0.000, 15:43:13.182, 1578577393182
195, -162387.98, -157455.58, -160158.67, -162496.11, -187500.02, -187500.02, -187500.02, -187500.02, 0.000, 0.000, 0.000, 15:43:13.183, 1578577393183
196, -174399.97, -174391.95, -174558.41, -174562.69, -174542.08, -174494.67, -174629.72, 187500.00, 0.000, 0.000, 0.000, 15:43:13.183, 1578577393183
197, -162397.44, -157467.77, -160167.31, -162509.73, -187500.02, -187500.02, -187500.02, -187500.02, -0.018, -0.016, 0.978, 15:43:13.183, 1578577393183
198, -174408.00, -174400.03, -174566.41, -174570.69, -174550.13, -174502.80, -174637.75, 187500.00, 0.000, 0.000, 0.000, 15:43:13.183, 1578577393183
199, -162405.52, -157481.17, -160174.34, -162524.58, -187500.02, -187500.02, -187500.02, -187500.02, 0.000, 0.000, 0.000, 15:43:13.183, 1578577393183
200, -174421.03, -174413.09, -174579.45, -174583.70, -174563.20, -174515.78, -174650.67, 187500.00, 0.000, 0.000, 0.000, 15:43:13.183, 1578577393183
201, -162417.30, -157501.88, -160185.17, -162546.34, -187500.02, -187500.02, -187500.02, -187500.02, 0.000, 0.000, 0.000, 15:43:13.183, 1578577393183
202, -174433.80, -174425.88, -174592.28, -174596.53, -174575.91, -174528.56, -174663.41, 187500.00, 0.000, 0.000, 0.000, 15:43:13.183, 1578577393183
203, -162425.94, -157513.59, -160192.88, -162559.52, -187500.02, -187500.02, -187500.02, -187500.02, 0.000, 0.000, 0.000, 15:43:13.183, 1578577393183
204, -174441.44, -174433.55, -174600.02, -174604.22, -174583.55, -174536.19, -174671.05, 187500.00, 0.000, 0.000, 0.000, 15:43:13.183, 1578577393183
205, -162432.88, -157525.09, -160198.84, -162572.28, -187500.02, -187500.02, -187500.02, -187500.02, 0.000, 0.000, 0.000, 15:43:13.183, 1578577393183
206, -174453.48, -174445.55, -174612.00, -174616.20, -174595.55, -174548.19, -174683.08, 187500.00, 0.000, 0.000, 0.000, 15:43:13.183, 1578577393183
207, -162444.16, -157547.66, -160209.08, -162595.88, -187500.02, -187500.02, -187500.02, -187500.02, -0.022, -0.012, 0.976, 15:43:13.183, 1578577393183
208, -174467.23, -174459.27, -174625.59, -174629.88, -174609.11, -174561.86, -174696.67, 187500.00, 0.000, 0.000, 0.000, 15:43:13.183, 1578577393183
209, -162453.92, -157562.92, -160218.02, -162612.27, -187500.02, -187500.02, -187500.02, -187500.02, 0.000, 0.000, 0.000, 15:43:13.183, 1578577393183
210, -174479.23, -174471.28, -174637.59, -174641.81, -174621.14, -174573.88, -174708.72, 187500.00, 0.000, 0.000, 0.000, 15:43:13.654, 1578577393654
211, -162465.17, -157577.98, -160228.45, -162628.81, -187500.02, -187500.02, -187500.02, -187500.02, 0.000, 0.000, 0.000, 15:43:13.654, 1578577393654
212, -174488.59, -174480.55, -174646.98, -174651.19, -174630.53, -174583.23, -174718.02, 187500.00, 0.000, 0.000, 0.000, 15:43:13.654, 1578577393654
213, -162472.50, -157586.67, -160234.80, -162638.91, -187500.02, -187500.02, -187500.02, -187500.02, 0.000, 0.000, 0.000, 15:43:13.654, 1578577393654
214, -174499.02, -174491.06, -174657.48, -174661.78, -174641.08, -174593.67, -174728.55, 187500.00, 0.000, 0.000, 0.000, 15:43:13.654, 1578577393654
215, -162484.34, -157607.59, -160245.78, -162660.72, -187500.02, -187500.02, -187500.02, -187500.02, 0.000, 0.000, 0.000, 15:43:13.654, 1578577393654
216, -174512.80, -174504.84, -174671.23, -174675.48, -174654.89, -174607.42, -174742.28, 187500.00, 0.000, 0.000, 0.000, 15:43:13.654, 1578577393654
217, -162493.42, -157622.23, -160253.95, -162676.66, -187500.02, -187500.02, -187500.02, -187500.02, -0.020, -0.010, 0.972, 15:43:13.654, 1578577393654
218, -174522.58, -174514.55, -174680.89, -174685.25, -174664.53, -174617.16, -174752.02, 187500.00, 0.000, 0.000, 0.000, 15:43:13.654, 1578577393654
219, -162502.34, -157635.22, -160261.94, -162690.70, -187500.02, -187500.02, -187500.02, -187500.02, 0.000, 0.000, 0.000, 15:43:13.655, 1578577393655
220, -174533.80, -174525.81, -174692.09, -174696.53, -174675.72, -174628.36, -174763.23, 187500.00, 0.000, 0.000, 0.000, 15:43:13.655, 1578577393655
221, -162513.03, -157652.59, -160271.69, -162709.23, -187500.02, -187500.02, -187500.02, -187500.02, 0.000, 0.000, 0.000, 15:43:13.655, 1578577393655
222, -174547.69, -174539.73, -174706.02, -174710.33, -174689.67, -174642.27, -174777.09, 187500.00, 0.000, 0.000, 0.000, 15:43:13.655, 1578577393655
223, -162523.64, -157669.89, -160281.42, -162727.52, -187500.02, -187500.02, -187500.02, -187500.02, 0.000, 0.000, 0.000, 15:43:13.655, 1578577393655
224, -174557.17, -174549.11, -174715.52, -174719.78, -174699.17, -174651.70, -174786.39, 187500.00, 0.000, 0.000, 0.000, 15:43:13.655, 1578577393655
225, -162532.94, -157681.69, -160289.97, -162740.59, -187500.02, -187500.02, -187500.02, -187500.02, 0.000, 0.000, 0.000, 15:43:13.655, 1578577393655
226, -174569.63, -174561.48, -174727.84, -174732.19, -174711.53, -174664.08, -174798.80, 187500.00, 0.000, 0.000, 0.000, 15:43:13.655, 1578577393655
227, -162544.30, -157698.48, -160300.33, -162758.53, -187500.02, -187500.02, -187500.02, -187500.02, -0.020, -0.010, 0.972, 15:43:13.655, 1578577393655
228, -174581.11, -174572.97, -174739.34, -174743.66, -174723.02, -174675.56, -174810.22, 187500.00, 0.000, 0.000, 0.000, 15:43:13.655, 1578577393655
229, -162553.48, -157714.17, -160308.53, -162775.19, -187500.02, -187500.02, -187500.02, -187500.02, 0.000, 0.000, 0.000, 15:43:13.655, 1578577393655
230, -174592.53, -174584.42, -174750.80, -174755.09, -174734.42, -174686.95, -174821.70, 187500.00, 0.000, 0.000, 0.000, 15:43:13.655, 1578577393655
231, -162561.61, -157728.36, -160315.80, -162790.34, -187500.02, -187500.02, -187500.02, -187500.02, 0.000, 0.000, 0.000, 15:43:13.655, 1578577393655
232, -174601.20, -174593.16, -174759.45, -174763.77, -174743.05, -174695.75, -174830.28, 187500.00, 0.000, 0.000, 0.000, 15:43:13.655, 1578577393655
233, -162571.08, -157742.38, -160324.41, -162805.52, -187500.02, -187500.02, -187500.02, -187500.02, 0.000, 0.000, 0.000, 15:43:13.655, 1578577393655
234, -174614.30, -174606.23, -174772.58, -174776.86, -174756.08, -174708.73, -174843.36, 187500.00, 0.000, 0.000, 0.000, 15:43:13.655, 1578577393655
235, -162583.36, -157761.13, -160335.83, -162825.23, -187500.02, -187500.02, -187500.02, -187500.02, 0.000, 0.000, 0.000, 15:43:13.655, 1578577393655
236, -174627.58, -174619.44, -174785.81, -174790.09, -174769.42, -174722.06, -174856.58, 187500.00, -0.024, -0.006, 0.976, 15:43:13.655, 1578577393655
237, -162593.58, -157776.63, -160345.36, -162841.66, -187500.02, -187500.02, -187500.02, -187500.02, 0.000, 0.000, 0.000, 15:43:13.655, 1578577393655
238, -174638.22, -174630.03, -174796.36, -174800.66, -174779.86, -174732.56, -174867.17, 187500.00, 0.000, 0.000, 0.000, 15:43:13.656, 1578577393656
239, -162602.72, -157792.05, -160353.47, -162858.05, -187500.02, -187500.02, -187500.02, -187500.02, 0.000, 0.000, 0.000, 15:43:13.656, 1578577393656
240, -174649.86, -174641.73, -174808.05, -174812.41, -174791.59, -174744.25, -174878.86, 187500.00, 0.000, 0.000, 0.000, 15:43:13.656, 1578577393656
241, -162613.89, -157808.25, -160363.84, -162875.14, -187500.02, -187500.02, -187500.02, -187500.02, 0.000, 0.000, 0.000, 15:43:13.657, 1578577393657
242, -174662.31, -174654.25, -174820.50, -174824.81, -174804.03, -174756.69, -174891.23, 187500.00, 0.000, 0.000, 0.000, 15:43:13.657, 1578577393657
243, -162624.52, -157820.95, -160373.50, -162888.94, -187500.02, -187500.02, -187500.02, -187500.02, 0.000, 0.000, 0.000, 15:43:13.657, 1578577393657
244, -174672.91, -174664.77, -174831.11, -174835.36, -174814.59, -174767.25, -174901.83, 187500.00, 0.000, 0.000, 0.000, 15:43:13.657, 1578577393657
245, -162634.91, -157838.98, -160383.03, -162907.88, -187500.02, -187500.02, -187500.02, -187500.02, 0.000, 0.000, 0.000, 15:43:13.657, 1578577393657
246, -174684.22, -174676.17, -174842.47, -174846.78, -174826.00, -174778.67, -174913.19, 187500.00, -0.020, -0.010, 0.978, 15:43:13.657, 1578577393657
247, -162643.27, -157855.88, -160390.48, -162925.50, -187500.02, -187500.02, -187500.02, -187500.02, 0.000, 0.000, 0.000, 15:43:13.657, 1578577393657
248, -174697.11, -174689.11, -174855.34, -174859.66, -174838.84, -174791.55, -174926.05, 187500.00, 0.000, 0.000, 0.000, 15:43:13.657, 1578577393657
249, -162655.16, -157874.02, -160401.67, -162944.50, -187500.02, -187500.02, -187500.02, -187500.02, 0.000, 0.000, 0.000, 15:43:13.657, 1578577393657
250, -174708.78, -174700.73, -174866.98, -174871.34, -174850.41, -174803.23, -174937.59, 187500.00, 0.000, 0.000, 0.000, 15:43:13.657, 1578577393657
251, -162665.31, -157888.72, -160410.95, -162960.14, -187500.02, -187500.02, -187500.02, -187500.02, 0.000, 0.000, 0.000, 15:43:13.657, 1578577393657
252, -174721.66, -174713.61, -174879.89, -174884.17, -174863.33, -174816.03, -174950.39, 187500.00, 0.000, 0.000, 0.000, 15:43:13.657, 1578577393657
253, -162677.84, -157909.53, -160422.52, -162981.72, -187500.02, -187500.02, -187500.02, -187500.02, 0.000, 0.000, 0.000, 15:43:13.657, 1578577393657
254, -174735.72, -174727.52, -174893.78, -174898.14, -174877.30, -174830.06, -174964.44, 187500.00, 0.000, 0.000, 0.000, 15:43:13.658, 1578577393658
255, -162688.02, -157928.08, -160431.73, -163000.94, -187500.02, -187500.02, -187500.02, -187500.02, 0.000, 0.000, 0.000, 15:43:13.658, 1578577393658
0, -174747.67, -174739.61, -174905.80, -174910.16, -174889.31, -174841.98, -174976.41, 187500.00, -0.020, -0.012, 0.978, 15:43:13.658, 1578577393658
1, -162698.59, -157944.75, -160441.53, -163018.28, -187500.02, -187500.02, -187500.02, -187500.02, 0.000, 0.000, 0.000, 15:43:13.658, 1578577393658
2, -174759.17, -174751.16, -174917.38, -174921.69, -174900.88, -174853.58, -174987.86, 187500.00, 0.000, 0.000, 0.000, 15:43:13.658, 1578577393658
3, -162709.03, -157961.94, -160451.25, -163036.23, -187500.02, -187500.02, -187500.02, -187500.02, 0.000, 0.000, 0.000, 15:43:13.658, 1578577393658
4, -174771.81, -174763.77, -174930.00, -174934.25, -174913.50, -174866.19, -175000.50, 187500.00, 0.000, 0.000, 0.000, 15:43:13.658, 1578577393658
5, -162719.28, -157977.78, -160460.67, -163052.86, -187500.02, -187500.02, -187500.02, -187500.02, 0.000, 0.000, 0.000, 15:43:13.658, 1578577393658
6, -174781.61, -174773.61, -174939.81, -174944.13, -174923.25, -174876.09, -175010.17, 187500.00, 0.000, 0.000, 0.000, 15:43:13.658, 1578577393658
7, -162729.50, -157994.19, -160469.92, -163070.08, -187500.02, -187500.02, -187500.02, -187500.02, 0.000, 0.000, 0.000, 15:43:13.658, 1578577393658
8, -174793.63, -174785.58, -174951.72, -174956.17, -174935.20, -174888.02, -175022.16, 187500.00, 0.000, 0.000, 0.000, 15:43:13.658, 1578577393658
9, -162737.72, -158006.63, -160477.23, -163083.44, -187500.02, -187500.02, -187500.02, -187500.02, 0.000, 0.000, 0.000, 15:43:13.658, 1578577393658
10, -174803.53, -174795.59, -174961.83, -174966.14, -174945.16, -174897.98, -175032.19, 187500.00, -0.020, -0.012, 0.970, 15:43:13.658, 1578577393658
11, -162749.66, -158024.17, -160488.20, -163101.59, -187500.02, -187500.02, -187500.02, -187500.02, 0.000, 0.000, 0.000, 15:43:13.658, 1578577393658
12, -174815.16, -174807.16, -174973.36, -174977.70, -174956.73, -174909.53, -175043.75, 187500.00, 0.000, 0.000, 0.000, 15:43:13.658, 1578577393658
13, -162759.47, -158038.67, -160497.14, -163116.86, -187500.02, -187500.02, -187500.02, -187500.02, 0.000, 0.000, 0.000, 15:43:13.658, 1578577393658
14, -174827.69, -174819.63, -174985.91, -174990.22, -174969.30, -174922.05, -175056.20, 187500.00, 0.000, 0.000, 0.000, 15:43:13.658, 1578577393658
15, -162770.50, -158057.58, -160507.22, -163136.38, -187500.02, -187500.02, -187500.02, -187500.02, 0.000, 0.000, 0.000, 15:43:13.658, 1578577393658
16, -174839.52, -174831.41, -174997.66, -175001.97, -174981.05, -174933.80, -175067.91, 187500.00, 0.000, 0.000, 0.000, 15:43:13.658, 1578577393658
17, -162780.81, -158073.63, -160516.70, -163153.14, -187500.02, -187500.02, -187500.02, -187500.02, 0.000, 0.000, 0.000, 15:43:13.659, 1578577393659
18, -174852.80, -174844.75, -175011.05, -175015.34, -174994.38, -174947.17, -175081.34, 187500.00, 0.000, 0.000, 0.000, 15:43:13.659, 1578577393659
19, -162792.89, -158093.06, -160527.73, -163173.23, -187500.02, -187500.02, -187500.02, -187500.02, 0.000, 0.000, 0.000, 15:43:13.659, 1578577393659
20, -174866.14, -174858.08, -175024.34, -175028.66, -175007.73, -174960.44, -175094.55, 187500.00, -0.018, -0.016, 0.974, 15:43:13.659, 1578577393659
21, -162803.00, -158109.31, -160536.92, -163190.19, -187500.02, -187500.02, -187500.02, -187500.02, 0.000, 0.000, 0.000, 15:43:13.659, 1578577393659
22, -174878.17, -174870.08, -175036.28, -175040.66, -175019.56, -174972.36, -175106.58, 187500.00, 0.000, 0.000, 0.000, 15:43:13.659, 1578577393659
23, -162815.20, -158129.00, -160548.22, -163210.33, -187500.02, -187500.02, -187500.02, -187500.02, 0.000, 0.000, 0.000, 15:43:13.659, 1578577393659
24, -174890.23, -174882.09, -175048.23, -175052.63, -175031.72, -174984.45, -175118.56, 187500.00, 0.000, 0.000, 0.000, 15:43:13.659, 1578577393659
25, -162824.31, -158143.38, -160556.47, -163225.55, -187500.02, -187500.02, -187500.02, -187500.02, 0.000, 0.000, 0.000, 15:43:13.659, 1578577393659
26, -174902.13, -174894.03, -175060.17, -175064.48, -175043.52, -174996.27, -175130.42, 187500.00, 0.000, 0.000, 0.000, 15:43:13.659, 1578577393659
27, -162835.56, -158160.73, -160566.80, -163243.33, -187500.02, -187500.02, -187500.02, -187500.02, 0.000, 0.000, 0.000, 15:43:13.659, 1578577393659
28, -174913.97, -174905.80, -175072.05, -175076.33, -175055.42, -175008.19, -175142.19, 187500.00, 0.000, 0.000, 0.000, 15:43:13.659, 1578577393659
29, -162846.36, -158175.31, -160576.56, -163258.48, -187500.02, -187500.02, -187500.02, -187500.02, -0.020, -0.014, 0.974, 15:43:13.659, 1578577393659
30, -174926.11, -174917.97, -175084.16, -175088.47, -175067.55, -175020.34, -175154.34, 187500.00, 0.000, 0.000, 0.000, 15:43:13.659, 1578577393659
31, -162857.95, -158194.73, -160587.38, -163278.55, -187500.02, -187500.02, -187500.02, -187500.02, 0.000, 0.000, 0.000, 15:43:13.659, 1578577393659
32, -174939.77, -174931.70, -175097.80, -175102.22, -175081.25, -175034.03, -175168.02, 187500.00, 0.000, 0.000, 0.000, 15:43:13.659, 1578577393659
33, -162869.59, -158214.41, -160598.16, -163298.70, -187500.02, -187500.02, -187500.02, -187500.02, 0.000, 0.000, 0.000, 15:43:13.659, 1578577393659
