%OpenBCI Raw EEG Data
%Number of channels = 8
%Sample Rate = 250.0 Hz
%First Column = SampleIndex
%Last Column = Timestamp 
%Other Columns = EEG data in microvolts followed by Accel Data (in G) interleaved with Aux Data
0, -44124.89, -44260.39, -84077.07, -87341.85, -45024.26, -49748.68, -65613.97, 93749.98, -0.010, -0.010, 0.492, 15:43:53.793, 1578577433793
1, -165210.77, -135445.80, -183392.61, 187500.00, -140690.39, 187500.00, -183032.17, -183599.69, 0.000, 0.000, 0.000, 15:43:54.280, 1578577434280
2, -88462.91, -88726.97, -168567.34, -174586.08, -90288.35, -99671.68, -131567.53, 187500.00, 0.000, 0.000, 0.000, 15:43:54.280, 1578577434280
3, -165521.05, -135715.77, -183390.06, 187500.00, -141141.78, 187500.00, -183064.78, -183618.88, 0.000, 0.000, 0.000, 15:43:54.280, 1578577434280
4, -88745.90, -88997.24, -169117.61, -174454.55, -90604.72, -99901.12, -132015.52, 187500.00, 0.000, 0.000, 0.000, 15:43:54.280, 1578577434280
5, -165838.20, -135991.30, -183390.52, 187500.00, -141599.86, 187500.00, -183103.56, -183646.16, 0.000, 0.000, 0.000, 15:43:54.280, 1578577434280
6, -89022.03, -89262.13, -169649.94, -174087.66, -90914.33, -100125.20, -132453.27, 187500.00, -0.012, -0.020, 0.736, 15:43:54.280, 1578577434280
7, -166149.30, -136258.83, -183391.70, 187500.00, -142049.95, 187500.00, -183135.56, -183668.39, 0.000, 0.000, 0.000, 15:43:54.280, 1578577434280
8, -89278.45, -89507.36, -170124.64, -174253.61, -91206.63, -100330.83, -132872.63, 187500.00, 0.000, 0.000, 0.000, 15:43:54.280, 1578577434280
9, -166464.31, -136528.98, -183389.44, 187500.00, -142501.59, 187500.00, -183170.13, -183693.36, 0.000, 0.000, 0.000, 15:43:54.281, 1578577434281
10, -89529.84, -89746.95, -170590.86, -174705.59, -91491.21, -100529.23, -133285.53, 187500.00, 0.000, 0.000, 0.000, 15:43:54.281, 1578577434281
11, -166776.63, -136799.69, -183392.39, 187500.00, -142954.69, 187500.00, -183205.86, -183720.36, 0.000, 0.000, 0.000, 15:43:54.281, 1578577434281
12, -89799.85, -90006.88, -171104.14, -175332.20, -91795.02, -100747.76, -133718.55, 187500.00, 0.000, 0.000, 0.000, 15:43:54.281, 1578577434281
13, -167087.52, -137070.55, -183388.22, 187500.00, -143405.48, 187500.00, -183238.95, -183746.55, 0.000, 0.000, 0.000, 15:43:54.281, 1578577434281
14, -90084.08, -90277.33, -171657.30, -175259.75, -92111.20, -100975.97, -134164.84, 187500.00, 0.000, 0.000, 0.000, 15:43:54.281, 1578577434281
15, -167402.41, -137341.89, -183390.14, 187500.00, -143860.98, 187500.00, -183277.56, -183776.47, 0.000, 0.000, 0.000, 15:43:54.281, 1578577434281
16, -90364.91, -90547.30, -172210.70, -175127.41, -92424.13, -101200.94, -134609.64, 187500.00, -0.024, -0.014, 0.856, 15:43:54.281, 1578577434281
17, -167709.02, -137607.69, -183389.38, 187500.00, -144310.84, 187500.00, -183310.03, -183801.70, 0.000, 0.000, 0.000, 15:43:54.281, 1578577434281
18, -90648.30, -90821.02, -172768.55, -175000.42, -92739.46, -101430.83, -135058.36, 187500.00, 0.000, 0.000, 0.000, 15:43:54.281, 1578577434281
19, -168022.30, -137878.05, -183389.48, 187500.00, -144760.69, 187500.00, -183345.39, -183830.48, 0.000, 0.000, 0.000, 15:43:54.281, 1578577434281
20, -90928.93, -91092.72, -173321.55, -174869.53, -93053.69, -101657.48, -135505.03, 187500.00, 0.000, 0.000, 0.000, 15:43:54.281, 1578577434281
21, -168339.50, -138151.34, -183388.13, 187500.00, -145214.81, 187500.00, -183383.09, -183860.59, 0.000, 0.000, 0.000, 15:43:54.281, 1578577434281
22, -91212.86, -91366.53, -173877.72, -174743.77, -93372.78, -101888.77, -135952.30, 187500.00, 0.000, 0.000, 0.000, 15:43:54.281, 1578577434281
23, -168650.98, -138419.61, -183389.06, 187500.00, -145667.05, 187500.00, -183415.95, -183886.77, 0.000, 0.000, 0.000, 15:43:54.281, 1578577434281
24, -91494.23, -91635.89, -174417.08, -174614.89, -93687.71, -102116.13, -136400.44, 187500.00, 0.000, 0.000, 0.000, 15:43:54.281, 1578577434281
25, -168965.09, -138690.00, -183391.44, 187500.00, -146119.30, 187500.00, -183451.56, -183916.81, 0.000, 0.000, 0.000, 15:43:54.282, 1578577434282
26, -91790.90, -91923.73, -174690.13, -174500.00, -94016.73, -102358.89, -136864.08, 187500.00, -0.018, -0.018, 0.918, 15:43:54.282, 1578577434282
27, -169274.42, -138955.66, -183394.30, 187500.00, -146569.22, 187500.00, -183484.88, -183943.34, 0.000, 0.000, 0.000, 15:43:54.282, 1578577434282
28, -92117.44, -92240.98, -174700.42, -174413.98, -94375.59, -102630.20, -137358.28, 187500.00, 0.000, 0.000, 0.000, 15:43:54.282, 1578577434282
29, -169590.69, -139228.63, -183393.75, 187500.00, -147024.30, 187500.00, -183523.75, -183976.11, 0.000, 0.000, 0.000, 15:43:54.282, 1578577434282
30, -92446.19, -92555.73, -174689.63, -174327.59, -94737.51, -102902.17, -137853.13, 187500.00, 0.000, 0.000, 0.000, 15:43:54.282, 1578577434282
31, -169903.66, -139500.56, -183396.02, 187500.00, -147477.52, 187500.00, -183560.70, -184006.81, 0.000, 0.000, 0.000, 15:43:54.282, 1578577434282
32, -92779.63, -92875.45, -174673.77, -174236.11, -95101.38, -103175.78, -138352.72, 187500.00, 0.000, 0.000, 0.000, 15:43:54.282, 1578577434282
33, -170211.30, -139763.53, -183392.50, 187500.00, -147924.28, 187500.00, -183592.03, -184033.75, 0.000, 0.000, 0.000, 15:43:54.282, 1578577434282
34, -93091.86, -93176.20, -174674.72, -173914.16, -95448.72, -103432.09, -138831.23, 187500.00, 0.000, 0.000, 0.000, 15:43:54.283, 1578577434283
35, -170528.36, -140037.63, -183392.28, 187500.00, -148376.70, 187500.00, -183631.59, -184068.08, 0.000, 0.000, 0.000, 15:43:54.283, 1578577434283
36, -93374.99, -93453.31, -174666.84, -174256.16, -95767.61, -103664.30, -139282.36, 187500.00, -0.014, -0.022, 0.952, 15:43:54.283, 1578577434283
37, -170837.17, -140304.16, -183397.39, 187500.00, -148824.30, 187500.00, -183666.45, -184097.75, 0.000, 0.000, 0.000, 15:43:54.283, 1578577434283
38, -93671.53, -93738.50, -174653.80, -174971.86, -96095.33, -103905.05, -139743.44, 187500.00, 0.000, 0.000, 0.000, 15:43:54.283, 1578577434283
39, -171153.20, -140576.94, -183394.78, 187500.00, -149277.38, 187500.00, -183704.02, -184130.80, 0.000, 0.000, 0.000, 15:43:54.283, 1578577434283
40, -93992.52, -94051.29, -174639.50, -175201.86, -96445.12, -104168.55, -140233.19, 187500.00, 0.000, 0.000, 0.000, 15:43:54.283, 1578577434283
41, -171463.84, -140843.17, -183397.75, 187500.00, -149722.84, 187500.00, -183738.03, -184159.64, 0.000, 0.000, 0.000, 15:43:54.283, 1578577434283
42, -94320.98, -94371.16, -174632.27, -175117.70, -96805.55, -104442.37, -140731.58, 187500.00, 0.000, 0.000, 0.000, 15:43:54.283, 1578577434283
43, -171773.42, -141110.00, -183399.25, 187500.00, -150169.11, 187500.00, -183771.09, -184188.88, 0.000, 0.000, 0.000, 15:43:54.284, 1578577434284
44, -94651.50, -94690.63, -174621.34, -175034.83, -97164.37, -104715.73, -141227.38, 187500.00, 0.000, 0.000, 0.000, 15:43:54.284, 1578577434284
45, -172094.09, -141386.52, -183394.92, 187500.00, -150625.16, 187500.00, -183812.52, -184226.00, 0.000, 0.000, 0.000, 15:43:54.284, 1578577434284
46, -94983.31, -95010.60, -174613.36, -174950.50, -97526.45, -104990.14, -141719.39, 187500.00, -0.026, -0.016, 0.966, 15:43:54.284, 1578577434284
47, -172408.14, -141655.00, -183395.28, 187500.00, -151068.84, 187500.00, -183847.58, -184255.48, 0.000, 0.000, 0.000, 15:43:54.284, 1578577434284
48, -95312.73, -95333.67, -174607.34, -174868.80, -97888.27, -105264.40, -142214.84, 187500.00, 0.000, 0.000, 0.000, 15:43:54.284, 1578577434284
49, -172724.11, -141921.28, -183396.58, 187500.00, -151515.36, 187500.00, -183883.34, -184286.91, 0.000, 0.000, 0.000, 15:43:54.284, 1578577434284
50, -95638.91, -95649.39, -174601.45, -174782.08, -98244.34, -105533.22, -142706.97, 187500.00, 0.000, 0.000, 0.000, 15:43:54.284, 1578577434284
51, -173038.75, -142187.58, -183398.81, 187500.00, -151964.09, 187500.00, -183919.58, -184319.66, 0.000, 0.000, 0.000, 15:43:54.284, 1578577434284
52, -95971.48, -95968.93, -174589.27, -174702.30, -98608.31, -105808.04, -143203.20, 187500.00, 0.000, 0.000, 0.000, 15:43:54.284, 1578577434284
53, -173353.33, -142455.06, -183402.63, 187500.00, -152413.75, 187500.00, -183956.59, -184352.33, 0.000, 0.000, 0.000, 15:43:54.284, 1578577434284
54, -96302.84, -96287.65, -174587.08, -174620.47, -98969.05, -106078.38, -143699.34, 187500.00, 0.000, 0.000, 0.000, 15:43:54.284, 1578577434284
55, -173669.56, -142723.19, -183405.94, 187500.00, -152865.25, 187500.00, -183995.80, -184388.11, -0.022, -0.016, 0.976, 15:43:54.284, 1578577434284
56, -96631.86, -96605.38, -174577.36, -174536.11, -99329.52, -106345.98, -144191.13, 187500.00, 0.000, 0.000, 0.000, 15:43:54.284, 1578577434284
57, -173979.00, -142985.41, -183407.28, 187500.00, -153308.05, 187500.00, -184027.78, -184415.98, 0.000, 0.000, 0.000, 15:43:54.284, 1578577434284
58, -96963.67, -96928.31, -174567.52, -174456.30, -99691.37, -106619.60, -144686.92, 187500.00, 0.000, 0.000, 0.000, 15:43:54.285, 1578577434285
59, -174297.94, -143255.45, -183404.95, 187500.00, -153759.19, 187500.00, -184065.00, -184450.45, 0.000, 0.000, 0.000, 15:43:54.285, 1578577434285
60, -97295.24, -97246.85, -174558.36, -174373.44, -100050.72, -106891.00, -145180.31, 187500.00, 0.000, 0.000, 0.000, 15:43:54.285, 1578577434285
61, -174617.39, -143524.09, -183407.17, 187500.00, -154208.91, 187500.00, -184104.03, -184485.23, 0.000, 0.000, 0.000, 15:43:54.285, 1578577434285
62, -97628.37, -97570.62, -174552.64, -174295.48, -100414.02, -107167.49, -145679.25, 187500.00, 0.000, 0.000, 0.000, 15:43:54.285, 1578577434285
63, -174931.50, -143793.39, -183407.97, 187500.00, -154654.83, 187500.00, -184139.78, -184517.05, 0.000, 0.000, 0.000, 15:43:54.285, 1578577434285
64, -97956.54, -97889.75, -174541.61, -174214.45, -100775.27, -107438.17, -146172.33, 187500.00, 0.000, 0.000, 0.000, 15:43:54.285, 1578577434285
65, -175251.19, -144064.75, -183408.31, 187500.00, -155104.45, 187500.00, -184178.13, -184551.91, -0.020, -0.012, 0.974, 15:43:54.285, 1578577434285
66, -98285.27, -98208.87, -174532.56, -174132.17, -101136.92, -107706.75, -146664.67, 187500.00, 0.000, 0.000, 0.000, 15:43:54.285, 1578577434285
67, -175564.23, -144328.56, -183409.78, 187500.00, -155550.86, 187500.00, -184211.19, -184580.75, 0.000, 0.000, 0.000, 15:43:54.285, 1578577434285
68, -98617.95, -98531.90, -174521.34, -173951.39, -101499.89, -107980.00, -147161.98, 187500.00, 0.000, 0.000, 0.000, 15:43:54.285, 1578577434285
69, -175883.64, -144598.91, -183409.63, 187500.00, -156000.34, 187500.00, -184250.72, -184616.66, 0.000, 0.000, 0.000, 15:43:54.285, 1578577434285
70, -98918.42, -98819.96, -174524.84, -173837.88, -101829.00, -108222.29, -147625.16, 187500.00, 0.000, 0.000, 0.000, 15:43:54.285, 1578577434285
71, -176202.13, -144868.13, -183415.84, 187500.00, -156448.50, 187500.00, -184286.86, -184650.55, 0.000, 0.000, 0.000, 15:43:54.286, 1578577434286
72, -99205.63, -99097.75, -174514.02, -174379.72, -102147.36, -108456.52, -148075.42, 187500.00, 0.000, 0.000, 0.000, 15:43:54.286, 1578577434286
73, -176515.88, -145134.20, -183416.42, 187500.00, -156893.48, 187500.00, -184320.55, -184680.30, 0.000, 0.000, 0.000, 15:43:54.286, 1578577434286
74, -99516.04, -99397.84, -174499.66, -175056.83, -102485.00, -108709.78, -148547.61, 187500.00, 0.000, 0.000, 0.000, 15:43:54.286, 1578577434286
75, -176839.48, -145405.53, -183419.69, 187500.00, -157343.42, 187500.00, -184359.28, -184716.23, -0.018, -0.012, 0.974, 15:43:54.286, 1578577434286
76, -99849.02, -99718.28, -174491.56, -175026.36, -102847.68, -108985.36, -149042.41, 187500.00, 0.000, 0.000, 0.000, 15:43:54.286, 1578577434286
77, -177160.23, -145675.52, -183419.19, 187500.00, -157790.22, 187500.00, -184393.45, -184746.42, 0.000, 0.000, 0.000, 15:43:54.286, 1578577434286
78, -100187.96, -100045.11, -174482.58, -174950.56, -103212.93, -109265.13, -149541.70, 187500.00, 0.000, 0.000, 0.000, 15:43:54.286, 1578577434286
79, -177483.27, -145946.98, -183419.13, 187500.00, -158238.30, 187500.00, -184429.16, -184780.55, 0.000, 0.000, 0.000, 15:43:54.289, 1578577434289
80, -100519.14, -100365.63, -174476.59, -174870.23, -103574.09, -109535.50, -150032.03, 187500.00, 0.000, 0.000, 0.000, 15:43:54.289, 1578577434289
81, -177800.41, -146213.80, -183423.69, 187500.00, -158683.17, 187500.00, -184462.48, -184811.23, 0.000, 0.000, 0.000, 15:43:54.289, 1578577434289
82, -100852.01, -100686.47, -174469.11, -174793.81, -103936.73, -109813.24, -150527.95, 187500.00, 0.000, 0.000, 0.000, 15:43:54.289, 1578577434289
83, -178118.70, -146480.52, -183422.00, 187500.00, -159127.97, 187500.00, -184495.70, -184841.59, 0.000, 0.000, 0.000, 15:43:54.289, 1578577434289
84, -101186.99, -101009.50, -174462.47, -174717.23, -104300.16, -110088.48, -151022.03, 187500.00, 0.000, 0.000, 0.000, 15:43:54.289, 1578577434289
85, -178445.81, -146751.25, -183428.20, 187500.00, -159577.25, 187500.00, -184536.28, -184879.08, -0.018, -0.018, 0.972, 15:43:54.289, 1578577434289
86, -101518.11, -101332.23, -174459.19, -174639.09, -104658.22, -110361.33, -151518.00, 187500.00, 0.000, 0.000, 0.000, 15:43:54.289, 1578577434289
87, -178763.84, -147015.73, -183431.97, 187500.00, -160020.17, 187500.00, -184568.16, -184908.58, 0.000, 0.000, 0.000, 15:43:54.289, 1578577434289
88, -101852.76, -101657.32, -174450.89, -174563.78, -105022.33, -110636.02, -152016.88, 187500.00, 0.000, 0.000, 0.000, 15:43:54.290, 1578577434290
89, -179089.09, -147282.03, -183429.52, 187500.00, -160465.41, 187500.00, -184604.14, -184941.91, 0.000, 0.000, 0.000, 15:43:54.290, 1578577434290
90, -102183.99, -101977.98, -174440.31, -174483.95, -105382.44, -110906.27, -152510.42, 187500.00, 0.000, 0.000, 0.000, 15:43:54.290, 1578577434290
91, -179411.75, -147546.67, -183431.64, 187500.00, -160911.56, 187500.00, -184639.39, -184974.78, 0.000, 0.000, 0.000, 15:43:54.290, 1578577434290
92, -102520.56, -102303.91, -174433.48, -174409.98, -105749.56, -111185.93, -153009.94, 187500.00, 0.000, 0.000, 0.000, 15:43:54.290, 1578577434290
93, -179734.02, -147813.11, -183430.86, 187500.00, -161356.48, 187500.00, -184675.41, -185007.63, 0.000, 0.000, 0.000, 15:43:54.290, 1578577434290
94, -102853.98, -102626.87, -174425.78, -174334.41, -106112.40, -111460.59, -153507.39, 187500.00, -0.018, -0.014, 0.962, 15:43:54.290, 1578577434290
95, -180063.80, -148083.83, -183435.55, 187500.00, -161804.52, 187500.00, -184712.81, -185042.52, 0.000, 0.000, 0.000, 15:43:54.290, 1578577434290
96, -103182.45, -102948.45, -174420.56, -174256.00, -106472.04, -111730.80, -154002.11, 187500.00, 0.000, 0.000, 0.000, 15:43:54.290, 1578577434290
97, -180386.75, -148346.20, -183437.59, 187500.00, -162246.23, 187500.00, -184742.53, -185070.30, 0.000, 0.000, 0.000, 15:43:54.290, 1578577434290
98, -103516.20, -103273.05, -174413.34, -174181.11, -106837.76, -112007.00, -154500.44, 187500.00, 0.000, 0.000, 0.000, 15:43:54.290, 1578577434290
99, -180719.80, -148615.52, -183439.23, 187500.00, -162693.30, 187500.00, -184778.09, -185103.22, 0.000, 0.000, 0.000, 15:43:54.290, 1578577434290
100, -103849.80, -103596.40, -174404.53, -174103.61, -107201.49, -112282.30, -154995.00, 187500.00, 0.000, 0.000, 0.000, 15:43:54.290, 1578577434290
101, -181053.13, -148884.97, -183440.33, 187500.00, -163140.06, 187500.00, -184814.31, -185138.13, 0.000, 0.000, 0.000, 15:43:54.290, 1578577434290
102, -104186.17, -103923.92, -174397.02, -174031.14, -107569.64, -112561.03, -155493.30, 187500.00, 0.000, 0.000, 0.000, 15:43:54.291, 1578577434291
103, -181381.05, -149149.13, -183441.78, 187500.00, -163582.55, 187500.00, -184847.98, -185170.22, 0.000, 0.000, 0.000, 15:43:54.291, 1578577434291
104, -104517.00, -104247.95, -174387.36, -173943.80, -107931.18, -112835.13, -155990.03, 187500.00, -0.020, -0.014, 0.970, 15:43:54.291, 1578577434291
105, -181712.86, -149417.34, -183444.09, 187500.00, -164029.75, 187500.00, -184885.52, -185204.58, 0.000, 0.000, 0.000, 15:43:54.291, 1578577434291
106, -104833.77, -104552.90, -174388.77, -173633.42, -108273.50, -113093.68, -156469.31, 187500.00, 0.000, 0.000, 0.000, 15:43:54.291, 1578577434291
107, -182041.67, -149680.48, -183444.50, 187500.00, -164471.64, 187500.00, -184918.69, -185234.84, 0.000, 0.000, 0.000, 15:43:54.291, 1578577434291
108, -105130.63, -104836.83, -174378.27, -174009.23, -108595.41, -113330.67, -156925.88, 187500.00, 0.000, 0.000, 0.000, 15:43:54.291, 1578577434291
109, -182381.42, -149949.13, -183445.13, 187500.00, -164918.56, 187500.00, -184956.25, -185270.94, 0.000, 0.000, 0.000, 15:43:54.291, 1578577434291
110, -105428.93, -105124.07, -174364.95, -174747.41, -108924.88, -113570.75, -157385.80, 187500.00, 0.000, 0.000, 0.000, 15:43:54.291, 1578577434291
111, -182715.48, -150213.69, -183452.98, 187500.00, -165361.95, 187500.00, -184993.00, -185305.77, 0.000, 0.000, 0.000, 15:43:54.291, 1578577434291
112, -105758.80, -105446.16, -174360.13, -174929.95, -109285.95, -113843.89, -157879.48, 187500.00, 0.000, 0.000, 0.000, 15:43:54.291, 1578577434291
113, -183045.63, -150474.58, -183454.69, 187500.00, -165800.39, 187500.00, -185024.00, -185334.31, 0.000, 0.000, 0.000, 15:43:54.291, 1578577434291
114, -106088.17, -105768.18, -174357.13, -174852.34, -109649.85, -114119.04, -158374.36, 187500.00, -0.020, -0.014, 0.972, 15:43:54.291, 1578577434291
115, -183366.47, -150744.20, -183457.53, 187500.00, -166247.53, 187500.00, -185061.73, -185369.61, 0.000, 0.000, 0.000, 15:43:54.291, 1578577434291
116, -106421.62, -106090.09, -174350.39, -174775.39, -110014.16, -114394.70, -158869.02, 187500.00, 0.000, 0.000, 0.000, 15:43:54.291, 1578577434291
117, -183468.16, -151037.02, -183460.50, 187500.00, -166695.89, 187500.00, -185102.48, -185409.09, 0.000, 0.000, 0.000, 15:43:54.291, 1578577434291
118, -106760.24, -106417.63, -174344.88, -174702.06, -110382.08, -114672.78, -159369.98, 187500.00, 0.000, 0.000, 0.000, 15:43:54.291, 1578577434291
119, -183468.03, -151360.38, -183459.98, 187500.00, -167154.97, 187500.00, -185151.70, -185456.98, 0.000, 0.000, 0.000, 15:43:54.291, 1578577434291
120, -107092.50, -106741.18, -174335.53, -174623.00, -110744.24, -114944.98, -159861.50, 187500.00, 0.000, 0.000, 0.000, 15:43:54.292, 1578577434292
121, -183472.25, -151681.06, -183464.34, 187500.00, -167612.08, 187500.00, -185196.20, -185500.86, 0.000, 0.000, 0.000, 15:43:54.756, 1578577434756
122, -107427.73, -107067.45, -174330.02, -174548.30, -111110.95, -115221.85, -160361.20, 187500.00, 0.000, 0.000, 0.000, 15:43:54.757, 1578577434757
123, -183474.84, -151999.28, -183465.95, 187500.00, -168069.83, 187500.00, -185240.55, -185543.03, 0.000, 0.000, 0.000, 15:43:54.757, 1578577434757
124, -107763.27, -107393.87, -174324.28, -174474.78, -111476.77, -115497.38, -160859.28, 187500.00, -0.016, -0.014, 0.972, 15:43:54.757, 1578577434757
125, -183480.55, -152324.94, -183471.00, 187500.00, -168535.09, 187500.00, -185293.31, -185592.67, 0.000, 0.000, 0.000, 15:43:54.757, 1578577434757
126, -108096.01, -107717.92, -174320.27, -174399.33, -111840.30, -115772.09, -161360.28, 187500.00, 0.000, 0.000, 0.000, 15:43:54.757, 1578577434757
127, -183483.63, -152640.75, -183476.13, 187500.00, -168992.25, 187500.00, -185338.09, -185635.91, 0.000, 0.000, 0.000, 15:43:54.757, 1578577434757
128, -108430.68, -108045.83, -174313.56, -174327.38, -112204.45, -116047.41, -161861.81, 187500.00, 0.000, 0.000, 0.000, 15:43:54.757, 1578577434757
129, -183484.55, -152963.13, -183476.23, 187500.00, -169454.20, 187500.00, -185385.03, -185682.27, 0.000, 0.000, 0.000, 15:43:54.757, 1578577434757
130, -108761.38, -108368.79, -174304.47, -174249.86, -112563.90, -116319.01, -162358.17, 187500.00, 0.000, 0.000, 0.000, 15:43:54.758, 1578577434758
131, -183488.17, -153282.98, -183481.98, 187500.00, -169914.84, 187500.00, -185433.80, -185729.11, 0.000, 0.000, 0.000, 15:43:54.758, 1578577434758
132, -109096.38, -108696.10, -174301.58, -174178.13, -112929.10, -116599.41, -162860.19, 187500.00, 0.000, 0.000, 0.000, 15:43:54.758, 1578577434758
133, -183492.02, -153601.47, -183487.61, 187500.00, -170371.72, 187500.00, -185481.03, -185774.47, -0.018, -0.014, 0.970, 15:43:54.758, 1578577434758
134, -109431.08, -109022.33, -174295.64, -174103.09, -113295.49, -116876.17, -163359.59, 187500.00, 0.000, 0.000, 0.000, 15:43:54.758, 1578577434758
135, -183495.81, -153922.95, -183489.86, 187500.00, -170831.47, 187500.00, -185530.84, -185823.80, 0.000, 0.000, 0.000, 15:43:54.758, 1578577434758
136, -109763.84, -109347.03, -174285.47, -174027.13, -113657.52, -117150.30, -163857.55, 187500.00, 0.000, 0.000, 0.000, 15:43:54.758, 1578577434758
137, -183497.36, -154237.94, -183492.92, 187500.00, -171286.59, 187500.00, -185573.88, -185865.03, 0.000, 0.000, 0.000, 15:43:54.758, 1578577434758
138, -110099.82, -109673.73, -174282.05, -173955.27, -114021.14, -117427.34, -164357.77, 187500.00, 0.000, 0.000, 0.000, 15:43:54.758, 1578577434758
139, -183503.41, -154560.45, -183496.86, 187500.00, -171747.64, 187500.00, -185623.81, -185912.45, 0.000, 0.000, 0.000, 15:43:54.758, 1578577434758
140, -110433.64, -109996.98, -174275.30, -173880.31, -114382.66, -117699.92, -164858.77, 187500.00, 0.000, 0.000, 0.000, 15:43:54.758, 1578577434758
141, -183506.27, -154883.03, -183502.08, 187500.00, -172209.66, 187500.00, -185673.61, -185960.50, 0.000, 0.000, 0.000, 15:43:54.758, 1578577434758
142, -110771.76, -110324.50, -174262.48, -173749.56, -114747.68, -117977.42, -165360.77, 187500.00, 0.000, 0.000, 0.000, 15:43:54.758, 1578577434758
143, -183508.91, -155197.39, -183503.97, 187500.00, -172665.91, 187500.00, -185720.11, -186005.13, -0.022, -0.014, 0.966, 15:43:54.758, 1578577434758
144, -111079.00, -110623.07, -174267.89, -173543.28, -115083.07, -118227.18, -165834.84, 187500.00, 0.000, 0.000, 0.000, 15:43:54.759, 1578577434759
145, -183509.69, -155517.69, -183502.98, 187500.00, -173128.89, 187500.00, -185769.34, -186053.88, 0.000, 0.000, 0.000, 15:43:54.759, 1578577434759
146, -111363.77, -110900.41, -174253.61, -174059.42, -115400.87, -118458.27, -166289.53, 187500.00, 0.000, 0.000, 0.000, 15:43:54.759, 1578577434759
147, -183513.97, -155833.36, -183508.67, 187500.00, -173586.30, 187500.00, -185814.63, -186097.36, 0.000, 0.000, 0.000, 15:43:54.759, 1578577434759
148, -111676.66, -111202.12, -174243.36, -174777.67, -115744.93, -118715.90, -166775.23, 187500.00, 0.000, 0.000, 0.000, 15:43:54.759, 1578577434759
149, -183518.75, -156155.61, -183514.61, 187500.00, -174048.17, 187500.00, -185864.63, -186145.09, 0.000, 0.000, 0.000, 15:43:54.759, 1578577434759
150, -112008.70, -111523.24, -174241.16, -174772.59, -116109.02, -118990.60, -167278.02, 187500.00, 0.000, 0.000, 0.000, 15:43:54.759, 1578577434759
151, -183526.08, -156473.16, -183522.08, 187500.00, -174508.91, 187500.00, -185911.95, -186192.63, 0.000, 0.000, 0.000, 15:43:54.759, 1578577434759
152, -112342.08, -111848.02, -174233.86, -174699.38, -116474.66, -119266.78, -167782.06, 187500.00, 0.000, 0.000, 0.000, 15:43:54.759, 1578577434759
153, -183527.58, -156787.20, -183524.78, 187500.00, -174968.67, 187500.00, -185955.28, -186235.02, -0.020, -0.014, 0.968, 15:43:54.759, 1578577434759
154, -112679.70, -112172.18, -174226.64, -174624.00, -116837.08, -119540.08, -168283.70, 187500.00, 0.000, 0.000, 0.000, 15:43:54.759, 1578577434759
155, -183528.64, -157108.39, -183526.91, 187500.00, -175430.03, 187500.00, -186004.42, -186283.34, 0.000, 0.000, 0.000, 15:43:54.759, 1578577434759
156, -113016.12, -112496.30, -174222.08, -174548.83, -117199.91, -119816.01, -168787.89, 187500.00, 0.000, 0.000, 0.000, 15:43:54.759, 1578577434759
157, -183533.98, -157427.27, -183530.80, 187500.00, -175888.55, 187500.00, -186051.95, -186330.33, 0.000, 0.000, 0.000, 15:43:54.759, 1578577434759
158, -113354.09, -112824.23, -174217.00, -174478.89, -117568.65, -120092.61, -169295.59, 187500.00, 0.000, 0.000, 0.000, 15:43:54.759, 1578577434759
159, -183538.34, -157749.42, -183534.45, 187500.00, -176350.58, 187500.00, -186100.63, -186377.80, 0.000, 0.000, 0.000, 15:43:54.759, 1578577434759
160, -113684.12, -113143.63, -174213.38, -174402.36, -117930.77, -120363.24, -169799.78, 187500.00, 0.000, 0.000, 0.000, 15:43:54.759, 1578577434759
161, -183545.92, -158066.44, -183542.69, 187500.00, -176812.13, 187500.00, -186147.05, -186422.95, 0.000, 0.000, 0.000, 15:43:54.759, 1578577434759
162, -114019.84, -113465.14, -174205.31, -174329.56, -118297.81, -120639.22, -170308.50, 187500.00, 0.000, 0.000, 0.000, 15:43:54.760, 1578577434760
163, -183547.28, -158382.83, -183541.67, 187500.00, -177271.81, 187500.00, -186192.03, -186466.67, -0.016, -0.016, 0.978, 15:43:54.760, 1578577434760
164, -114356.46, -113790.89, -174200.08, -174256.11, -118665.18, -120916.32, -170822.34, 187500.00, 0.000, 0.000, 0.000, 15:43:54.760, 1578577434760
165, -183551.48, -158707.44, -183548.34, 187500.00, -177738.83, 187500.00, -186244.92, -186518.02, 0.000, 0.000, 0.000, 15:43:54.760, 1578577434760
166, -114690.15, -114117.05, -174192.97, -174181.48, -119030.59, -121192.85, -171333.30, 187500.00, 0.000, 0.000, 0.000, 15:43:54.760, 1578577434760
167, -183557.86, -159021.13, -183553.53, 187500.00, -178197.75, 187500.00, -186288.27, -186561.16, 0.000, 0.000, 0.000, 15:43:54.761, 1578577434761
168, -115024.94, -114445.66, -174191.91, -174108.38, -119401.18, -121473.32, -171848.41, 187500.00, 0.000, 0.000, 0.000, 15:43:54.763, 1578577434763
169, -183559.38, -159339.97, -183554.28, 187500.00, -178658.72, 187500.00, -186333.39, -186605.34, 0.000, 0.000, 0.000, 15:43:54.763, 1578577434763
170, -115356.32, -114769.01, -174182.05, -174031.61, -119764.84, -121746.77, -172358.50, 187500.00, 0.000, 0.000, 0.000, 15:43:54.763, 1578577434763
171, -183562.63, -159659.17, -183557.61, 187500.00, -179123.36, 187500.00, -186381.98, -186653.13, 0.000, 0.000, 0.000, 15:43:54.763, 1578577434763
172, -115693.03, -115096.02, -174178.52, -173960.64, -120133.38, -122025.03, -172873.97, 187500.00, -0.014, -0.018, 0.970, 15:43:54.764, 1578577434764
173, -183566.94, -159976.86, -183561.66, 187500.00, -179589.64, 187500.00, -186427.48, -186699.16, 0.000, 0.000, 0.000, 15:43:54.764, 1578577434764
174, -116028.75, -115422.19, -174172.72, -173887.14, -120499.32, -122301.19, -173390.92, 187500.00, 0.000, 0.000, 0.000, 15:43:54.764, 1578577434764
175, -183572.70, -160296.41, -183569.47, 187500.00, -180058.77, 187500.00, -186475.88, -186747.36, 0.000, 0.000, 0.000, 15:43:54.764, 1578577434764
176, -116359.06, -115742.42, -174167.06, -173810.28, -120860.44, -122572.80, -173902.56, 187500.00, 0.000, 0.000, 0.000, 15:43:54.764, 1578577434764
177, -183577.44, -160604.72, -183573.80, 187500.00, -180520.81, 187500.00, -186517.81, -186788.00, 0.000, 0.000, 0.000, 15:43:54.764, 1578577434764
178, -116694.38, -116070.66, -174158.22, -173738.89, -121228.37, -122849.07, -174425.20, 187500.00, 0.000, 0.000, 0.000, 15:43:54.764, 1578577434764
179, -183580.58, -160918.66, -183578.06, 187500.00, -180989.80, 187500.00, -186565.83, -186834.02, 0.000, 0.000, 0.000, 15:43:54.764, 1578577434764
180, -117066.54, -116432.24, -174144.45, -173694.38, -121629.98, -123160.70, -174682.52, 187500.00, 0.000, 0.000, 0.000, 15:43:54.764, 1578577434764
181, -183583.34, -161239.48, -183580.69, 187500.00, -181462.59, 187500.00, -186616.34, -186883.84, 0.000, 0.000, 0.000, 15:43:54.764, 1578577434764
182, -117465.30, -116818.80, -174143.84, -173567.22, -122059.70, -123496.73, -174642.80, 187500.00, -0.020, -0.014, 0.968, 15:43:54.764, 1578577434764
183, -183588.77, -161555.34, -183584.73, 187500.00, -181927.28, 187500.00, -186659.33, -186926.33, 0.000, 0.000, 0.000, 15:43:54.764, 1578577434764
184, -117826.91, -117170.59, -174153.41, -173540.14, -122451.93, -123799.40, -174565.67, 187500.00, 0.000, 0.000, 0.000, 15:43:54.764, 1578577434764
185, -183588.69, -161876.22, -183587.48, 187500.00, -182397.94, 187500.00, -186706.66, -186972.20, 0.000, 0.000, 0.000, 15:43:54.764, 1578577434764
186, -118160.02, -117491.54, -174149.50, -174224.02, -122815.99, -124078.38, -174585.31, 187500.00, 0.000, 0.000, 0.000, 15:43:54.764, 1578577434764
187, -183595.41, -162186.78, -183594.42, 187500.00, -182865.14, 187500.00, -186750.25, -187015.31, 0.000, 0.000, 0.000, 15:43:54.764, 1578577434764
188, -118539.50, -117856.25, -174140.25, -174765.84, -123224.11, -124397.09, -174665.28, 187500.00, 0.000, 0.000, 0.000, 15:43:54.764, 1578577434764
189, -183598.09, -162507.28, -183598.20, 187500.00, -183337.98, 187500.00, -186798.91, -187064.84, 0.000, 0.000, 0.000, 15:43:54.765, 1578577434765
190, -118936.38, -118240.79, -174140.84, -174744.75, -123650.49, -124732.61, -174622.11, 187500.00, 0.000, 0.000, 0.000, 15:43:54.765, 1578577434765
191, -183602.83, -162827.42, -183601.69, 187500.00, -183806.72, 187500.00, -186849.05, -187113.75, 0.000, 0.000, 0.000, 15:43:54.765, 1578577434765
192, -119334.84, -118627.03, -174137.20, -174724.70, -124078.35, -125070.77, -174583.17, 187500.00, -0.014, -0.016, 0.970, 15:43:54.765, 1578577434765
193, -183606.20, -163188.03, -183602.72, 187500.00, -184022.70, 187500.00, -186928.55, -187193.13, 0.000, 0.000, 0.000, 15:43:54.765, 1578577434765
194, -119730.24, -119014.01, -174137.36, -174702.14, -124504.09, -125408.91, -174542.05, 187500.00, 0.000, 0.000, 0.000, 15:43:54.765, 1578577434765
195, -183613.50, -163574.98, -183608.95, 187500.00, -184082.95, 187500.00, -187028.91, -187293.53, 0.000, 0.000, 0.000, 15:43:54.765, 1578577434765
196, -120126.34, -119398.16, -174135.75, -174677.78, -124931.05, -125745.01, -174505.03, 187500.00, 0.000, 0.000, 0.000, 15:43:54.765, 1578577434765
197, -183622.22, -163952.45, -183619.66, 187500.00, -184139.23, 187500.00, -187126.34, -187389.36, 0.000, 0.000, 0.000, 15:43:54.765, 1578577434765
198, -120509.83, -119770.88, -174137.19, -174642.02, -125343.23, -126065.35, -174648.36, 187500.00, 0.000, 0.000, 0.000, 15:43:54.765, 1578577434765
199, -183630.91, -164333.08, -183627.33, 187500.00, -184199.06, 187500.00, -187226.03, -187481.20, 0.000, 0.000, 0.000, 15:43:54.765, 1578577434765
200, -120902.17, -120154.46, -174134.34, -174614.48, -125765.46, -126397.41, -174638.98, 187500.00, 0.000, 0.000, 0.000, 15:43:54.765, 1578577434765
201, -183637.70, -164714.36, -183635.11, 187500.00, -184258.55, 187500.00, -187323.86, -187500.02, 0.000, 0.000, 0.000, 15:43:54.765, 1578577434765
202, -121302.33, -120545.66, -174130.36, -174593.34, -126194.16, -126734.34, -174600.48, 187500.00, -0.022, -0.014, 0.972, 15:43:54.765, 1578577434765
203, -183646.47, -165090.58, -183644.45, 187500.00, -184316.92, 187500.00, -187420.41, -187500.02, 0.000, 0.000, 0.000, 15:43:54.765, 1578577434765
204, -121701.20, -120935.34, -174133.34, -174571.77, -126626.12, -127074.49, -174561.27, 187500.00, 0.000, 0.000, 0.000, 15:43:54.765, 1578577434765
205, -183656.45, -165473.17, -183653.58, 187500.00, -184381.95, 187500.00, -187498.81, -187500.02, 0.000, 0.000, 0.000, 15:43:54.766, 1578577434766
206, -122099.06, -121323.03, -174130.41, -174548.80, -127053.81, -127412.47, -174520.98, 187500.00, 0.000, 0.000, 0.000, 15:43:54.766, 1578577434766
207, -183664.64, -165848.83, -183663.25, 187500.00, -184441.50, 187500.00, -187500.02, -187500.02, 0.000, 0.000, 0.000, 15:43:54.766, 1578577434766
208, -122486.55, -121700.02, -174130.30, -174516.94, -127472.30, -127742.54, -174555.92, 187500.00, 0.000, 0.000, 0.000, 15:43:54.766, 1578577434766
209, -183669.75, -166227.58, -183667.52, 187500.00, -184502.22, 187500.00, -187500.02, -187500.02, 0.000, 0.000, 0.000, 15:43:54.766, 1578577434766
210, -122870.28, -122074.96, -174127.70, -174481.89, -127885.41, -128069.03, -174650.64, 187500.00, 0.000, 0.000, 0.000, 15:43:54.766, 1578577434766
211, -183677.88, -166607.22, -183675.34, 187500.00, -184566.44, 187500.00, -187500.02, -187500.02, -0.018, -0.012, 0.972, 15:43:54.766, 1578577434766
212, -123272.66, -122466.66, -174119.53, -174463.41, -128320.73, -128412.22, -174614.55, 187500.00, 0.000, 0.000, 0.000, 15:43:54.766, 1578577434766
213, -183686.63, -166984.78, -183684.94, 187500.00, -184628.17, 187500.00, -187500.02, -187500.02, 0.000, 0.000, 0.000, 15:43:54.766, 1578577434766
214, -123671.75, -122855.29, -174126.08, -174443.83, -128752.80, -128751.95, -174576.48, 187500.00, 0.000, 0.000, 0.000, 15:43:54.766, 1578577434766
215, -183694.78, -167365.41, -183693.14, 187500.00, -184693.64, 187500.00, -187500.02, -187500.02, 0.000, 0.000, 0.000, 15:43:54.766, 1578577434766
216, -124067.16, -123242.35, -174122.98, -174421.03, -129176.98, -129086.55, -174535.80, 187500.00, 0.000, 0.000, 0.000, 15:43:54.766, 1578577434766
217, -183706.45, -167736.45, -183705.05, 187500.00, -184752.22, 187500.00, -187500.02, -187500.02, 0.000, 0.000, 0.000, 15:43:54.766, 1578577434766
218, -124461.10, -123631.27, -174126.98, -174397.48, -129603.95, -129421.71, -174504.41, 187500.00, 0.000, 0.000, 0.000, 15:43:54.766, 1578577434766
219, -183716.61, -168114.22, -183709.72, 187500.00, -184815.91, 187500.00, -187500.02, -187500.02, 0.000, 0.000, 0.000, 15:43:54.766, 1578577434766
220, -124836.70, -124000.95, -174123.92, -174357.25, -130011.82, -129739.66, -174642.72, 187500.00, 0.000, 0.000, 0.000, 15:43:54.766, 1578577434766
221, -183721.83, -168498.95, -183720.33, 187500.00, -184882.06, 187500.00, -187500.02, -187500.02, -0.012, -0.018, 0.976, 15:43:54.766, 1578577434766
222, -125236.95, -124387.30, -174119.45, -174336.30, -130443.66, -130080.55, -174633.84, 187500.00, 0.000, 0.000, 0.000, 15:43:54.767, 1578577434767
223, -183727.58, -168876.47, -183724.97, 187500.00, -184944.14, 187500.00, -187500.02, -187500.02, 0.000, 0.000, 0.000, 15:43:54.767, 1578577434767
224, -125635.04, -124773.73, -174115.33, -174313.53, -130872.97, -130416.45, -174594.61, 187500.00, 0.000, 0.000, 0.000, 15:43:54.767, 1578577434767
225, -183737.66, -169253.38, -183736.66, 187500.00, -185009.00, 187500.00, -187500.02, -187500.02, 0.000, 0.000, 0.000, 15:43:54.767, 1578577434767
226, -126029.70, -125160.73, -174115.56, -174288.53, -131297.61, -130749.99, -174553.22, 187500.00, 0.000, 0.000, 0.000, 15:43:54.767, 1578577434767
227, -183747.19, -169627.78, -183743.22, 187500.00, -185071.30, 187500.00, -187500.02, -187500.02, 0.000, 0.000, 0.000, 15:43:54.767, 1578577434767
228, -126432.91, -125552.36, -174117.92, -174269.61, -131727.97, -131093.06, -174518.41, 187500.00, 0.000, 0.000, 0.000, 15:43:54.767, 1578577434767
229, -183756.55, -170011.34, -183748.56, 187500.00, -185140.47, 187500.00, -187500.02, -187500.02, 0.000, 0.000, 0.000, 15:43:54.767, 1578577434767
230, -126819.44, -125931.04, -174117.58, -174238.66, -132142.55, -131421.59, -174524.34, 187500.00, 0.000, 0.000, 0.000, 15:43:54.767, 1578577434767
231, -183765.63, -170391.75, -183760.41, 187500.00, -185205.45, 187500.00, -187500.02, -187500.02, -0.018, -0.020, 0.974, 15:43:54.767, 1578577434767
232, -127199.08, -126305.37, -174114.52, -174205.72, -132556.34, -131744.94, -174649.08, 187500.00, 0.000, 0.000, 0.000, 15:43:54.767, 1578577434767
233, -183774.00, -170766.47, -183767.91, 187500.00, -185265.42, 187500.00, -187500.02, -187500.02, 0.000, 0.000, 0.000, 15:43:54.767, 1578577434767
234, -127594.95, -126690.48, -174116.27, -174183.52, -132982.13, -132079.16, -174611.70, 187500.00, 0.000, 0.000, 0.000, 15:43:54.767, 1578577434767
235, -183781.63, -171151.70, -183776.75, 187500.00, -185334.47, 187500.00, -187500.02, -187500.02, 0.000, 0.000, 0.000, 15:43:54.767, 1578577434767
236, -127993.69, -127077.58, -174113.28, -174160.88, -133410.55, -132416.53, -174572.81, 187500.00, 0.000, 0.000, 0.000, 15:43:54.767, 1578577434767
237, -183793.25, -171529.78, -183788.13, 187500.00, -185400.73, 187500.00, -187500.02, -187500.02, 0.000, 0.000, 0.000, 15:43:54.767, 1578577434767
238, -128395.08, -127470.81, -174112.78, -174141.42, -133843.38, -132760.22, -174537.95, 187500.00, 0.000, 0.000, 0.000, 15:43:54.768, 1578577434768
239, -183798.88, -171910.30, -183792.98, 187500.00, -185468.91, 187500.00, -187500.02, -187500.02, 0.000, 0.000, 0.000, 15:43:54.768, 1578577434768
240, -128791.41, -127858.34, -174110.66, -174115.45, -134268.63, -133095.94, -174495.95, 187500.00, 0.000, 0.000, 0.000, 15:43:54.768, 1578577434768
241, -183807.69, -172289.59, -183802.44, 187500.00, -185534.69, 187500.00, -187500.02, -187500.02, -0.018, -0.028, 0.976, 15:43:55.238, 1578577435238
242, -129174.52, -128234.13, -174110.06, -174081.66, -134680.61, -133418.88, -174570.38, 187500.00, 0.000, 0.000, 0.000, 15:43:55.238, 1578577435238
243, -183815.59, -172667.80, -183811.67, 187500.00, -185599.98, 187500.00, -187500.02, -187500.02, 0.000, 0.000, 0.000, 15:43:55.238, 1578577435238
244, -129567.56, -128618.26, -174106.66, -174053.05, -135102.86, -133748.34, -174635.56, 187500.00, 0.000, 0.000, 0.000, 15:43:55.238, 1578577435238
245, -183824.47, -173054.44, -183820.19, 187500.00, -185672.98, 187500.00, -187500.02, -187500.02, 0.000, 0.000, 0.000, 15:43:55.239, 1578577435239
246, -129966.05, -129006.09, -174105.23, -174029.77, -135535.31, -134083.06, -174596.31, 187500.00, 0.000, 0.000, 0.000, 15:43:55.239, 1578577435239
247, -183834.36, -173432.91, -183830.22, 187500.00, -185736.95, 187500.00, -187500.02, -187500.02, 0.000, 0.000, 0.000, 15:43:55.239, 1578577435239
248, -130364.60, -129394.06, -174104.28, -174008.55, -135964.45, -134422.31, -174558.83, 187500.00, 0.000, 0.000, 0.000, 15:43:55.239, 1578577435239
249, -183839.69, -173812.77, -183834.75, 187500.00, -185802.69, 187500.00, -187500.02, -187500.02, 0.000, 0.000, 0.000, 15:43:55.239, 1578577435239
250, -130758.51, -129776.64, -174100.72, -173983.56, -136390.61, -134756.09, -174517.77, 187500.00, 0.000, 0.000, 0.000, 15:43:55.239, 1578577435239
251, -183848.45, -174194.33, -183843.03, 187500.00, -185870.55, 187500.00, -187500.02, -187500.02, -0.014, -0.026, 0.980, 15:43:55.239, 1578577435239
252, -131156.56, -130168.71, -174102.72, -173962.77, -136819.03, -135095.61, -174479.86, 187500.00, 0.000, 0.000, 0.000, 15:43:55.239, 1578577435239
253, -183859.03, -174574.31, -183855.25, 187500.00, -185937.56, 187500.00, -187500.02, -187500.02, 0.000, 0.000, 0.000, 15:43:55.239, 1578577435239
254, -131538.56, -130541.78, -174104.44, -173925.41, -137230.67, -135419.14, -174589.63, 187500.00, 0.000, 0.000, 0.000, 15:43:55.240, 1578577435240
255, -183868.73, -174957.69, -183863.39, 187500.00, -186007.97, 187500.00, -187500.02, -187500.02, 0.000, 0.000, 0.000, 15:43:55.240, 1578577435240
0, -131929.84, -130924.96, -174098.92, -173897.48, -137652.20, -135750.34, -174617.05, 187500.00, 0.000, 0.000, 0.000, 15:43:55.240, 1578577435240
1, -183876.33, -175331.95, -183871.61, 187500.00, -186071.34, 187500.00, -187500.02, -187500.02, 0.000, 0.000, 0.000, 15:43:55.240, 1578577435240
2, -132326.38, -131313.55, -174100.38, -173877.28, -138080.28, -136087.86, -174580.84, 187500.00, 0.000, 0.000, 0.000, 15:43:55.240, 1578577435240
3, -183883.13, -175713.19, -183879.30, 187500.00, -186140.56, 187500.00, -187500.02, -187500.02, 0.000, 0.000, 0.000, 15:43:55.240, 1578577435240
4, -132720.58, -131695.83, -174098.92, -173853.72, -138504.45, -136419.83, -174541.39, 187500.00, -0.014, -0.020, 0.976, 15:43:55.240, 1578577435240
5, -183895.11, -176097.19, -183892.27, 187500.00, -186211.34, 187500.00, -187500.02, -187500.02, 0.000, 0.000, 0.000, 15:43:55.240, 1578577435240
6, -133119.08, -132082.17, -174099.61, -173835.30, -138930.73, -136760.02, -174508.53, 187500.00, 0.000, 0.000, 0.000, 15:43:55.240, 1578577435240
7, -183904.41, -176477.83, -183899.53, 187500.00, -186278.09, 187500.00, -187500.02, -187500.02, 0.000, 0.000, 0.000, 15:43:55.241, 1578577435241
8, -133513.42, -132464.70, -174098.09, -173812.14, -139354.25, -137093.75, -174471.83, 187500.00, 0.000, 0.000, 0.000, 15:43:55.241, 1578577435241
9, -183912.31, -176862.89, -183908.89, 187500.00, -186347.34, 187500.00, -187500.02, -187500.02, 0.000, 0.000, 0.000, 15:43:55.241, 1578577435241
10, -133885.77, -132828.05, -174098.72, -173769.88, -139756.09, -137406.88, -174613.88, 187500.00, 0.000, 0.000, 0.000, 15:43:55.241, 1578577435241
11, -183919.69, -177242.28, -183916.39, 187500.00, -186413.30, 187500.00, -187500.02, -187500.02, 0.000, 0.000, 0.000, 15:43:55.241, 1578577435241
12, -134281.14, -133217.88, -174092.34, -173750.05, -140184.42, -137745.14, -174629.28, 187500.00, 0.000, 0.000, 0.000, 15:43:55.242, 1578577435242
13, -183929.50, -177627.97, -183925.69, 187500.00, -186484.63, 187500.00, -187500.02, -187500.02, 0.000, 0.000, 0.000, 15:43:55.242, 1578577435242
14, -134676.28, -133605.69, -174094.31, -173728.02, -140613.92, -138081.45, -174592.05, 187500.00, -0.014, -0.018, 0.976, 15:43:55.242, 1578577435242
15, -183938.98, -178015.56, -183937.19, 187500.00, -186554.17, 187500.00, -187500.02, -187500.02, 0.000, 0.000, 0.000, 15:43:55.242, 1578577435242
16, -135073.80, -133994.52, -174097.02, -173707.58, -141043.59, -138418.45, -174556.20, 187500.00, 0.000, 0.000, 0.000, 15:43:55.242, 1578577435242
17, -183946.94, -178396.02, -183943.77, 187500.00, -186616.36, 187500.00, -187500.02, -187500.02, 0.000, 0.000, 0.000, 15:43:55.242, 1578577435242
18, -135470.75, -134380.98, -174087.34, -173686.45, -141468.97, -138753.02, -174519.22, 187500.00, 0.000, 0.000, 0.000, 15:43:55.242, 1578577435242
19, -183953.44, -178790.19, -183948.30, 187500.00, -186688.20, 187500.00, -187500.02, -187500.02, 0.000, 0.000, 0.000, 15:43:55.243, 1578577435243
20, -135868.77, -134766.69, -174084.13, -173664.75, -141892.13, -139087.22, -174482.94, 187500.00, 0.000, 0.000, 0.000, 15:43:55.243, 1578577435243
21, -183964.28, -179179.77, -183962.42, 187500.00, -186755.61, 187500.00, -187500.02, -187500.02, 0.000, 0.000, 0.000, 15:43:55.243, 1578577435243
22, -136257.77, -135145.92, -174086.44, -173611.41, -142307.47, -139419.38, -174504.31, 187500.00, 0.000, 0.000, 0.000, 15:43:55.243, 1578577435243
23, -183975.80, -179569.42, -183973.73, 187500.00, -186823.00, 187500.00, -187500.02, -187500.02, 0.000, 0.000, 0.000, 15:43:55.243, 1578577435243
24, -136614.06, -135493.44, -174094.52, -173380.28, -142691.19, -139717.08, -174599.59, 187500.00, -0.012, -0.016, 0.978, 15:43:55.243, 1578577435243
25, -183983.84, -179955.88, -183981.30, 187500.00, -186890.59, 187500.00, -187500.02, -187500.02, 0.000, 0.000, 0.000, 15:43:55.244, 1578577435244
26, -136958.86, -135832.27, -174086.56, -173942.66, -143070.88, -140009.31, -174521.72, 187500.00, 0.000, 0.000, 0.000, 15:43:55.244, 1578577435244
27, -183990.05, -180342.19, -183989.63, 187500.00, -186956.38, 187500.00, -187500.02, -187500.02, 0.000, 0.000, 0.000, 15:43:55.244, 1578577435244
28, -137331.64, -136197.53, -174081.70, -174674.92, -143475.59, -140325.36, -174465.70, 187500.00, 0.000, 0.000, 0.000, 15:43:55.244, 1578577435244
29, -184000.61, -180737.63, -183997.39, 187500.00, -187029.33, 187500.00, -187500.02, -187500.02, 0.000, 0.000, 0.000, 15:43:55.244, 1578577435244
30, -137712.53, -136568.70, -174083.06, -174680.20, -143884.30, -140645.23, -174526.59, 187500.00, 0.000, 0.000, 0.000, 15:43:55.244, 1578577435244
31, -184007.89, -181128.03, -184007.05, 187500.00, -187094.05, 187500.00, -187500.02, -187500.02, 0.000, 0.000, 0.000, 15:43:55.244, 1578577435244
32, -138102.42, -136949.48, -174079.97, -174652.14, -144300.80, -140974.77, -174607.55, 187500.00, 0.000, 0.000, 0.000, 15:43:55.244, 1578577435244
33, -184014.84, -181521.44, -184013.45, 187500.00, -187160.56, 187500.00, -187500.02, -187500.02, 0.000, 0.000, 0.000, 15:43:55.244, 1578577435244
34, -138497.63, -137334.14, -174078.53, -174627.73, -144722.53, -141307.20, -174569.38, 187500.00, -0.018, -0.020, 0.978, 15:43:55.244, 1578577435244
35, -184025.50, -181919.59, -184024.05, 187500.00, -187229.89, 187500.00, -187500.02, -187500.02, 0.000, 0.000, 0.000, 15:43:55.244, 1578577435244
36, -138897.11, -137725.59, -174077.09, -174609.61, -145151.73, -141644.77, -174536.88, 187500.00, 0.000, 0.000, 0.000, 15:43:55.245, 1578577435245
37, -184033.13, -182315.48, -184030.69, 187500.00, -187297.16, 187500.00, -187500.02, -187500.02, 0.000, 0.000, 0.000, 15:43:55.245, 1578577435245
38, -139293.94, -138112.94, -174079.06, -174590.94, -145578.77, -141981.56, -174504.64, 187500.00, 0.000, 0.000, 0.000, 15:43:55.245, 1578577435245
39, -184045.22, -182714.75, -184041.19, 187500.00, -187369.03, 187500.00, -187500.02, -187500.02, 0.000, 0.000, 0.000, 15:43:55.245, 1578577435245
40, -139686.84, -138496.05, -174080.47, -174568.73, -146002.59, -142313.94, -174468.56, 187500.00, 0.000, 0.000, 0.000, 15:43:55.245, 1578577435245
41, -184051.09, -183107.77, -184049.89, 187500.00, -187432.52, 187500.00, -187500.02, -187500.02, 0.000, 0.000, 0.000, 15:43:55.245, 1578577435245
42, -140076.91, -138878.53, -174077.06, -174544.97, -146421.47, -142643.16, -174467.78, 187500.00, 0.000, 0.000, 0.000, 15:43:55.245, 1578577435245
43, -184060.97, -183508.58, -184057.13, 187500.00, -187491.50, 187500.00, -187500.02, -187500.02, -0.018, -0.016, 0.982, 15:43:55.245, 1578577435245
44, -140451.98, -139246.33, -174077.53, -174508.00, -146828.77, -142960.03, -174611.28, 187500.00, 0.000, 0.000, 0.000, 15:43:55.245, 1578577435245
45, -184067.48, -183987.81, -184067.77, 187500.00, -187500.02, 187500.00, -187500.02, -187500.02, 0.000, 0.000, 0.000, 15:43:55.245, 1578577435245
46, -140843.92, -139634.31, -174074.47, -174490.14, -147256.33, -143298.02, -174586.70, 187500.00, 0.000, 0.000, 0.000, 15:43:55.245, 1578577435245
47, -184078.36, -184287.05, -184076.09, 187500.00, -187500.02, 187500.00, -187500.02, -187500.02, 0.000, 0.000, 0.000, 15:43:55.245, 1578577435245
48, -141233.19, -140018.20, -174076.55, -174470.53, -147681.03, -143629.48, -174551.69, 187500.00, 0.000, 0.000, 0.000, 15:43:55.245, 1578577435245
49, -184092.94, -184289.97, -184087.67, 187500.00, -187500.02, 187500.00, -187500.02, -187500.02, 0.000, 0.000, 0.000, 15:43:55.245, 1578577435245
50, -141624.25, -140400.25, -174073.69, -174448.28, -148103.80, -143959.89, -174516.98, 187500.00, 0.000, 0.000, 0.000, 15:43:55.245, 1578577435245
51, -184105.14, -184288.83, -184099.31, 187500.00, -187500.02, 187500.00, -187500.02, -187500.02, 0.000, 0.000, 0.000, 15:43:55.246, 1578577435246
52, -142023.11, -140791.28, -174073.70, -174431.80, -148533.02, -144298.39, -174486.42, 187500.00, 0.000, 0.000, 0.000, 15:43:55.246, 1578577435246
53, -184119.45, -184293.19, -184116.34, 187500.00, -187500.02, 187500.00, -187500.02, -187500.02, -0.022, -0.020, 0.978, 15:43:55.246, 1578577435246
54, -142418.31, -141176.58, -174072.14, -174411.84, -148953.61, -144630.72, -174451.14, 187500.00, 0.000, 0.000, 0.000, 15:43:55.246, 1578577435246
55, -184130.20, -184296.34, -184124.80, 187500.00, -187500.02, 187500.00, -187500.02, -187500.02, 0.000, 0.000, 0.000, 15:43:55.246, 1578577435246
56, -142798.08, -141546.66, -174075.22, -174381.23, -149358.27, -144949.45, -174523.44, 187500.00, 0.000, 0.000, 0.000, 15:43:55.246, 1578577435246
57, -184145.83, -184295.48, -184141.83, 187500.00, -187500.02, 187500.00, -187500.02, -187500.02, 0.000, 0.000, 0.000, 15:43:55.246, 1578577435246
58, -143182.66, -141922.48, -174075.83, -174354.39, -149769.61, -145272.81, -174602.67, 187500.00, 0.000, 0.000, 0.000, 15:43:55.247, 1578577435247
59, -184157.30, -184301.09, -184153.05, 187500.00, -187500.02, 187500.00, -187500.02, -187500.02, 0.000, 0.000, 0.000, 15:43:55.247, 1578577435247
60, -143576.69, -142303.41, -174074.63, -174334.81, -150191.42, -145604.72, -174568.70, 187500.00, 0.000, 0.000, 0.000, 15:43:55.247, 1578577435247
61, -184171.81, -184303.25, -184168.28, 187500.00, -187500.02, 187500.00, -187500.02, -187500.02, 0.000, 0.000, 0.000, 15:43:55.247, 1578577435247
62, -143973.11, -142688.53, -174072.66, -174319.73, -150616.70, -145940.53, -174540.55, 187500.00, 0.000, 0.000, 0.000, 15:43:55.247, 1578577435247
63, -184183.27, -184308.67, -184179.44, 187500.00, -187500.02, 187500.00, -187500.02, -187500.02, -0.020, -0.018, 0.992, 15:43:55.247, 1578577435247
64, -144363.47, -143068.69, -174071.80, -174297.41, -151036.72, -146267.63, -174503.19, 187500.00, 0.000, 0.000, 0.000, 15:43:55.247, 1578577435247
65, -184195.11, -184311.94, -184192.58, 187500.00, -187500.02, 187500.00, -187500.02, -187500.02, 0.000, 0.000, 0.000, 15:43:55.247, 1578577435247
66, -144756.13, -143452.34, -174072.77, -174279.39, -151457.42, -146597.94, -174471.14, 187500.00, 0.000, 0.000, 0.000, 15:43:55.248, 1578577435248
67, -184211.84, -184313.47, -184203.94, 187500.00, -187500.02, 187500.00, -187500.02, -187500.02, 0.000, 0.000, 0.000, 15:43:55.248, 1578577435248
68, -145146.28, -143829.30, -174073.80, -174258.55, -151877.44, -146925.31, -174450.22, 187500.00, 0.000, 0.000, 0.000, 15:43:55.248, 1578577435248
69, -184222.27, -184323.23, -184218.22, 187500.00, -187500.02, 187500.00, -187500.02, -187500.02, 0.000, 0.000, 0.000, 15:43:55.248, 1578577435248
70, -145521.25, -144193.48, -174069.30, -174221.83, -152281.11, -147231.89, -174608.14, 187500.00, 0.000, 0.000, 0.000, 15:43:55.248, 1578577435248
71, -184232.03, -184324.19, -184229.08, 187500.00, -187500.02, 187500.00, -187500.02, -187500.02, 0.000, 0.000, 0.000, 15:43:55.248, 1578577435248
72, -145914.97, -144578.13, -174070.08, -174203.09, -152705.84, -147563.33, -174601.16, 187500.00, 0.000, 0.000, 0.000, 15:43:55.248, 1578577435248
73, -184246.36, -184327.98, -184239.44, 187500.00, -187500.02, 187500.00, -187500.02, -187500.02, -0.014, -0.018, 0.980, 15:43:55.248, 1578577435248
74, -146304.48, -144958.13, -174069.77, -174182.48, -153126.77, -147891.72, -174565.75, 187500.00, 0.000, 0.000, 0.000, 15:43:55.248, 1578577435248
75, -184256.80, -184334.39, -184254.31, 187500.00, -187500.02, 187500.00, -187500.02, -187500.02, 0.000, 0.000, 0.000, 15:43:55.248, 1578577435248
76, -146699.97, -145344.89, -174071.09, -174166.22, -153552.55, -148224.67, -174535.67, 187500.00, 0.000, 0.000, 0.000, 15:43:55.248, 1578577435248
77, -184274.55, -184337.67, -184268.05, 187500.00, -187500.02, 187500.00, -187500.02, -187500.02, 0.000, 0.000, 0.000, 15:43:55.248, 1578577435248
78, -147094.34, -145731.30, -174074.06, -174149.41, -153980.27, -148556.78, -174505.09, 187500.00, 0.000, 0.000, 0.000, 15:43:55.248, 1578577435248
79, -184289.95, -184345.20, -184283.20, 187500.00, -187500.02, 187500.00, -187500.02, -187500.02, 0.000, 0.000, 0.000, 15:43:55.248, 1578577435248
80, -147481.59, -146110.55, -174071.92, -174128.02, -154400.84, -148883.63, -174469.00, 187500.00, 0.000, 0.000, 0.000, 15:43:55.249, 1578577435249
81, -184304.31, -184344.98, -184301.58, 187500.00, -187500.02, 187500.00, -187500.02, -187500.02, 0.000, 0.000, 0.000, 15:43:55.249, 1578577435249
82, -147870.16, -146489.58, -174075.95, -174107.97, -154822.30, -149210.88, -174448.09, 187500.00, -0.012, -0.014, 0.978, 15:43:55.249, 1578577435249
83, -184313.19, -184351.58, -184306.80, 187500.00, -187500.02, 187500.00, -187500.02, -187500.02, 0.000, 0.000, 0.000, 15:43:55.250, 1578577435250
84, -148242.67, -146851.22, -174069.17, -174072.94, -155224.13, -149522.22, -174594.08, 187500.00, 0.000, 0.000, 0.000, 15:43:55.250, 1578577435250
85, -184326.56, -184359.23, -184319.34, 187500.00, -187500.02, 187500.00, -187500.02, -187500.02, 0.000, 0.000, 0.000, 15:43:55.250, 1578577435250
86, -148634.05, -147233.64, -174064.16, -174055.95, -155646.59, -149855.86, -174584.23, 187500.00, 0.000, 0.000, 0.000, 15:43:55.250, 1578577435250
87, -184336.06, -184360.00, -184335.41, 187500.00, -187500.02, 187500.00, -187500.02, -187500.02, 0.000, 0.000, 0.000, 15:43:55.250, 1578577435250
88, -149024.31, -147614.25, -174064.50, -174036.80, -156065.75, -150187.28, -174551.69, 187500.00, 0.000, 0.000, 0.000, 15:43:55.250, 1578577435250
89, -184350.19, -184365.66, -184346.39, 187500.00, -187500.02, 187500.00, -187500.02, -187500.02, 0.000, 0.000, 0.000, 15:43:55.250, 1578577435250
90, -149411.50, -147992.22, -174064.66, -174015.72, -156482.41, -150513.20, -174516.98, 187500.00, 0.000, 0.000, 0.000, 15:43:55.250, 1578577435250
91, -184361.56, -184367.33, -184357.83, 187500.00, -187500.02, 187500.00, -187500.02, -187500.02, 0.000, 0.000, 0.000, 15:43:55.250, 1578577435250
92, -149806.34, -148377.27, -174065.30, -174001.31, -156908.17, -150848.20, -174487.59, 187500.00, -0.018, -0.016, 0.980, 15:43:55.251, 1578577435251
93, -184376.73, -184375.33, -184373.78, 187500.00, -187500.02, 187500.00, -187500.02, -187500.02, 0.000, 0.000, 0.000, 15:43:55.251, 1578577435251
94, -150196.31, -148757.58, -174065.70, -173981.95, -157327.11, -151175.59, -174455.42, 187500.00, 0.000, 0.000, 0.000, 15:43:55.251, 1578577435251
95, -184393.13, -184381.86, -184388.78, 187500.00, -187500.02, 187500.00, -187500.02, -187500.02, 0.000, 0.000, 0.000, 15:43:55.251, 1578577435251
96, -150577.38, -149126.63, -174068.63, -173953.86, -157733.38, -151493.70, -174492.33, 187500.00, 0.000, 0.000, 0.000, 15:43:55.251, 1578577435251
97, -184401.48, -184382.78, -184395.98, 187500.00, -187500.02, 187500.00, -187500.02, -187500.02, 0.000, 0.000, 0.000, 15:43:55.251, 1578577435251
98, -150957.31, -149492.17, -174066.70, -173925.83, -158141.17, -151813.95, -174599.59, 187500.00, 0.000, 0.000, 0.000, 15:43:55.251, 1578577435251
99, -184415.70, -184390.48, -184411.91, 187500.00, -187500.02, 187500.00, -187500.02, -187500.02, 0.000, 0.000, 0.000, 15:43:55.251, 1578577435251
100, -151347.88, -149870.91, -174065.33, -173906.88, -158562.33, -152143.00, -174567.30, 187500.00, 0.000, 0.000, 0.000, 15:43:55.251, 1578577435251
101, -184430.00, -184394.47, -184424.28, 187500.00, -187500.02, 187500.00, -187500.02, -187500.02, 0.000, 0.000, 0.000, 15:43:55.251, 1578577435251
102, -151744.67, -150255.95, -174066.13, -173892.03, -158985.97, -152476.38, -174538.34, 187500.00, -0.018, -0.016, 0.982, 15:43:55.251, 1578577435251
103, -184447.95, -184398.59, -184441.11, 187500.00, -187500.02, 187500.00, -187500.02, -187500.02, 0.000, 0.000, 0.000, 15:43:55.251, 1578577435251
104, -152132.50, -150631.80, -174067.28, -173870.23, -159405.23, -152801.33, -174503.59, 187500.00, 0.000, 0.000, 0.000, 15:43:55.251, 1578577435251
105, -184455.23, -184403.47, -184447.48, 187500.00, -187500.02, 187500.00, -187500.02, -187500.02, 0.000, 0.000, 0.000, 15:43:55.720, 1578577435720
106, -152523.73, -151012.31, -174064.27, -173852.52, -159828.06, -153130.50, -174472.25, 187500.00, 0.000, 0.000, 0.000, 15:43:55.720, 1578577435720
107, -184468.52, -184404.19, -184461.28, 187500.00, -187500.02, 187500.00, -187500.02, -187500.02, 0.000, 0.000, 0.000, 15:43:55.720, 1578577435720
108, -152916.14, -151392.55, -174066.31, -173835.20, -160249.78, -153458.27, -174440.94, 187500.00, 0.000, 0.000, 0.000, 15:43:55.720, 1578577435720
109, -184481.91, -184414.84, -184475.13, 187500.00, -187500.02, 187500.00, -187500.02, -187500.02, 0.000, 0.000, 0.000, 15:43:55.720, 1578577435720
110, -153288.70, -151754.13, -174064.83, -173801.13, -160654.77, -153768.38, -174541.81, 187500.00, 0.000, 0.000, 0.000, 15:43:55.720, 1578577435720
111, -184492.19, -184417.39, -184486.31, 187500.00, -187500.02, 187500.00, -187500.02, -187500.02, 0.000, 0.000, 0.000, 15:43:55.720, 1578577435720
112, -153674.70, -152129.92, -174061.44, -173780.42, -161071.25, -154092.88, -174589.17, 187500.00, -0.024, -0.016, 0.978, 15:43:55.720, 1578577435720
113, -184507.25, -184419.63, -184499.89, 187500.00, -187500.02, 187500.00, -187500.02, -187500.02, 0.000, 0.000, 0.000, 15:43:55.721, 1578577435721
114, -154061.86, -152507.36, -174058.19, -173758.88, -161489.58, -154419.39, -174553.70, 187500.00, 0.000, 0.000, 0.000, 15:43:55.721, 1578577435721
115, -184517.31, -184425.78, -184515.14, 187500.00, -187500.02, 187500.00, -187500.02, -187500.02, 0.000, 0.000, 0.000, 15:43:55.721, 1578577435721
116, -154453.72, -152890.59, -174059.05, -173742.86, -161915.31, -154751.00, -174524.78, 187500.00, 0.000, 0.000, 0.000, 15:43:55.721, 1578577435721
117, -184530.30, -184429.16, -184527.55, 187500.00, -187500.02, 187500.00, -187500.02, -187500.02, 0.000, 0.000, 0.000, 15:43:55.721, 1578577435721
118, -154848.48, -153272.45, -174061.50, -173726.11, -162338.91, -155081.31, -174494.45, 187500.00, 0.000, 0.000, 0.000, 15:43:55.721, 1578577435721
119, -184546.91, -184436.80, -184536.63, 187500.00, -187500.02, 187500.00, -187500.02, -187500.02, 0.000, 0.000, 0.000, 15:43:55.721, 1578577435721
120, -155235.63, -153649.64, -174060.69, -173705.53, -162759.67, -155409.13, -174459.47, 187500.00, 0.000, 0.000, 0.000, 15:43:55.721, 1578577435721
121, -184558.58, -184437.64, -184551.00, 187500.00, -187500.02, 187500.00, -187500.02, -187500.02, -0.024, -0.022, 0.980, 15:43:55.721, 1578577435721
122, -155622.72, -154029.42, -174060.09, -173684.61, -163182.33, -155736.69, -174433.25, 187500.00, 0.000, 0.000, 0.000, 15:43:55.721, 1578577435721
123, -184572.08, -184444.23, -184564.81, 187500.00, -187500.02, 187500.00, -187500.02, -187500.02, 0.000, 0.000, 0.000, 15:43:55.722, 1578577435722
124, -155991.61, -154388.41, -174055.23, -173647.30, -163584.14, -156045.92, -174581.27, 187500.00, 0.000, 0.000, 0.000, 15:43:55.722, 1578577435722
125, -184584.86, -184451.95, -184577.09, 187500.00, -187500.02, 187500.00, -187500.02, -187500.02, 0.000, 0.000, 0.000, 15:43:55.722, 1578577435722
126, -156382.36, -154767.92, -174051.53, -173628.66, -164010.50, -156376.95, -174581.31, 187500.00, 0.000, 0.000, 0.000, 15:43:55.722, 1578577435722
127, -184596.25, -184453.67, -184589.17, 187500.00, -187500.02, 187500.00, -187500.02, -187500.02, 0.000, 0.000, 0.000, 15:43:55.722, 1578577435722
128, -156771.67, -155145.55, -174050.28, -173610.22, -164434.20, -156704.55, -174548.83, 187500.00, 0.000, 0.000, 0.000, 15:43:55.722, 1578577435722
129, -184610.89, -184461.09, -184604.80, 187500.00, -187500.02, 187500.00, -187500.02, -187500.02, 0.000, 0.000, 0.000, 15:43:55.722, 1578577435722
130, -157156.98, -155521.94, -174048.13, -173587.84, -164854.39, -157029.45, -174514.86, 187500.00, 0.000, 0.000, 0.000, 15:43:55.722, 1578577435722
131, -184624.55, -184462.69, -184620.95, 187500.00, -187500.02, 187500.00, -187500.02, -187500.02, -0.022, -0.016, 0.980, 15:43:55.722, 1578577435722
132, -157538.42, -155891.36, -174059.20, -173343.98, -165269.44, -157352.03, -174475.34, 187500.00, 0.000, 0.000, 0.000, 15:43:55.722, 1578577435722
133, -184637.19, -184469.67, -184632.67, 187500.00, -187500.02, 187500.00, -187500.02, -187500.02, 0.000, 0.000, 0.000, 15:43:55.723, 1578577435723
134, -157867.30, -156209.88, -174063.41, -173672.28, -165634.56, -157622.70, -174494.00, 187500.00, 0.000, 0.000, 0.000, 15:43:55.723, 1578577435723
135, -184652.14, -184475.94, -184646.08, 187500.00, -187500.02, 187500.00, -187500.02, -187500.02, 0.000, 0.000, 0.000, 15:43:55.723, 1578577435723
136, -158208.59, -156543.92, -174053.66, -174466.36, -166013.55, -157905.72, -174569.89, 187500.00, 0.000, 0.000, 0.000, 15:43:55.723, 1578577435723
137, -184665.56, -184475.84, -184661.44, 187500.00, -187500.02, 187500.00, -187500.02, -187500.02, 0.000, 0.000, 0.000, 15:43:55.723, 1578577435723
138, -158593.75, -156920.23, -174049.91, -174679.09, -166434.55, -158229.02, -174532.63, 187500.00, 0.000, 0.000, 0.000, 15:43:55.723, 1578577435723
139, -184676.47, -184484.94, -184672.23, 187500.00, -187500.02, 187500.00, -187500.02, -187500.02, 0.000, 0.000, 0.000, 15:43:55.723, 1578577435723
140, -158981.53, -157299.48, -174051.22, -174656.56, -166859.92, -158554.59, -174498.19, 187500.00, 0.000, 0.000, 0.000, 15:43:55.723, 1578577435723
141, -184690.00, -184488.19, -184683.06, 187500.00, -187500.02, 187500.00, -187500.02, -187500.02, -0.020, -0.020, 0.982, 15:43:55.723, 1578577435723
142, -159372.20, -157682.80, -174054.33, -174638.95, -167288.19, -158885.11, -174469.59, 187500.00, 0.000, 0.000, 0.000, 15:43:55.723, 1578577435723
143, -184703.70, -184493.58, -184699.05, 187500.00, -187500.02, 187500.00, -187500.02, -187500.02, 0.000, 0.000, 0.000, 15:43:55.724, 1578577435724
144, -159755.64, -158060.00, -174052.25, -174614.64, -167711.66, -159209.45, -174432.03, 187500.00, 0.000, 0.000, 0.000, 15:43:55.724, 1578577435724
145, -184714.16, -184499.89, -184706.56, 187500.00, -187500.02, 187500.00, -187500.02, -187500.02, 0.000, 0.000, 0.000, 15:43:55.724, 1578577435724
146, -160129.09, -158427.08, -174051.02, -174582.36, -168124.63, -159523.39, -174493.06, 187500.00, 0.000, 0.000, 0.000, 15:43:55.724, 1578577435724
147, -184726.36, -184503.20, -184725.31, 187500.00, -187500.02, 187500.00, -187500.02, -187500.02, 0.000, 0.000, 0.000, 15:43:55.724, 1578577435724
148, -160509.13, -158800.69, -174049.34, -174553.75, -168545.63, -159845.09, -174585.25, 187500.00, 0.000, 0.000, 0.000, 15:43:55.724, 1578577435724
149, -184740.67, -184513.70, -184738.97, 187500.00, -187500.02, 187500.00, -187500.02, -187500.02, 0.000, 0.000, 0.000, 15:43:55.724, 1578577435724
150, -160897.16, -159180.45, -174047.75, -174532.31, -168973.58, -160173.72, -174550.88, 187500.00, 0.000, 0.000, 0.000, 15:43:55.724, 1578577435724
151, -184751.11, -184516.59, -184745.23, 187500.00, -187500.02, 187500.00, -187500.02, -187500.02, -0.018, -0.018, 0.986, 15:43:55.724, 1578577435724
152, -161286.89, -159561.14, -174044.69, -174514.03, -169404.22, -160501.20, -174519.73, 187500.00, 0.000, 0.000, 0.000, 15:43:55.724, 1578577435724
153, -184762.22, -184521.28, -184758.06, 187500.00, -187500.02, 187500.00, -187500.02, -187500.02, 0.000, 0.000, 0.000, 15:43:55.725, 1578577435725
154, -161674.59, -159936.38, -174047.48, -174490.63, -169831.66, -160825.89, -174482.77, 187500.00, 0.000, 0.000, 0.000, 15:43:55.725, 1578577435725
155, -184778.02, -184527.66, -184775.92, 187500.00, -187500.02, 187500.00, -187500.02, -187500.02, 0.000, 0.000, 0.000, 15:43:55.725, 1578577435725
156, -162066.08, -160316.94, -174045.58, -174471.25, -170266.17, -161156.67, -174451.84, 187500.00, 0.000, 0.000, 0.000, 15:43:55.725, 1578577435725
157, -184790.05, -184532.27, -184790.09, 187500.00, -187500.02, 187500.00, -187500.02, -187500.02, 0.000, 0.000, 0.000, 15:43:55.725, 1578577435725
158, -162451.92, -160697.50, -174049.83, -174447.77, -170696.06, -161480.95, -174425.16, 187500.00, 0.000, 0.000, 0.000, 15:43:55.725, 1578577435725
159, -184808.36, -184540.00, -184807.02, 187500.00, -187500.02, 187500.00, -187500.02, -187500.02, 0.000, 0.000, 0.000, 15:43:55.725, 1578577435725
160, -162819.72, -161055.78, -174048.52, -174406.92, -171106.86, -161785.16, -174570.14, 187500.00, 0.000, 0.000, 0.000, 15:43:55.725, 1578577435725
161, -184813.56, -184542.33, -184817.45, 187500.00, -187500.02, 187500.00, -187500.02, -187500.02, -0.024, -0.016, 0.978, 15:43:55.725, 1578577435725
162, -163210.36, -161434.28, -174044.00, -174386.56, -171542.06, -162113.42, -174566.42, 187500.00, 0.000, 0.000, 0.000, 15:43:55.726, 1578577435726
163, -184826.53, -184546.88, -184825.66, 187500.00, -187500.02, 187500.00, -187500.02, -187500.02, 0.000, 0.000, 0.000, 15:43:55.726, 1578577435726
164, -163599.97, -161813.42, -174046.61, -174363.73, -171976.16, -162440.11, -174531.36, 187500.00, 0.000, 0.000, 0.000, 15:43:55.726, 1578577435726
165, -184839.38, -184555.28, -184845.75, 187500.00, -187500.02, 187500.00, -187500.02, -187500.02, 0.000, 0.000, 0.000, 15:43:55.726, 1578577435726
166, -163992.98, -162195.34, -174047.94, -174344.22, -172411.67, -162771.08, -174499.69, 187500.00, 0.000, 0.000, 0.000, 15:43:55.726, 1578577435726
167, -184849.45, -184557.88, -184854.89, 187500.00, -187500.02, 187500.00, -187500.02, -187500.02, 0.000, 0.000, 0.000, 15:43:55.726, 1578577435726
168, -164383.47, -162575.63, -174046.66, -174322.83, -172847.11, -163097.61, -174465.42, 187500.00, 0.000, 0.000, 0.000, 15:43:55.726, 1578577435726
169, -184862.72, -184566.22, -184866.22, 187500.00, -187500.02, 187500.00, -187500.02, -187500.02, 0.000, 0.000, 0.000, 15:43:55.726, 1578577435726
170, -164774.48, -162952.45, -174041.16, -174298.03, -173281.77, -163418.84, -174426.53, 187500.00, -0.022, -0.020, 0.978, 15:43:55.726, 1578577435726
171, -184876.72, -184569.33, -184883.86, 187500.00, -187500.02, 187500.00, -187500.02, -187500.02, 0.000, 0.000, 0.000, 15:43:55.726, 1578577435726
172, -165152.70, -163319.20, -174044.89, -174265.42, -173705.81, -163731.53, -174516.27, 187500.00, 0.000, 0.000, 0.000, 15:43:55.727, 1578577435727
173, -184894.55, -184493.95, -184892.95, 187500.00, -187500.02, 187500.00, -187500.02, -187500.02, 0.000, 0.000, 0.000, 15:43:55.727, 1578577435727
174, -165542.11, -163696.27, -174042.91, -174239.28, -174047.91, -164059.47, -174568.84, 187500.00, 0.000, 0.000, 0.000, 15:43:55.727, 1578577435727
175, -184914.50, -184642.48, -184909.05, 187500.00, -187500.02, 187500.00, -187500.02, -187500.02, 0.000, 0.000, 0.000, 15:43:55.727, 1578577435727
176, -165954.19, -164097.50, -174048.11, -174233.19, -174163.45, -164436.53, -174550.56, 187500.00, 0.000, 0.000, 0.000, 15:43:55.727, 1578577435727
177, -184922.25, -185107.50, -184919.42, 187500.00, -187500.02, 187500.00, -187500.02, -187500.02, 0.000, 0.000, 0.000, 15:43:55.727, 1578577435727
178, -166383.61, -164510.80, -174054.55, -174241.41, -174162.58, -164846.17, -174545.77, 187500.00, 0.000, 0.000, 0.000, 15:43:55.727, 1578577435727
179, -184935.89, -185149.23, -184928.50, 187500.00, -187500.02, 187500.00, -187500.02, -187500.02, 0.000, 0.000, 0.000, 15:43:55.727, 1578577435727
180, -166813.95, -164926.39, -174062.14, -174249.13, -174171.67, -165260.03, -174542.39, 187500.00, -0.020, -0.020, 0.980, 15:43:55.727, 1578577435727
181, -184949.95, -185153.44, -184941.69, 187500.00, -187500.02, 187500.00, -187500.02, -187500.02, 0.000, 0.000, 0.000, 15:43:55.727, 1578577435727
182, -167245.77, -165347.98, -174073.34, -174260.91, -174184.67, -165677.16, -174540.66, 187500.00, 0.000, 0.000, 0.000, 15:43:55.728, 1578577435728
183, -184961.75, -185158.92, -184953.53, 187500.00, -187500.02, 187500.00, -187500.02, -187500.02, 0.000, 0.000, 0.000, 15:43:55.728, 1578577435728
184, -167674.38, -165764.52, -174077.95, -174265.55, -174191.63, -166090.13, -174534.53, 187500.00, 0.000, 0.000, 0.000, 15:43:55.728, 1578577435728
185, -184975.98, -185163.70, -184967.39, 187500.00, -187500.02, 187500.00, -187500.02, -187500.02, 0.000, 0.000, 0.000, 15:43:55.728, 1578577435728
186, -168107.33, -166184.70, -174084.75, -174273.97, -174203.48, -166506.59, -174531.42, 187500.00, 0.000, 0.000, 0.000, 15:43:55.728, 1578577435728
187, -184987.75, -185164.91, -184981.33, 187500.00, -187500.02, 187500.00, -187500.02, -187500.02, 0.000, 0.000, 0.000, 15:43:55.728, 1578577435728
188, -168541.31, -166605.47, -174093.80, -174282.89, -174216.00, -166922.67, -174529.20, 187500.00, 0.000, 0.000, 0.000, 15:43:55.728, 1578577435728
189, -184999.73, -185175.13, -184994.63, 187500.00, -187500.02, 187500.00, -187500.02, -187500.02, 0.000, 0.000, 0.000, 15:43:55.728, 1578577435728
190, -168975.97, -167025.27, -174100.17, -174290.25, -174226.33, -167332.59, -174523.64, 187500.00, -0.016, -0.016, 0.976, 15:43:55.728, 1578577435728
191, -185012.28, -185180.67, -185002.23, 187500.00, -187500.02, 187500.00, -187500.02, -187500.02, 0.000, 0.000, 0.000, 15:43:55.729, 1578577435729
192, -169411.94, -167450.53, -174107.91, -174298.36, -174237.94, -167748.41, -174520.77, 187500.00, 0.000, 0.000, 0.000, 15:43:55.729, 1578577435729
193, -185025.81, -185186.75, -185016.80, 187500.00, -187500.02, 187500.00, -187500.02, -187500.02, 0.000, 0.000, 0.000, 15:43:55.729, 1578577435729
194, -169844.59, -167870.14, -174111.80, -174301.84, -174246.69, -168162.42, -174513.66, 187500.00, 0.000, 0.000, 0.000, 15:43:55.729, 1578577435729
195, -185038.70, -185192.38, -185031.84, 187500.00, -187500.02, 187500.00, -187500.02, -187500.02, 0.000, 0.000, 0.000, 15:43:55.729, 1578577435729
196, -170283.25, -168293.83, -174119.59, -174309.25, -174259.09, -168578.69, -174510.19, 187500.00, 0.000, 0.000, 0.000, 15:43:55.729, 1578577435729
197, -185056.48, -185196.44, -185044.14, 187500.00, -187500.02, 187500.00, -187500.02, -187500.02, 0.000, 0.000, 0.000, 15:43:55.729, 1578577435729
198, -170723.44, -168717.59, -174126.39, -174316.48, -174271.94, -168995.41, -174505.77, 187500.00, 0.000, 0.000, 0.000, 15:43:55.729, 1578577435729
199, -185065.22, -185206.70, -185055.72, 187500.00, -187500.02, 187500.00, -187500.02, -187500.02, 0.000, 0.000, 0.000, 15:43:55.729, 1578577435729
200, -171160.59, -169139.91, -174127.38, -174319.34, -174278.17, -169409.59, -174496.64, 187500.00, -0.020, -0.012, 0.980, 15:43:55.729, 1578577435729
201, -185079.23, -185208.92, -185071.72, 187500.00, -187500.02, 187500.00, -187500.02, -187500.02, 0.000, 0.000, 0.000, 15:43:55.730, 1578577435730
202, -171603.34, -169569.20, -174133.86, -174325.16, -174288.75, -169829.95, -174491.44, 187500.00, 0.000, 0.000, 0.000, 15:43:55.730, 1578577435730
203, -185090.75, -185215.98, -185082.86, 187500.00, -187500.02, 187500.00, -187500.02, -187500.02, 0.000, 0.000, 0.000, 15:43:55.730, 1578577435730
204, -172045.78, -169999.38, -174136.44, -174327.39, -174296.64, -170247.53, -174482.22, 187500.00, 0.000, 0.000, 0.000, 15:43:55.730, 1578577435730
205, -185102.86, -185225.86, -185093.50, 187500.00, -187500.02, 187500.00, -187500.02, -187500.02, 0.000, 0.000, 0.000, 15:43:55.730, 1578577435730
206, -172491.92, -170433.30, -174142.66, -174334.95, -174307.55, -170670.81, -174476.97, 187500.00, 0.000, 0.000, 0.000, 15:43:55.730, 1578577435730
207, -185116.67, -185230.23, -185109.19, 187500.00, -187500.02, 187500.00, -187500.02, -187500.02, 0.000, 0.000, 0.000, 15:43:55.730, 1578577435730
208, -172937.45, -170864.02, -174145.81, -174338.22, -174316.52, -171089.72, -174469.23, 187500.00, 0.000, 0.000, 0.000, 15:43:55.730, 1578577435730
209, -185131.00, -185240.25, -185123.00, 187500.00, -187500.02, 187500.00, -187500.02, -187500.02, -0.018, -0.016, 0.980, 15:43:55.730, 1578577435730
210, -173358.48, -171293.50, -174145.36, -174338.61, -174321.86, -171508.91, -174457.06, 187500.00, 0.000, 0.000, 0.000, 15:43:55.730, 1578577435730
211, -185144.50, -185245.23, -185137.97, 187500.00, -187500.02, 187500.00, -187500.02, -187500.02, 0.000, 0.000, 0.000, 15:43:55.731, 1578577435731
212, -173471.41, -171750.55, -174156.72, -174351.17, -174338.66, -171940.08, -174457.61, 187500.00, 0.000, 0.000, 0.000, 15:43:55.731, 1578577435731
213, -185156.23, -185256.19, -185149.78, 187500.00, -187500.02, 187500.00, -187500.02, -187500.02, 0.000, 0.000, 0.000, 15:43:55.731, 1578577435731
214, -173680.36, -172225.53, -174165.64, -174360.25, -174352.31, -172370.28, -174464.19, 187500.00, 0.000, 0.000, 0.000, 15:43:55.733, 1578577435733
215, -185170.78, -185265.64, -185166.81, 187500.00, -187500.02, 187500.00, -187500.02, -187500.02, 0.000, 0.000, 0.000, 15:43:55.733, 1578577435733
216, -173901.22, -172687.72, -174164.58, -174359.56, -174357.25, -172788.05, -174630.86, 187500.00, 0.000, 0.000, 0.000, 15:43:55.733, 1578577435733
217, -185184.33, -185268.75, -185178.52, 187500.00, -187500.02, 187500.00, -187500.02, -187500.02, 0.000, 0.000, 0.000, 15:43:55.733, 1578577435733
218, -174137.31, -173168.77, -174175.97, -174370.83, -174374.63, -173223.59, -174656.19, 187500.00, 0.000, 0.000, 0.000, 15:43:55.733, 1578577435733
219, -185194.52, -185280.13, -185187.97, 187500.00, -187500.02, 187500.00, -187500.02, -187500.02, -0.018, -0.014, 0.978, 15:43:55.733, 1578577435733
220, -174140.58, -173660.98, -174190.95, -174385.33, -174394.98, -173666.83, -174659.08, 187500.00, 0.000, 0.000, 0.000, 15:43:55.734, 1578577435734
221, -185209.61, -185287.78, -185203.03, 187500.00, -187500.02, 187500.00, -187500.02, -187500.02, 0.000, 0.000, 0.000, 15:43:55.734, 1578577435734
222, -174109.63, -174187.77, -174239.48, -174432.52, -174449.08, -174235.39, -174696.33, 187500.00, 0.000, 0.000, 0.000, 15:43:55.734, 1578577435734
223, -185222.48, -185296.11, -185216.77, 187500.00, -187500.02, 187500.00, -187500.02, -187500.02, 0.000, 0.000, 0.000, 15:43:55.734, 1578577435734
224, -174209.45, -174393.53, -174336.89, -174529.39, -174552.98, -174425.41, -174783.69, 187500.00, 0.000, 0.000, 0.000, 15:43:55.734, 1578577435734
225, -185237.22, -185303.80, -185229.17, 187500.00, -187500.02, 187500.00, -187500.02, -187500.02, 0.000, 0.000, 0.000, 15:43:55.734, 1578577435734
226, -174319.33, -174503.55, -174442.80, -174634.78, -174664.91, -174533.88, -174878.52, 187500.00, 0.000, 0.000, 0.000, 15:43:56.201, 1578577436201
227, -185249.11, -185309.05, -185243.61, 187500.00, -187500.02, 187500.00, -187500.02, -187500.02, 0.000, 0.000, 0.000, 15:43:56.201, 1578577436201
228, -174429.97, -174615.73, -174551.72, -174741.69, -174780.05, -174644.30, -174975.11, 187500.00, 0.000, 0.000, 0.000, 15:43:56.201, 1578577436201
229, -185263.48, -185322.44, -185258.53, 187500.00, -187500.02, 187500.00, -187500.02, -187500.02, -0.020, -0.016, 0.980, 15:43:56.202, 1578577436202
230, -174539.94, -174725.17, -174657.59, -174845.11, -174891.47, -174752.92, -175069.39, 187500.00, 0.000, 0.000, 0.000, 15:43:56.202, 1578577436202
231, -185279.64, -185328.16, -185272.28, 187500.00, -187500.02, 187500.00, -187500.02, -187500.02, 0.000, 0.000, 0.000, 15:43:56.202, 1578577436202
232, -174651.78, -174838.31, -174766.00, -174952.19, -175006.59, -174863.59, -175166.64, 187500.00, 0.000, 0.000, 0.000, 15:43:56.202, 1578577436202
233, -185291.66, -185335.92, -185283.64, 187500.00, -187500.02, 187500.00, -187500.02, -187500.02, 0.000, 0.000, 0.000, 15:43:56.202, 1578577436202
234, -174759.98, -174947.14, -174868.83, -175054.08, -175115.77, -174970.70, -175260.14, 187500.00, 0.000, 0.000, 0.000, 15:43:56.202, 1578577436202
235, -185302.84, -185346.78, -185295.98, 187500.00, -187500.02, 187500.00, -187500.02, -187500.02, 0.000, 0.000, 0.000, 15:43:56.202, 1578577436202
236, -174872.98, -175061.00, -174977.20, -175161.27, -175229.75, -175082.64, -175357.23, 187500.00, 0.000, 0.000, 0.000, 15:43:56.202, 1578577436202
237, -185318.02, -185354.66, -185306.86, 187500.00, -187500.02, 187500.00, -187500.02, -187500.02, 0.000, 0.000, 0.000, 15:43:56.202, 1578577436202
238, -174985.30, -175174.39, -175085.72, -175267.69, -175344.38, -175195.17, -175455.13, 187500.00, 0.000, 0.000, 0.000, 15:43:56.202, 1578577436202
239, -185328.80, -185366.70, -185322.23, 187500.00, -187500.02, 187500.00, -187500.02, -187500.02, -0.022, -0.024, 0.970, 15:43:56.202, 1578577436202
240, -175093.77, -175283.84, -175189.39, -175369.88, -175454.97, -175302.64, -175547.23, 187500.00, 0.000, 0.000, 0.000, 15:43:56.202, 1578577436202
241, -185344.25, -185372.22, -185335.11, 187500.00, -187500.02, 187500.00, -187500.02, -187500.02, 0.000, 0.000, 0.000, 15:43:56.202, 1578577436202
242, -175206.22, -175397.89, -175297.11, -175476.88, -175569.30, -175415.28, -175644.56, 187500.00, 0.000, 0.000, 0.000, 15:43:56.202, 1578577436202
243, -185358.27, -185380.88, -185349.59, 187500.00, -187500.02, 187500.00, -187500.02, -187500.02, 0.000, 0.000, 0.000, 15:43:56.202, 1578577436202
244, -175315.64, -175509.58, -175402.27, -175581.22, -175681.48, -175525.36, -175739.63, 187500.00, 0.000, 0.000, 0.000, 15:43:56.202, 1578577436202
245, -185371.95, -185394.03, -185362.31, 187500.00, -187500.02, 187500.00, -187500.02, -187500.02, 0.000, 0.000, 0.000, 15:43:56.203, 1578577436203
246, -175429.63, -175623.70, -175510.27, -175687.86, -175797.61, -175638.02, -175837.17, 187500.00, 0.000, 0.000, 0.000, 15:43:56.203, 1578577436203
247, -185384.63, -185399.95, -185381.08, 187500.00, -187500.02, 187500.00, -187500.02, -187500.02, 0.000, 0.000, 0.000, 15:43:56.203, 1578577436203
248, -175540.92, -175736.03, -175616.06, -175792.16, -175910.06, -175748.05, -175932.88, 187500.00, -0.020, -0.022, 0.974, 15:43:56.203, 1578577436203
249, -185398.44, -185411.94, -185391.80, 187500.00, -187500.02, 187500.00, -187500.02, -187500.02, 0.000, 0.000, 0.000, 15:43:56.203, 1578577436203
250, -175649.66, -175846.52, -175718.92, -175892.86, -176019.31, -175856.03, -176026.23, 187500.00, 0.000, 0.000, 0.000, 15:43:56.203, 1578577436203
251, -185411.58, -185419.31, -185405.95, 187500.00, -187500.02, 187500.00, -187500.02, -187500.02, 0.000, 0.000, 0.000, 15:43:56.203, 1578577436203
252, -175766.05, -175963.52, -175829.30, -176001.41, -176136.36, -175971.50, -176125.45, 187500.00, 0.000, 0.000, 0.000, 15:43:56.203, 1578577436203
253, -185424.25, -185431.66, -185418.47, 187500.00, -187500.02, 187500.00, -187500.02, -187500.02, 0.000, 0.000, 0.000, 15:43:56.203, 1578577436203
254, -175878.42, -176076.05, -175935.31, -176105.61, -176248.81, -176082.03, -176219.92, 187500.00, 0.000, 0.000, 0.000, 15:43:56.203, 1578577436203
255, -185437.28, -185444.86, -185430.16, 187500.00, -187500.02, 187500.00, -187500.02, -187500.02, 0.000, 0.000, 0.000, 15:43:56.203, 1578577436203
0, -175989.58, -176189.34, -176040.86, -176210.83, -176361.34, -176193.47, -176315.36, 187500.00, 0.000, 0.000, 0.000, 15:43:56.203, 1578577436203
1, -185453.67, -185448.69, -185443.95, 187500.00, -187500.02, 187500.00, -187500.02, -187500.02, 0.000, 0.000, 0.000, 15:43:56.203, 1578577436203
2, -176101.75, -176302.22, -176147.16, -176316.20, -176474.28, -176304.94, -176410.47, 187500.00, -0.020, -0.016, 0.978, 15:43:56.203, 1578577436203
3, -185465.94, -185462.31, -185460.64, 187500.00, -187500.02, 187500.00, -187500.02, -187500.02, 0.000, 0.000, 0.000, 15:43:56.204, 1578577436204
4, -176213.64, -176414.64, -176253.11, -176419.66, -176587.11, -176415.66, -176506.05, 187500.00, 0.000, 0.000, 0.000, 15:43:56.204, 1578577436204
5, -185480.53, -185472.17, -185471.08, 187500.00, -187500.02, 187500.00, -187500.02, -187500.02, 0.000, 0.000, 0.000, 15:43:56.204, 1578577436204
6, -176329.11, -176531.45, -176363.02, -176527.28, -176703.98, -176532.00, -176605.31, 187500.00, 0.000, 0.000, 0.000, 15:43:56.204, 1578577436204
7, -185490.58, -185484.11, -185481.03, 187500.00, -187500.02, 187500.00, -187500.02, -187500.02, 0.000, 0.000, 0.000, 15:43:56.204, 1578577436204
8, -176437.25, -176641.72, -176467.06, -176628.17, -176814.39, -176640.33, -176697.86, 187500.00, 0.000, 0.000, 0.000, 15:43:56.204, 1578577436204
9, -185502.95, -185495.11, -185495.83, 187500.00, -187500.02, 187500.00, -187500.02, -187500.02, 0.000, 0.000, 0.000, 15:43:56.204, 1578577436204
10, -176549.05, -176754.81, -176573.36, -176733.25, -176928.80, -176751.86, -176793.42, 187500.00, 0.000, 0.000, 0.000, 15:43:56.204, 1578577436204
11, -185517.42, -185502.28, -185510.28, 187500.00, -187500.02, 187500.00, -187500.02, -187500.02, 0.000, 0.000, 0.000, 15:43:56.204, 1578577436204
12, -176662.86, -176871.27, -176681.33, -176839.89, -177044.05, -176865.70, -176891.47, 187500.00, -0.016, -0.014, 0.976, 15:43:56.204, 1578577436204
13, -185534.02, -185516.91, -185525.23, 187500.00, -187500.02, 187500.00, -187500.02, -187500.02, 0.000, 0.000, 0.000, 15:43:56.204, 1578577436204
14, -176774.80, -176984.23, -176786.64, -176944.14, -177155.58, -176977.08, -176986.42, 187500.00, 0.000, 0.000, 0.000, 15:43:56.204, 1578577436204
15, -185544.63, -185525.38, -185537.56, 187500.00, -187500.02, 187500.00, -187500.02, -187500.02, 0.000, 0.000, 0.000, 15:43:56.204, 1578577436204
16, -176887.83, -177099.66, -176894.98, -177050.78, -177270.31, -177090.88, -177083.81, 187500.00, 0.000, 0.000, 0.000, 15:43:56.204, 1578577436204
17, -185559.23, -185535.25, -185551.69, 187500.00, -187500.02, 187500.00, -187500.02, -187500.02, 0.000, 0.000, 0.000, 15:43:56.204, 1578577436204
18, -176997.42, -177210.95, -176997.80, -177152.28, -177379.97, -177199.66, -177176.13, 187500.00, 0.000, 0.000, 0.000, 15:43:56.205, 1578577436205
19, -185571.69, -185548.53, -185562.44, 187500.00, -187500.02, 187500.00, -187500.02, -187500.02, 0.000, 0.000, 0.000, 15:43:56.205, 1578577436205
20, -177112.25, -177326.08, -177106.72, -177257.64, -177495.73, -177313.97, -177274.00, 187500.00, 0.000, 0.000, 0.000, 15:43:56.205, 1578577436205
21, -185583.33, -185557.52, -185580.92, 187500.00, -187500.02, 187500.00, -187500.02, -187500.02, 0.000, 0.000, 0.000, 15:43:56.205, 1578577436205
22, -177226.59, -177441.83, -177214.97, -177363.80, -177611.16, -177428.55, -177370.78, 187500.00, -0.016, -0.014, 0.974, 15:43:56.205, 1578577436205
23, -185599.47, -185572.05, -185591.94, 187500.00, -187500.02, 187500.00, -187500.02, -187500.02, 0.000, 0.000, 0.000, 15:43:56.205, 1578577436205
24, -177335.56, -177552.33, -177318.11, -177465.94, -177720.28, -177538.16, -177462.97, 187500.00, 0.000, 0.000, 0.000, 15:43:56.205, 1578577436205
25, -185610.83, -185580.34, -185604.83, 187500.00, -187500.02, 187500.00, -187500.02, -187500.02, 0.000, 0.000, 0.000, 15:43:56.205, 1578577436205
26, -177449.84, -177667.94, -177425.77, -177572.42, -177835.14, -177651.70, -177560.58, 187500.00, 0.000, 0.000, 0.000, 15:43:56.205, 1578577436205
27, -185624.66, -185592.27, -185618.02, 187500.00, -187500.02, 187500.00, -187500.02, -187500.02, 0.000, 0.000, 0.000, 15:43:56.205, 1578577436205
28, -177561.67, -177780.83, -177531.16, -177676.05, -177947.70, -177763.02, -177655.33, 187500.00, 0.000, 0.000, 0.000, 15:43:56.205, 1578577436205
29, -185638.41, -185606.88, -185631.16, 187500.00, -187500.02, 187500.00, -187500.02, -187500.02, 0.000, 0.000, 0.000, 15:43:56.205, 1578577436205
30, -177675.75, -177896.39, -177638.22, -177782.33, -178063.42, -177877.61, -177752.84, 187500.00, 0.000, 0.000, 0.000, 15:43:56.205, 1578577436205
31, -185650.97, -185615.55, -185644.19, 187500.00, -187500.02, 187500.00, -187500.02, -187500.02, -0.024, -0.016, 0.978, 15:43:56.206, 1578577436206
32, -177787.58, -178010.98, -177743.72, -177886.84, -178176.91, -177989.69, -177848.28, 187500.00, 0.000, 0.000, 0.000, 15:43:56.206, 1578577436206
33, -185666.03, -185629.55, -185656.69, 187500.00, -187500.02, 187500.00, -187500.02, -187500.02, 0.000, 0.000, 0.000, 15:43:56.206, 1578577436206
34, -177897.34, -178122.45, -177846.52, -177988.16, -178286.42, -178099.08, -177940.98, 187500.00, 0.000, 0.000, 0.000, 15:43:56.206, 1578577436206
35, -185680.50, -185636.69, -185674.27, 187500.00, -187500.02, 187500.00, -187500.02, -187500.02, 0.000, 0.000, 0.000, 15:43:56.206, 1578577436206
36, -178013.33, -178240.66, -177956.97, -178096.17, -178404.63, -178215.73, -178039.84, 187500.00, 0.000, 0.000, 0.000, 15:43:56.206, 1578577436206
37, -185688.08, -185650.63, -185686.48, 187500.00, -187500.02, 187500.00, -187500.02, -187500.02, 0.000, 0.000, 0.000, 15:43:56.206, 1578577436206
38, -178126.64, -178354.16, -178062.95, -178199.83, -178517.30, -178327.28, -178133.88, 187500.00, 0.000, 0.000, 0.000, 15:43:56.206, 1578577436206
39, -185705.63, -185663.08, -185697.77, 187500.00, -187500.02, 187500.00, -187500.02, -187500.02, 0.000, 0.000, 0.000, 15:43:56.206, 1578577436206
40, -178238.92, -178468.53, -178168.56, -178305.06, -178630.83, -178439.58, -178229.56, 187500.00, 0.000, 0.000, 0.000, 15:43:56.206, 1578577436206
41, -185720.28, -185669.70, -185713.91, 187500.00, -187500.02, 187500.00, -187500.02, -187500.02, -0.024, -0.022, 0.984, 15:43:56.206, 1578577436206
42, -178352.36, -178583.86, -178274.95, -178410.13, -178744.56, -178553.53, -178324.22, 187500.00, 0.000, 0.000, 0.000, 15:43:56.206, 1578577436206
43, -185732.22, -185685.23, -185723.28, 187500.00, -187500.02, 187500.00, -187500.02, -187500.02, 0.000, 0.000, 0.000, 15:43:56.207, 1578577436207
44, -178464.39, -178697.91, -178379.03, -178514.13, -178857.53, -178666.03, -178419.38, 187500.00, 0.000, 0.000, 0.000, 15:43:56.207, 1578577436207
45, -185746.61, -185696.25, -185743.45, 187500.00, -187500.02, 187500.00, -187500.02, -187500.02, 0.000, 0.000, 0.000, 15:43:56.207, 1578577436207
46, -178581.14, -178815.98, -178488.22, -178622.33, -178974.70, -178783.06, -178518.08, 187500.00, 0.000, 0.000, 0.000, 15:43:56.207, 1578577436207
47, -185758.28, -185709.80, -185756.78, 187500.00, -187500.02, 187500.00, -187500.02, -187500.02, 0.000, 0.000, 0.000, 15:43:56.207, 1578577436207
48, -178692.31, -178927.98, -178591.42, -178724.14, -179086.13, -178892.98, -178610.50, 187500.00, 0.000, 0.000, 0.000, 15:43:56.207, 1578577436207
49, -185772.53, -185722.03, -185764.09, 187500.00, -187500.02, 187500.00, -187500.02, -187500.02, 0.000, 0.000, 0.000, 15:43:56.207, 1578577436207
50, -178804.97, -179044.02, -178697.00, -178829.13, -179200.39, -179007.66, -178705.56, 187500.00, 0.000, 0.000, 0.000, 15:43:56.207, 1578577436207
51, -185782.11, -185730.89, -185774.97, 187500.00, -187500.02, 187500.00, -187500.02, -187500.02, -0.020, -0.022, 0.980, 15:43:56.207, 1578577436207
52, -178920.36, -179162.28, -178806.08, -178936.30, -179318.11, -179122.97, -178803.11, 187500.00, 0.000, 0.000, 0.000, 15:43:56.207, 1578577436207
53, -185799.39, -185748.41, -185791.36, 187500.00, -187500.02, 187500.00, -187500.02, -187500.02, 0.000, 0.000, 0.000, 15:43:56.207, 1578577436207
54, -179033.28, -179278.08, -178911.16, -179040.73, -179432.67, -179236.86, -178897.75, 187500.00, 0.000, 0.000, 0.000, 15:43:56.207, 1578577436207
55, -185815.14, -185757.36, -185806.92, 187500.00, -187500.02, 187500.00, -187500.02, -187500.02, 0.000, 0.000, 0.000, 15:43:56.207, 1578577436207
56, -179149.14, -179396.88, -179019.39, -179147.33, -179550.73, -179354.09, -178995.47, 187500.00, 0.000, 0.000, 0.000, 15:43:56.207, 1578577436207
57, -185823.67, -185768.11, -185820.64, 187500.00, -187500.02, 187500.00, -187500.02, -187500.02, 0.000, 0.000, 0.000, 15:43:56.207, 1578577436207
58, -179262.27, -179512.33, -179122.47, -179250.66, -179665.31, -179466.78, -179089.41, 187500.00, 0.000, 0.000, 0.000, 15:43:56.207, 1578577436207
59, -185837.06, -185781.72, -185829.64, 187500.00, -187500.02, 187500.00, -187500.02, -187500.02, 0.000, 0.000, 0.000, 15:43:56.208, 1578577436208
60, -179380.28, -179633.77, -179233.09, -179358.23, -179785.56, -179584.84, -179187.72, 187500.00, 0.000, 0.000, 0.000, 15:43:56.208, 1578577436208
61, -185853.55, -185792.34, -185842.88, 187500.00, -187500.02, 187500.00, -187500.02, -187500.02, -0.032, -0.018, 0.974, 15:43:56.208, 1578577436208
62, -179499.50, -179755.30, -179342.25, -179467.69, -179906.22, -179705.56, -179286.53, 187500.00, 0.000, 0.000, 0.000, 15:43:56.208, 1578577436208
63, -185864.09, -185806.69, -185853.78, 187500.00, -187500.02, 187500.00, -187500.02, -187500.02, 0.000, 0.000, 0.000, 15:43:56.208, 1578577436208
64, -179614.66, -179873.94, -179447.48, -179572.33, -180023.58, -179821.44, -179380.59, 187500.00, 0.000, 0.000, 0.000, 15:43:56.208, 1578577436208
65, -185879.17, -185815.59, -185870.42, 187500.00, -187500.02, 187500.00, -187500.02, -187500.02, 0.000, 0.000, 0.000, 15:43:56.208, 1578577436208
66, -179733.48, -179999.28, -179557.41, -179680.95, -180147.36, -179940.83, -179479.45, 187500.00, 0.000, 0.000, 0.000, 15:43:56.208, 1578577436208
67, -185896.48, -185827.81, -185888.34, 187500.00, -187500.02, 187500.00, -187500.02, -187500.02, 0.000, 0.000, 0.000, 15:43:56.208, 1578577436208
68, -179852.34, -180121.80, -179665.80, -179787.66, -180268.91, -180059.88, -179576.08, 187500.00, 0.000, 0.000, 0.000, 15:43:56.208, 1578577436208
69, -185909.89, -185844.25, -185900.14, 187500.00, -187500.02, 187500.00, -187500.02, -187500.02, 0.000, 0.000, 0.000, 15:43:56.208, 1578577436208
70, -179974.75, -180246.97, -179776.39, -179898.20, -180394.84, -180182.91, -179675.91, 187500.00, -0.020, -0.020, 0.966, 15:43:56.208, 1578577436208
71, -185920.42, -185852.58, -185911.41, 187500.00, -187500.02, 187500.00, -187500.02, -187500.02, 0.000, 0.000, 0.000, 15:43:56.208, 1578577436208
72, -180096.38, -180372.52, -179888.08, -180008.72, -180519.41, -180304.14, -179774.31, 187500.00, 0.000, 0.000, 0.000, 15:43:56.208, 1578577436208
73, -185929.63, -185866.30, -185923.91, 187500.00, -187500.02, 187500.00, -187500.02, -187500.02, 0.000, 0.000, 0.000, 15:43:56.208, 1578577436208
74, -180214.55, -180495.50, -179996.64, -180116.50, -180640.64, -180422.30, -179870.97, 187500.00, 0.000, 0.000, 0.000, 15:43:56.208, 1578577436208
75, -185944.56, -185876.47, -185934.64, 187500.00, -187500.02, 187500.00, -187500.02, -187500.02, 0.000, 0.000, 0.000, 15:43:56.209, 1578577436209
76, -180341.22, -180624.42, -180112.83, -180232.44, -180769.70, -180548.36, -179975.34, 187500.00, 0.000, 0.000, 0.000, 15:43:56.209, 1578577436209
77, -185959.95, -185891.06, -185952.16, 187500.00, -187500.02, 187500.00, -187500.02, -187500.02, 0.000, 0.000, 0.000, 15:43:56.209, 1578577436209
78, -180463.22, -180746.06, -180224.86, -180342.56, -180892.42, -180668.09, -180074.50, 187500.00, 0.000, 0.000, 0.000, 15:43:56.209, 1578577436209
79, -185973.61, -185904.95, -185967.61, 187500.00, -187500.02, 187500.00, -187500.02, -187500.02, 0.000, 0.000, 0.000, 15:43:56.209, 1578577436209
80, -180584.92, -180866.72, -180338.27, -180453.78, -181013.20, -180786.47, -180175.59, 187500.00, -0.026, -0.018, 0.976, 15:43:56.209, 1578577436209
81, -185983.70, -185913.44, -185977.64, 187500.00, -187500.02, 187500.00, -187500.02, -187500.02, 0.000, 0.000, 0.000, 15:43:56.209, 1578577436209
82, -180705.84, -180983.95, -180452.33, -180567.58, -181132.19, -180904.86, -180277.20, 187500.00, 0.000, 0.000, 0.000, 15:43:56.209, 1578577436209
83, -185997.02, -185928.70, -185990.06, 187500.00, -187500.02, 187500.00, -187500.02, -187500.02, 0.000, 0.000, 0.000, 15:43:56.209, 1578577436209
84, -180825.11, -181098.03, -180566.86, -180679.05, -181246.47, -181018.64, -180378.91, 187500.00, 0.000, 0.000, 0.000, 15:43:56.209, 1578577436209
85, -186016.23, -185940.36, -186006.00, 187500.00, -187500.02, 187500.00, -187500.02, -187500.02, 0.000, 0.000, 0.000, 15:43:56.209, 1578577436209
86, -180947.28, -181211.94, -180686.38, -180795.34, -181360.75, -181134.89, -180484.45, 187500.00, 0.000, 0.000, 0.000, 15:43:56.209, 1578577436209
87, -186024.59, -185954.08, -186021.66, 187500.00, -187500.02, 187500.00, -187500.02, -187500.02, 0.000, 0.000, 0.000, 15:43:56.209, 1578577436209
88, -181058.84, -181316.63, -180798.53, -180905.45, -181466.05, -181243.09, -180584.97, 187500.00, 0.000, 0.000, 0.000, 15:43:56.209, 1578577436209
89, -186040.52, -185966.53, -186031.78, 187500.00, -187500.02, 187500.00, -187500.02, -187500.02, 0.000, 0.000, 0.000, 15:43:56.209, 1578577436209
90, -181170.38, -181420.59, -180912.05, -181015.42, -181569.67, -181349.47, -180687.77, 187500.00, -0.024, -0.018, 0.978, 15:43:56.680, 1578577436680
91, -186054.78, -185974.20, -186045.88, 187500.00, -187500.02, 187500.00, -187500.02, -187500.02, 0.000, 0.000, 0.000, 15:43:56.680, 1578577436680
92, -181279.86, -181491.31, -181026.13, -181125.75, -181646.16, -181456.69, -180792.61, 187500.00, 0.000, 0.000, 0.000, 15:43:56.680, 1578577436680
93, -186067.53, -185990.69, -186061.41, 187500.00, -187500.02, 187500.00, -187500.02, -187500.02, 0.000, 0.000, 0.000, 15:43:56.680, 1578577436680
94, -181384.42, -181514.08, -181135.33, -181230.75, -181672.89, -181558.28, -180894.30, 187500.00, 0.000, 0.000, 0.000, 15:43:56.680, 1578577436680
95, -186080.75, -186001.00, -186072.67, 187500.00, -187500.02, 187500.00, -187500.02, -187500.02, 0.000, 0.000, 0.000, 15:43:56.680, 1578577436680
96, -181486.23, -181532.59, -181244.88, -181335.16, -181689.80, -181625.47, -180998.05, 187500.00, 0.000, 0.000, 0.000, 15:43:56.680, 1578577436680
97, -186092.92, -186010.81, -186088.66, 187500.00, -187500.02, 187500.00, -187500.02, -187500.02, 0.000, 0.000, 0.000, 15:43:56.680, 1578577436680
98, -181538.05, -181542.98, -181346.47, -181431.67, -181699.41, -181644.23, -181095.55, 187500.00, 0.000, 0.000, 0.000, 15:43:56.680, 1578577436680
99, -186103.59, -186026.59, -186096.50, 187500.00, -187500.02, 187500.00, -187500.02, -187500.02, 0.000, 0.000, 0.000, 15:43:56.680, 1578577436680
100, -181558.52, -181556.02, -181449.58, -181531.98, -181712.48, -181660.05, -181196.84, 187500.00, -0.026, -0.016, 0.980, 15:43:56.681, 1578577436681
101, -186119.44, -186037.03, -186108.31, 187500.00, -187500.02, 187500.00, -187500.02, -187500.02, 0.000, 0.000, 0.000, 15:43:56.681, 1578577436681
102, -181574.20, -181568.95, -181551.95, -181632.61, -181725.58, -181674.22, -181296.05, 187500.00, 0.000, 0.000, 0.000, 15:43:56.681, 1578577436681
103, -186132.61, -186051.78, -186121.38, 187500.00, -187500.02, 187500.00, -187500.02, -187500.02, 0.000, 0.000, 0.000, 15:43:56.681, 1578577436681
104, -181585.86, -181579.28, -181648.39, -181713.86, -181735.84, -181685.20, -181389.00, 187500.00, 0.000, 0.000, 0.000, 15:43:56.681, 1578577436681
105, -186144.47, -186060.73, -186138.45, 187500.00, -187500.02, 187500.00, -187500.02, -187500.02, 0.000, 0.000, 0.000, 15:43:56.681, 1578577436681
106, -181599.11, -181591.75, -181729.53, -181752.94, -181748.33, -181698.16, -181484.83, 187500.00, 0.000, 0.000, 0.000, 15:43:56.681, 1578577436681
107, -186161.09, -186073.22, -186149.30, 187500.00, -187500.02, 187500.00, -187500.02, -187500.02, 0.000, 0.000, 0.000, 15:43:56.681, 1578577436681
108, -181608.63, -181600.70, -181759.47, -181768.20, -181757.20, -181707.31, -181575.23, 187500.00, 0.000, 0.000, 0.000, 15:43:56.681, 1578577436681
109, -186171.88, -186090.45, -186164.48, 187500.00, -187500.02, 187500.00, -187500.02, -187500.02, 0.000, 0.000, 0.000, 15:43:56.681, 1578577436681
110, -181620.91, -181612.66, -181776.36, -181782.86, -181769.09, -181719.59, -181666.66, 187500.00, -0.028, -0.022, 0.976, 15:43:56.681, 1578577436681
111, -186185.39, -186098.92, -186173.95, 187500.00, -187500.02, 187500.00, -187500.02, -187500.02, 0.000, 0.000, 0.000, 15:43:56.681, 1578577436681
112, -181631.67, -181623.19, -181789.30, -181794.94, -181779.64, -181730.20, -181755.33, 187500.00, 0.000, 0.000, 0.000, 15:43:56.681, 1578577436681
113, -186198.14, -186113.72, -186191.17, 187500.00, -187500.02, 187500.00, -187500.02, -187500.02, 0.000, 0.000, 0.000, 15:43:56.681, 1578577436681
114, -181642.50, -181633.67, -181801.33, -181806.73, -181790.16, -181740.84, -181835.64, 187500.00, 0.000, 0.000, 0.000, 15:43:56.682, 1578577436682
115, -186208.94, -186125.55, -186204.73, 187500.00, -187500.02, 187500.00, -187500.02, -187500.02, 0.000, 0.000, 0.000, 15:43:56.682, 1578577436682
116, -181653.98, -181645.11, -181813.78, -181818.88, -181801.58, -181752.31, -181883.53, 187500.00, 0.000, 0.000, 0.000, 15:43:56.682, 1578577436682
117, -186222.55, -186140.11, -186217.45, 187500.00, -187500.02, 187500.00, -187500.02, -187500.02, 0.000, 0.000, 0.000, 15:43:56.682, 1578577436682
118, -181666.41, -181657.56, -181827.13, -181831.86, -181813.98, -181764.94, -181904.41, 187500.00, 0.000, 0.000, 0.000, 15:43:56.682, 1578577436682
119, -186237.33, -186154.42, -186232.05, 187500.00, -187500.02, 187500.00, -187500.02, -187500.02, -0.022, -0.024, 0.972, 15:43:56.682, 1578577436682
120, -181677.63, -181668.61, -181838.45, -181843.34, -181824.97, -181775.95, -181918.98, 187500.00, 0.000, 0.000, 0.000, 15:43:56.682, 1578577436682
121, -186252.50, -186161.58, -186246.91, 187500.00, -187500.02, 187500.00, -187500.02, -187500.02, 0.000, 0.000, 0.000, 15:43:56.682, 1578577436682
122, -181691.05, -181681.86, -181852.16, -181856.95, -181838.31, -181789.33, -181934.16, 187500.00, 0.000, 0.000, 0.000, 15:43:56.682, 1578577436682
123, -186264.91, -186177.69, -186264.77, 187500.00, -187500.02, 187500.00, -187500.02, -187500.02, 0.000, 0.000, 0.000, 15:43:56.682, 1578577436682
124, -181701.14, -181691.88, -181862.48, -181867.22, -181848.28, -181799.42, -181945.56, 187500.00, 0.000, 0.000, 0.000, 15:43:56.682, 1578577436682
125, -186276.50, -186190.72, -186272.08, 187500.00, -187500.02, 187500.00, -187500.02, -187500.02, 0.000, 0.000, 0.000, 15:43:56.682, 1578577436682
126, -181710.84, -181701.53, -181872.42, -181877.09, -181857.98, -181809.16, -181956.25, 187500.00, 0.000, 0.000, 0.000, 15:43:56.682, 1578577436682
127, -186287.48, -186205.81, -186279.81, 187500.00, -187500.02, 187500.00, -187500.02, -187500.02, 0.000, 0.000, 0.000, 15:43:56.682, 1578577436682
128, -181720.25, -181710.91, -181881.91, -181886.59, -181867.20, -181818.47, -181966.22, 187500.00, 0.000, 0.000, 0.000, 15:43:56.682, 1578577436682
129, -186303.91, -186219.19, -186294.41, 187500.00, -187500.02, 187500.00, -187500.02, -187500.02, -0.016, -0.020, 0.974, 15:43:56.682, 1578577436682
130, -181733.27, -181723.98, -181895.09, -181899.86, -181880.30, -181831.50, -181979.81, 187500.00, 0.000, 0.000, 0.000, 15:43:56.683, 1578577436683
131, -186315.75, -186227.59, -186307.70, 187500.00, -187500.02, 187500.00, -187500.02, -187500.02, 0.000, 0.000, 0.000, 15:43:56.683, 1578577436683
132, -181745.00, -181735.56, -181906.97, -181911.66, -181891.94, -181843.22, -181991.86, 187500.00, 0.000, 0.000, 0.000, 15:43:56.683, 1578577436683
133, -186331.53, -186246.11, -186324.78, 187500.00, -187500.02, 187500.00, -187500.02, -187500.02, 0.000, 0.000, 0.000, 15:43:56.683, 1578577436683
134, -181754.17, -181744.67, -181916.27, -181920.80, -181901.03, -181852.41, -182001.31, 187500.00, 0.000, 0.000, 0.000, 15:43:56.683, 1578577436683
135, -186340.94, -186256.31, -186336.61, 187500.00, -187500.02, 187500.00, -187500.02, -187500.02, 0.000, 0.000, 0.000, 15:43:56.683, 1578577436683
136, -181765.77, -181756.25, -181927.91, -181932.48, -181912.59, -181863.94, -182013.05, 187500.00, 0.000, 0.000, 0.000, 15:43:56.683, 1578577436683
137, -186358.13, -186266.33, -186350.17, 187500.00, -187500.02, 187500.00, -187500.02, -187500.02, 0.000, 0.000, 0.000, 15:43:56.683, 1578577436683
138, -181777.44, -181767.91, -181939.58, -181944.13, -181924.19, -181875.58, -182024.95, 187500.00, 0.000, 0.000, 0.000, 15:43:56.683, 1578577436683
139, -186372.50, -186282.50, -186364.53, 187500.00, -187500.02, 187500.00, -187500.02, -187500.02, -0.012, -0.020, 0.980, 15:43:56.683, 1578577436683
140, -181788.25, -181778.66, -181950.48, -181955.05, -181934.97, -181886.38, -182036.02, 187500.00, 0.000, 0.000, 0.000, 15:43:56.683, 1578577436683
141, -186383.20, -186295.61, -186375.45, 187500.00, -187500.02, 187500.00, -187500.02, -187500.02, 0.000, 0.000, 0.000, 15:43:56.683, 1578577436683
142, -181800.48, -181790.94, -181962.70, -181967.27, -181947.13, -181898.52, -182048.41, 187500.00, 0.000, 0.000, 0.000, 15:43:56.683, 1578577436683
143, -186401.47, -186311.28, -186385.83, 187500.00, -187500.02, 187500.00, -187500.02, -187500.02, 0.000, 0.000, 0.000, 15:43:56.684, 1578577436684
144, -181809.28, -181799.63, -181971.56, -181976.05, -181955.80, -181907.28, -182057.20, 187500.00, 0.000, 0.000, 0.000, 15:43:56.684, 1578577436684
145, -186409.55, -186322.06, -186404.11, 187500.00, -187500.02, 187500.00, -187500.02, -187500.02, 0.000, 0.000, 0.000, 15:43:56.685, 1578577436685
146, -181822.16, -181812.45, -181984.44, -181988.91, -181968.61, -181920.17, -182070.22, 187500.00, 0.000, 0.000, 0.000, 15:43:56.685, 1578577436685
147, -186421.77, -186334.84, -186416.11, 187500.00, -187500.02, 187500.00, -187500.02, -187500.02, 0.000, 0.000, 0.000, 15:43:56.685, 1578577436685
148, -181831.53, -181821.94, -181993.95, -181998.48, -181978.06, -181929.56, -182079.72, 187500.00, 0.000, 0.000, 0.000, 15:43:56.685, 1578577436685
149, -186438.83, -186351.00, -186431.84, 187500.00, -187500.02, 187500.00, -187500.02, -187500.02, -0.016, -0.022, 0.982, 15:43:56.685, 1578577436685
150, -181845.03, -181835.25, -182007.44, -182011.86, -181991.55, -181943.02, -182093.28, 187500.00, 0.000, 0.000, 0.000, 15:43:56.685, 1578577436685
151, -186454.67, -186361.03, -186440.56, 187500.00, -187500.02, 187500.00, -187500.02, -187500.02, 0.000, 0.000, 0.000, 15:43:56.685, 1578577436685
152, -181852.61, -181842.83, -182015.09, -182019.59, -181999.09, -181950.66, -182101.02, 187500.00, 0.000, 0.000, 0.000, 15:43:56.685, 1578577436685
153, -186463.14, -186376.03, -186450.48, 187500.00, -187500.02, 187500.00, -187500.02, -187500.02, 0.000, 0.000, 0.000, 15:43:56.685, 1578577436685
154, -181862.44, -181852.73, -182024.89, -182029.41, -182008.86, -181960.47, -182110.78, 187500.00, 0.000, 0.000, 0.000, 15:43:56.685, 1578577436685
155, -186479.09, -186386.45, -186468.45, 187500.00, -187500.02, 187500.00, -187500.02, -187500.02, 0.000, 0.000, 0.000, 15:43:56.685, 1578577436685
156, -181875.95, -181866.17, -182038.50, -182042.91, -182022.25, -181973.84, -182124.36, 187500.00, 0.000, 0.000, 0.000, 15:43:56.685, 1578577436685
157, -186490.72, -186400.53, -186480.70, 187500.00, -187500.02, 187500.00, -187500.02, -187500.02, 0.000, 0.000, 0.000, 15:43:56.685, 1578577436685
158, -181885.34, -181875.58, -182047.89, -182052.47, -182031.70, -181983.30, -182133.78, 187500.00, -0.018, -0.022, 0.982, 15:43:56.685, 1578577436685
159, -186504.69, -186414.77, -186498.80, 187500.00, -187500.02, 187500.00, -187500.02, -187500.02, 0.000, 0.000, 0.000, 15:43:56.685, 1578577436685
160, -181897.11, -181887.30, -182059.56, -182064.14, -182043.39, -181994.98, -182145.59, 187500.00, 0.000, 0.000, 0.000, 15:43:56.685, 1578577436685
161, -186514.80, -186423.20, -186509.45, 187500.00, -187500.02, 187500.00, -187500.02, -187500.02, 0.000, 0.000, 0.000, 15:43:56.686, 1578577436686
162, -181906.98, -181897.11, -182069.45, -182074.08, -182053.19, -182004.81, -182155.42, 187500.00, 0.000, 0.000, 0.000, 15:43:56.686, 1578577436686
163, -186532.52, -186439.50, -186525.48, 187500.00, -187500.02, 187500.00, -187500.02, -187500.02, 0.000, 0.000, 0.000, 15:43:56.686, 1578577436686
164, -181920.39, -181910.47, -182082.98, -182087.55, -182066.63, -182018.14, -182168.77, 187500.00, 0.000, 0.000, 0.000, 15:43:56.686, 1578577436686
165, -186544.50, -186452.95, -186538.73, 187500.00, -187500.02, 187500.00, -187500.02, -187500.02, 0.000, 0.000, 0.000, 15:43:56.686, 1578577436686
166, -181931.77, -181921.95, -182094.42, -182098.92, -182078.05, -182029.61, -182180.25, 187500.00, 0.000, 0.000, 0.000, 15:43:56.686, 1578577436686
167, -186558.16, -186465.63, -186554.77, 187500.00, -187500.02, 187500.00, -187500.02, -187500.02, 0.000, 0.000, 0.000, 15:43:56.686, 1578577436686
168, -181942.19, -181932.38, -182104.84, -182109.33, -182088.48, -182040.06, -182190.78, 187500.00, -0.016, -0.022, 0.978, 15:43:56.686, 1578577436686
169, -186570.39, -186479.64, -186562.86, 187500.00, -187500.02, 187500.00, -187500.02, -187500.02, 0.000, 0.000, 0.000, 15:43:56.686, 1578577436686
170, -181952.25, -181942.50, -182114.98, -182119.58, -182098.56, -182050.23, -182200.94, 187500.00, 0.000, 0.000, 0.000, 15:43:56.686, 1578577436686
171, -186586.09, -186489.61, -186579.30, 187500.00, -187500.02, 187500.00, -187500.02, -187500.02, 0.000, 0.000, 0.000, 15:43:56.686, 1578577436686
172, -181963.98, -181954.30, -182126.67, -182131.28, -182110.19, -182061.95, -182212.75, 187500.00, 0.000, 0.000, 0.000, 15:43:56.686, 1578577436686
173, -186600.30, -186507.16, -186594.69, 187500.00, -187500.02, 187500.00, -187500.02, -187500.02, 0.000, 0.000, 0.000, 15:43:56.686, 1578577436686
174, -181972.27, -181962.64, -182135.00, -182139.63, -182118.55, -182070.23, -182220.98, 187500.00, 0.000, 0.000, 0.000, 15:43:56.686, 1578577436686
175, -186610.28, -186520.09, -186604.25, 187500.00, -187500.02, 187500.00, -187500.02, -187500.02, 0.000, 0.000, 0.000, 15:43:56.686, 1578577436686
176, -181983.22, -181973.50, -182145.86, -182150.42, -182129.25, -182080.97, -182231.75, 187500.00, 0.000, 0.000, 0.000, 15:43:56.686, 1578577436686
177, -186623.06, -186531.97, -186616.89, 187500.00, -187500.02, 187500.00, -187500.02, -187500.02, 0.000, 0.000, 0.000, 15:43:56.687, 1578577436687
178, -181994.33, -181984.48, -182156.89, -182161.56, -182140.38, -182092.14, -182242.84, 187500.00, -0.018, -0.024, 0.976, 15:43:56.687, 1578577436687
179, -186638.95, -186548.28, -186630.89, 187500.00, -187500.02, 187500.00, -187500.02, -187500.02, 0.000, 0.000, 0.000, 15:43:56.687, 1578577436687
180, -182005.39, -181995.50, -182168.20, -182172.75, -182151.64, -182103.30, -182254.02, 187500.00, 0.000, 0.000, 0.000, 15:43:56.687, 1578577436687
181, -186651.23, -186559.72, -186644.13, 187500.00, -187500.02, 187500.00, -187500.02, -187500.02, 0.000, 0.000, 0.000, 15:43:56.687, 1578577436687
182, -182015.69, -182005.84, -182178.42, -182183.00, -182161.88, -182113.52, -182264.33, 187500.00, 0.000, 0.000, 0.000, 15:43:56.687, 1578577436687
183, -186663.55, -186575.02, -186662.14, 187500.00, -187500.02, 187500.00, -187500.02, -187500.02, 0.000, 0.000, 0.000, 15:43:56.687, 1578577436687
184, -182026.05, -182016.06, -182188.69, -182193.31, -182172.14, -182123.81, -182274.64, 187500.00, 0.000, 0.000, 0.000, 15:43:56.687, 1578577436687
185, -186680.28, -186584.48, -186670.81, 187500.00, -187500.02, 187500.00, -187500.02, -187500.02, 0.000, 0.000, 0.000, 15:43:56.687, 1578577436687
186, -182040.05, -182030.19, -182202.72, -182207.39, -182186.16, -182137.77, -182288.69, 187500.00, 0.000, 0.000, 0.000, 15:43:56.687, 1578577436687
187, -186689.61, -186597.25, -186689.78, 187500.00, -187500.02, 187500.00, -187500.02, -187500.02, 0.000, 0.000, 0.000, 15:43:56.687, 1578577436687
188, -182049.52, -182039.70, -182212.28, -182216.89, -182195.64, -182147.33, -182298.25, 187500.00, -0.022, -0.026, 0.970, 15:43:56.687, 1578577436687
189, -186706.34, -186614.44, -186700.50, 187500.00, -187500.02, 187500.00, -187500.02, -187500.02, 0.000, 0.000, 0.000, 15:43:56.687, 1578577436687
190, -182059.64, -182049.81, -182222.36, -182227.06, -182205.73, -182157.48, -182308.36, 187500.00, 0.000, 0.000, 0.000, 15:43:56.687, 1578577436687
191, -186719.31, -186625.09, -186713.64, 187500.00, -187500.02, 187500.00, -187500.02, -187500.02, 0.000, 0.000, 0.000, 15:43:56.687, 1578577436687
192, -182069.45, -182059.67, -182232.20, -182236.84, -182215.50, -182167.22, -182318.05, 187500.00, 0.000, 0.000, 0.000, 15:43:56.687, 1578577436687
193, -186736.38, -186639.20, -186726.84, 187500.00, -187500.02, 187500.00, -187500.02, -187500.02, 0.000, 0.000, 0.000, 15:43:56.688, 1578577436688
194, -182080.34, -182070.58, -182243.16, -182247.77, -182226.45, -182178.11, -182328.92, 187500.00, 0.000, 0.000, 0.000, 15:43:56.688, 1578577436688
195, -186745.80, -186650.63, -186738.73, 187500.00, -187500.02, 187500.00, -187500.02, -187500.02, 0.000, 0.000, 0.000, 15:43:56.688, 1578577436688
196, -182091.81, -182081.86, -182254.53, -182259.06, -182237.70, -182189.44, -182340.25, 187500.00, 0.000, 0.000, 0.000, 15:43:56.688, 1578577436688
197, -186759.34, -186665.02, -186756.23, 187500.00, -187500.02, 187500.00, -187500.02, -187500.02, -0.024, -0.018, 0.972, 15:43:56.688, 1578577436688
198, -182103.44, -182093.58, -182266.17, -182270.72, -182249.33, -182201.11, -182351.89, 187500.00, 0.000, 0.000, 0.000, 15:43:56.688, 1578577436688
199, -186773.97, -186680.02, -186764.48, 187500.00, -187500.02, 187500.00, -187500.02, -187500.02, 0.000, 0.000, 0.000, 15:43:56.688, 1578577436688
200, -182112.94, -182103.17, -182275.75, -182280.34, -182258.91, -182210.75, -182361.38, 187500.00, 0.000, 0.000, 0.000, 15:43:56.688, 1578577436688
201, -186787.11, -186686.61, -186779.73, 187500.00, -187500.02, 187500.00, -187500.02, -187500.02, 0.000, 0.000, 0.000, 15:43:56.688, 1578577436688
202, -182123.80, -182114.03, -182286.56, -182291.25, -182269.73, -182221.56, -182372.17, 187500.00, 0.000, 0.000, 0.000, 15:43:56.688, 1578577436688
203, -186799.67, -186702.42, -186794.73, 187500.00, -187500.02, 187500.00, -187500.02, -187500.02, 0.000, 0.000, 0.000, 15:43:56.688, 1578577436688
204, -182134.14, -182124.33, -182296.91, -182301.53, -182280.03, -182231.95, -182382.61, 187500.00, 0.000, 0.000, 0.000, 15:43:56.688, 1578577436688
205, -186812.34, -186715.64, -186803.25, 187500.00, -187500.02, 187500.00, -187500.02, -187500.02, 0.000, 0.000, 0.000, 15:43:56.688, 1578577436688
206, -182144.61, -182134.86, -182307.44, -182312.05, -182290.55, -182242.39, -182393.06, 187500.00, 0.000, 0.000, 0.000, 15:43:56.688, 1578577436688
207, -186825.58, -186729.06, -186817.86, 187500.00, -187500.02, 187500.00, -187500.02, -187500.02, -0.022, -0.014, 0.970, 15:43:56.688, 1578577436688
208, -182156.31, -182146.53, -182319.13, -182323.67, -182302.20, -182254.02, -182404.73, 187500.00, 0.000, 0.000, 0.000, 15:43:56.689, 1578577436689
209, -186840.23, -186743.08, -186823.89, 187500.00, -187500.02, 187500.00, -187500.02, -187500.02, 0.000, 0.000, 0.000, 15:43:56.689, 1578577436689
210, -182166.69, -182156.73, -182329.36, -182333.95, -182312.42, -182264.28, -182415.00, 187500.00, 0.000, 0.000, 0.000, 15:43:57.159, 1578577437159
211, -186851.02, -186753.11, -186835.77, 187500.00, -187500.02, 187500.00, -187500.02, -187500.02, 0.000, 0.000, 0.000, 15:43:57.160, 1578577437160
212, -182177.00, -182167.05, -182339.69, -182344.25, -182322.80, -182274.69, -182425.36, 187500.00, 0.000, 0.000, 0.000, 15:43:57.160, 1578577437160
213, -186867.03, -186769.27, -186852.42, 187500.00, -187500.02, 187500.00, -187500.02, -187500.02, 0.000, 0.000, 0.000, 15:43:57.160, 1578577437160
214, -182189.00, -182179.16, -182351.69, -182356.33, -182334.86, -182286.69, -182437.39, 187500.00, 0.000, 0.000, 0.000, 15:43:57.160, 1578577437160
215, -186884.20, -186779.38, -186871.70, 187500.00, -187500.02, 187500.00, -187500.02, -187500.02, 0.000, 0.000, 0.000, 15:43:57.160, 1578577437160
216, -182198.97, -182189.11, -182361.70, -182366.36, -182344.77, -182296.66, -182447.34, 187500.00, 0.000, 0.000, 0.000, 15:43:57.160, 1578577437160
217, -186893.08, -186788.78, -186883.84, 187500.00, -187500.02, 187500.00, -187500.02, -187500.02, -0.016, -0.014, 0.972, 15:43:57.160, 1578577437160
218, -182209.45, -182199.59, -182372.22, -182376.75, -182355.11, -182307.08, -182457.75, 187500.00, 0.000, 0.000, 0.000, 15:43:57.160, 1578577437160
219, -186905.80, -186801.95, -186897.77, 187500.00, -187500.02, 187500.00, -187500.02, -187500.02, 0.000, 0.000, 0.000, 15:43:57.160, 1578577437160
220, -182220.53, -182210.70, -182383.25, -182387.92, -182366.31, -182318.20, -182468.89, 187500.00, 0.000, 0.000, 0.000, 15:43:57.160, 1578577437160
221, -186921.47, -186813.66, -186913.80, 187500.00, -187500.02, 187500.00, -187500.02, -187500.02, 0.000, 0.000, 0.000, 15:43:57.161, 1578577437161
222, -182234.75, -182224.92, -182397.63, -182402.09, -182380.61, -182332.34, -182483.06, 187500.00, 0.000, 0.000, 0.000, 15:43:57.161, 1578577437161
223, -186934.47, -186828.81, -186927.25, 187500.00, -187500.02, 187500.00, -187500.02, -187500.02, 0.000, 0.000, 0.000, 15:43:57.161, 1578577437161
224, -182241.48, -182231.63, -182404.20, -182408.84, -182387.28, -182339.13, -182489.81, 187500.00, 0.000, 0.000, 0.000, 15:43:57.161, 1578577437161
225, -186947.25, -186838.72, -186937.95, 187500.00, -187500.02, 187500.00, -187500.02, -187500.02, 0.000, 0.000, 0.000, 15:43:57.161, 1578577437161
226, -182252.19, -182242.22, -182414.75, -182419.44, -182397.92, -182349.81, -182500.33, 187500.00, 0.000, 0.000, 0.000, 15:43:57.161, 1578577437161
227, -186957.41, -186851.61, -186952.05, 187500.00, -187500.02, 187500.00, -187500.02, -187500.02, -0.018, -0.012, 0.976, 15:43:57.161, 1578577437161
228, -182263.30, -182253.39, -182426.02, -182430.64, -182409.08, -182360.88, -182511.48, 187500.00, 0.000, 0.000, 0.000, 15:43:57.161, 1578577437161
229, -186974.09, -186868.13, -186965.50, 187500.00, -187500.02, 187500.00, -187500.02, -187500.02, 0.000, 0.000, 0.000, 15:43:57.161, 1578577437161
230, -182275.72, -182265.81, -182438.44, -182443.06, -182421.45, -182373.28, -182523.89, 187500.00, 0.000, 0.000, 0.000, 15:43:57.161, 1578577437161
231, -186987.95, -186877.92, -186978.03, 187500.00, -187500.02, 187500.00, -187500.02, -187500.02, 0.000, 0.000, 0.000, 15:43:57.161, 1578577437161
232, -182286.36, -182276.45, -182449.14, -182453.84, -182432.08, -182383.97, -182534.53, 187500.00, 0.000, 0.000, 0.000, 15:43:57.161, 1578577437161
233, -187001.42, -186892.63, -186992.91, 187500.00, -187500.02, 187500.00, -187500.02, -187500.02, 0.000, 0.000, 0.000, 15:43:57.161, 1578577437161
234, -182298.59, -182288.69, -182461.38, -182465.91, -182444.28, -182396.17, -182546.67, 187500.00, 0.000, 0.000, 0.000, 15:43:57.161, 1578577437161
235, -187018.61, -186903.89, -187006.52, 187500.00, -187500.02, 187500.00, -187500.02, -187500.02, 0.000, 0.000, 0.000, 15:43:57.161, 1578577437161
236, -182309.45, -182299.44, -182472.11, -182476.81, -182455.09, -182406.98, -182557.47, 187500.00, -0.018, -0.012, 0.978, 15:43:57.161, 1578577437161
237, -187027.39, -186918.42, -187020.02, 187500.00, -187500.02, 187500.00, -187500.02, -187500.02, 0.000, 0.000, 0.000, 15:43:57.161, 1578577437161
238, -182318.41, -182308.56, -182481.11, -182485.80, -182464.06, -182416.02, -182566.56, 187500.00, 0.000, 0.000, 0.000, 15:43:57.161, 1578577437161
239, -187039.48, -186934.52, -187038.92, 187500.00, -187500.02, 187500.00, -187500.02, -187500.02, 0.000, 0.000, 0.000, 15:43:57.161, 1578577437161
240, -182327.91, -182317.97, -182490.61, -182495.33, -182473.47, -182425.39, -182575.97, 187500.00, 0.000, 0.000, 0.000, 15:43:57.161, 1578577437161
241, -187054.81, -186943.64, -187046.97, 187500.00, -187500.02, 187500.00, -187500.02, -187500.02, 0.000, 0.000, 0.000, 15:43:57.162, 1578577437162
242, -182339.59, -182329.67, -182502.30, -182507.02, -182485.20, -182437.17, -182587.66, 187500.00, 0.000, 0.000, 0.000, 15:43:57.162, 1578577437162
243, -187066.34, -186958.50, -187061.08, 187500.00, -187500.02, 187500.00, -187500.02, -187500.02, 0.000, 0.000, 0.000, 15:43:57.162, 1578577437162
244, -182350.08, -182340.20, -182512.88, -182517.48, -182495.81, -182447.61, -182598.08, 187500.00, 0.000, 0.000, 0.000, 15:43:57.162, 1578577437162
245, -187081.14, -186972.09, -187076.73, 187500.00, -187500.02, 187500.00, -187500.02, -187500.02, 0.000, 0.000, 0.000, 15:43:57.162, 1578577437162
246, -182360.67, -182350.73, -182523.33, -182528.05, -182506.33, -182458.13, -182608.69, 187500.00, -0.022, -0.018, 0.978, 15:43:57.162, 1578577437162
247, -187092.88, -186985.52, -187083.64, 187500.00, -187500.02, 187500.00, -187500.02, -187500.02, 0.000, 0.000, 0.000, 15:43:57.162, 1578577437162
248, -182371.92, -182361.97, -182534.69, -182539.27, -182517.50, -182469.48, -182619.88, 187500.00, 0.000, 0.000, 0.000, 15:43:57.162, 1578577437162
249, -187106.17, -186999.66, -187101.33, 187500.00, -187500.02, 187500.00, -187500.02, -187500.02, 0.000, 0.000, 0.000, 15:43:57.162, 1578577437162
250, -182384.84, -182374.92, -182547.63, -182552.28, -182530.31, -182482.31, -182632.75, 187500.00, 0.000, 0.000, 0.000, 15:43:57.162, 1578577437162
251, -187123.28, -187009.86, -187115.91, 187500.00, -187500.02, 187500.00, -187500.02, -187500.02, 0.000, 0.000, 0.000, 15:43:57.162, 1578577437162
252, -182396.23, -182386.41, -182559.00, -182563.81, -182541.89, -182493.84, -182644.25, 187500.00, 0.000, 0.000, 0.000, 15:43:57.162, 1578577437162
253, -187135.91, -187029.47, -187128.27, 187500.00, -187500.02, 187500.00, -187500.02, -187500.02, 0.000, 0.000, 0.000, 15:43:57.162, 1578577437162
254, -182404.95, -182395.08, -182567.72, -182572.48, -182550.56, -182502.45, -182652.80, 187500.00, 0.000, 0.000, 0.000, 15:43:57.162, 1578577437162
255, -187146.48, -187042.25, -187136.13, 187500.00, -187500.02, 187500.00, -187500.02, -187500.02, 0.000, 0.000, 0.000, 15:43:57.162, 1578577437162
0, -182413.61, -182403.73, -182576.39, -182581.06, -182559.23, -182511.16, -182661.52, 187500.00, -0.018, -0.020, 0.980, 15:43:57.162, 1578577437162
1, -187161.81, -187053.30, -187158.19, 187500.00, -187500.02, 187500.00, -187500.02, -187500.02, 0.000, 0.000, 0.000, 15:43:57.162, 1578577437162
2, -182426.48, -182416.67, -182589.20, -182593.92, -182571.97, -182523.91, -182674.31, 187500.00, 0.000, 0.000, 0.000, 15:43:57.162, 1578577437162
3, -187174.48, -187069.28, -187166.39, 187500.00, -187500.02, 187500.00, -187500.02, -187500.02, 0.000, 0.000, 0.000, 15:43:57.162, 1578577437162
4, -182438.52, -182428.61, -182601.20, -182605.78, -182583.92, -182535.94, -182686.28, 187500.00, 0.000, 0.000, 0.000, 15:43:57.162, 1578577437162
5, -187189.70, -187079.88, -187182.28, 187500.00, -187500.02, 187500.00, -187500.02, -187500.02, 0.000, 0.000, 0.000, 15:43:57.163, 1578577437163
6, -182449.03, -182439.30, -182611.80, -182616.39, -182594.56, -182546.53, -182696.92, 187500.00, 0.000, 0.000, 0.000, 15:43:57.163, 1578577437163
7, -187205.67, -187095.14, -187192.98, 187500.00, -187500.02, 187500.00, -187500.02, -187500.02, 0.000, 0.000, 0.000, 15:43:57.163, 1578577437163
8, -182458.41, -182448.52, -182621.14, -182625.75, -182603.84, -182555.81, -182706.27, 187500.00, 0.000, 0.000, 0.000, 15:43:57.163, 1578577437163
9, -187217.52, -187105.00, -187207.56, 187500.00, -187500.02, 187500.00, -187500.02, -187500.02, 0.000, 0.000, 0.000, 15:43:57.163, 1578577437163
10, -182469.20, -182459.25, -182631.83, -182636.48, -182614.59, -182566.50, -182716.92, 187500.00, -0.018, -0.020, 0.976, 15:43:57.163, 1578577437163
11, -187225.11, -187117.69, -187220.53, 187500.00, -187500.02, 187500.00, -187500.02, -187500.02, 0.000, 0.000, 0.000, 15:43:57.164, 1578577437164
12, -182477.78, -182467.83, -182640.48, -182645.08, -182623.11, -182575.08, -182725.50, 187500.00, 0.000, 0.000, 0.000, 15:43:57.164, 1578577437164
13, -187240.89, -187135.25, -187232.39, 187500.00, -187500.02, 187500.00, -187500.02, -187500.02, 0.000, 0.000, 0.000, 15:43:57.164, 1578577437164
14, -182490.09, -182480.19, -182652.80, -182657.42, -182635.52, -182587.45, -182737.86, 187500.00, 0.000, 0.000, 0.000, 15:43:57.164, 1578577437164
15, -187255.28, -187145.11, -187244.73, 187500.00, -187500.02, 187500.00, -187500.02, -187500.02, 0.000, 0.000, 0.000, 15:43:57.164, 1578577437164
16, -182499.81, -182489.92, -182662.56, -182667.14, -182645.16, -182597.23, -182747.52, 187500.00, 0.000, 0.000, 0.000, 15:43:57.166, 1578577437166
17, -187267.63, -187161.56, -187254.55, 187500.00, -187500.02, 187500.00, -187500.02, -187500.02, 0.000, 0.000, 0.000, 15:43:57.166, 1578577437166
18, -182511.55, -182501.61, -182674.28, -182678.81, -182656.81, -182608.98, -182759.17, 187500.00, 0.000, 0.000, 0.000, 15:43:57.166, 1578577437166
19, -187283.14, -187173.64, -187268.98, 187500.00, -187500.02, 187500.00, -187500.02, -187500.02, -0.014, -0.020, 0.972, 15:43:57.166, 1578577437166
20, -182522.58, -182512.66, -182685.36, -182689.92, -182667.97, -182619.98, -182770.25, 187500.00, 0.000, 0.000, 0.000, 15:43:57.166, 1578577437166
21, -187293.89, -187187.66, -187286.27, 187500.00, -187500.02, 187500.00, -187500.02, -187500.02, 0.000, 0.000, 0.000, 15:43:57.166, 1578577437166
22, -182533.44, -182523.56, -182696.17, -182700.81, -182678.80, -182630.89, -182781.03, 187500.00, 0.000, 0.000, 0.000, 15:43:57.166, 1578577437166
23, -187307.41, -187204.02, -187300.44, 187500.00, -187500.02, 187500.00, -187500.02, -187500.02, 0.000, 0.000, 0.000, 15:43:57.167, 1578577437167
24, -182544.02, -182534.05, -182706.70, -182711.31, -182689.31, -182641.44, -182791.58, 187500.00, 0.000, 0.000, 0.000, 15:43:57.167, 1578577437167
25, -187323.11, -187212.23, -187314.78, 187500.00, -187500.02, 187500.00, -187500.02, -187500.02, 0.000, 0.000, 0.000, 15:43:57.167, 1578577437167
26, -182555.67, -182545.78, -182718.47, -182723.05, -182701.05, -182653.11, -182803.31, 187500.00, 0.000, 0.000, 0.000, 15:43:57.167, 1578577437167
27, -187336.48, -187229.14, -187326.41, 187500.00, -187500.02, 187500.00, -187500.02, -187500.02, 0.000, 0.000, 0.000, 15:43:57.167, 1578577437167
28, -182564.80, -182554.80, -182727.45, -182732.13, -182710.08, -182662.14, -182812.30, 187500.00, 0.000, 0.000, 0.000, 15:43:57.169, 1578577437169
29, -187349.44, -187241.30, -187339.58, 187500.00, -187500.02, 187500.00, -187500.02, -187500.02, -0.018, -0.018, 0.974, 15:43:57.169, 1578577437169
30, -182575.13, -182565.17, -182737.80, -182742.47, -182720.34, -182672.39, -182822.63, 187500.00, 0.000, 0.000, 0.000, 15:43:57.169, 1578577437169
31, -187359.31, -187254.84, -187350.42, 187500.00, -187500.02, 187500.00, -187500.02, -187500.02, 0.000, 0.000, 0.000, 15:43:57.169, 1578577437169
32, -182584.91, -182574.98, -182747.61, -182752.27, -182730.22, -182682.13, -182832.33, 187500.00, 0.000, 0.000, 0.000, 15:43:57.169, 1578577437169
33, -187373.44, -187270.16, -187366.78, 187500.00, -187500.02, 187500.00, -187500.02, -187500.02, 0.000, 0.000, 0.000, 15:43:57.169, 1578577437169
34, -182595.70, -182585.73, -182758.34, -182763.06, -182741.00, -182692.95, -182843.05, 187500.00, 0.000, 0.000, 0.000, 15:43:57.170, 1578577437170
35, -187392.53, -187280.03, -187381.58, 187500.00, -187500.02, 187500.00, -187500.02, -187500.02, 0.000, 0.000, 0.000, 15:43:57.170, 1578577437170
36, -182608.00, -182597.94, -182770.66, -182775.19, -182753.20, -182705.13, -182855.22, 187500.00, 0.000, 0.000, 0.000, 15:43:57.170, 1578577437170
37, -187405.48, -187297.83, -187393.78, 187500.00, -187500.02, 187500.00, -187500.02, -187500.02, 0.000, 0.000, 0.000, 15:43:57.170, 1578577437170
38, -182619.27, -182609.36, -182781.92, -182786.59, -182764.58, -182716.45, -182866.48, 187500.00, 0.000, 0.000, 0.000, 15:43:57.170, 1578577437170
39, -187414.16, -187310.42, -187411.56, 187500.00, -187500.02, 187500.00, -187500.02, -187500.02, -0.022, -0.018, 0.976, 15:43:57.170, 1578577437170
