%OpenBCI Raw EEG Data
%Number of channels = 8
%Sample Rate = 250.0 Hz
%First Column = SampleIndex
%Last Column = Timestamp 
%Other Columns = EEG data in microvolts followed by Accel Data (in G) interleaved with Aux Data
0, -48064.92, -55886.69, -86171.38, -85774.99, -60346.98, -54748.47, -86417.43, 89106.10, -0.006, -0.008, 0.486, 15:44:51.371, 1578577491371
1, -184732.89, -167779.52, -184721.72, 187500.00, -187500.02, 187500.00, -187500.02, -187500.02, 0.000, 0.000, 0.000, 15:44:51.856, 1578577491856
2, -96344.13, -111979.09, -172341.22, -171718.23, -120928.99, -109670.46, -172763.64, 178305.69, 0.000, 0.000, 0.000, 15:44:51.856, 1578577491856
3, -184741.77, -168196.38, -184732.00, 187500.00, -187500.02, 187500.00, -187500.02, -187500.02, 0.000, 0.000, 0.000, 15:44:51.856, 1578577491856
4, -96618.52, -112237.38, -172329.38, -172279.70, -121228.57, -109884.68, -172722.34, 178454.06, 0.000, 0.000, 0.000, 15:44:51.856, 1578577491856
5, -184751.48, -168617.59, -184739.17, 187500.00, -187500.02, 187500.00, -187500.02, -187500.02, 0.000, 0.000, 0.000, 15:44:51.856, 1578577491856
6, -96917.97, -112521.59, -172316.72, -172887.98, -121554.41, -110122.88, -172795.39, 178573.94, -0.014, -0.016, 0.726, 15:44:51.856, 1578577491856
7, -184762.98, -169029.30, -184751.75, 187500.00, -187500.02, 187500.00, -187500.02, -187500.02, 0.000, 0.000, 0.000, 15:44:51.856, 1578577491856
8, -97244.81, -112838.40, -172313.06, -172833.92, -121909.78, -110388.96, -172699.56, 178657.64, 0.000, 0.000, 0.000, 15:44:51.856, 1578577491856
9, -184771.98, -169445.17, -184759.67, 187500.00, -187500.02, 187500.00, -187500.02, -187500.02, 0.000, 0.000, 0.000, 15:44:51.856, 1578577491856
10, -97551.99, -113134.47, -172307.05, -172739.84, -122245.04, -110637.02, -172750.34, 178769.17, 0.000, 0.000, 0.000, 15:44:51.856, 1578577491856
11, -184782.64, -169857.69, -184774.58, 187500.00, -187500.02, 187500.00, -187500.02, -187500.02, 0.000, 0.000, 0.000, 15:44:51.856, 1578577491856
12, -97878.77, -113445.11, -172300.58, -172660.77, -122598.09, -110903.72, -172753.77, 178855.97, 0.000, 0.000, 0.000, 15:44:51.857, 1578577491857
13, -184795.55, -170272.23, -184786.30, 187500.00, -187500.02, 187500.00, -187500.02, -187500.02, 0.000, 0.000, 0.000, 15:44:51.857, 1578577491857
14, -98204.80, -113755.42, -172299.73, -172578.22, -122950.98, -111169.64, -172664.73, 178945.28, 0.000, 0.000, 0.000, 15:44:51.857, 1578577491857
15, -184806.61, -170691.06, -184797.75, 187500.00, -187500.02, 187500.00, -187500.02, -187500.02, 0.000, 0.000, 0.000, 15:44:51.857, 1578577491857
16, -98512.09, -114054.60, -172292.45, -172484.42, -123289.13, -111420.13, -172782.73, 179057.36, -0.018, -0.016, 0.850, 15:44:51.857, 1578577491857
17, -184815.92, -171104.14, -184805.31, 187500.00, -187500.02, 187500.00, -187500.02, -187500.02, 0.000, 0.000, 0.000, 15:44:51.857, 1578577491857
18, -98838.29, -114369.40, -172289.31, -172407.11, -123646.11, -111687.77, -172726.50, 179141.30, 0.000, 0.000, 0.000, 15:44:51.857, 1578577491857
19, -184824.63, -171523.25, -184815.69, 187500.00, -187500.02, 187500.00, -187500.02, -187500.02, 0.000, 0.000, 0.000, 15:44:51.857, 1578577491857
20, -99160.59, -114678.13, -172284.17, -172324.23, -123997.52, -111949.60, -172651.94, 179235.14, 0.000, 0.000, 0.000, 15:44:51.857, 1578577491857
21, -184839.80, -171941.33, -184831.63, 187500.00, -187500.02, 187500.00, -187500.02, -187500.02, 0.000, 0.000, 0.000, 15:44:51.857, 1578577491857
22, -99474.80, -114983.13, -172279.38, -172235.98, -124339.73, -112205.98, -172770.47, 179340.80, 0.000, 0.000, 0.000, 15:44:51.857, 1578577491857
23, -184847.98, -172357.56, -184840.36, 187500.00, -187500.02, 187500.00, -187500.02, -187500.02, 0.000, 0.000, 0.000, 15:44:51.857, 1578577491857
24, -99797.77, -115295.05, -172274.30, -172155.31, -124690.50, -112470.87, -172690.89, 179427.02, 0.000, 0.000, 0.000, 15:44:51.857, 1578577491857
25, -184858.11, -172779.17, -184849.13, 187500.00, -187500.02, 187500.00, -187500.02, -187500.02, 0.000, 0.000, 0.000, 15:44:51.857, 1578577491857
26, -100116.16, -115597.90, -172269.45, -172067.56, -125032.59, -112725.95, -172669.81, 179526.95, -0.016, -0.016, 0.912, 15:44:51.857, 1578577491857
27, -184870.28, -173193.53, -184863.19, 187500.00, -187500.02, 187500.00, -187500.02, -187500.02, 0.000, 0.000, 0.000, 15:44:51.857, 1578577491857
28, -100435.05, -115906.17, -172262.36, -171982.56, -125378.58, -112983.37, -172755.53, 179624.06, 0.000, 0.000, 0.000, 15:44:51.857, 1578577491857
29, -184878.88, -173617.06, -184871.63, 187500.00, -187500.02, 187500.00, -187500.02, -187500.02, 0.000, 0.000, 0.000, 15:44:51.857, 1578577491857
30, -100760.74, -116219.01, -172256.55, -171902.34, -125732.52, -113248.91, -172660.94, 179707.59, 0.000, 0.000, 0.000, 15:44:51.857, 1578577491857
31, -184889.88, -174035.11, -184884.48, 187500.00, -187500.02, 187500.00, -187500.02, -187500.02, 0.000, 0.000, 0.000, 15:44:51.858, 1578577491858
32, -101078.52, -116525.79, -172246.03, -171801.72, -126075.46, -113507.98, -172651.02, 179807.75, 0.000, 0.000, 0.000, 15:44:51.858, 1578577491858
33, -184902.92, -174450.95, -184895.86, 187500.00, -187500.02, 187500.00, -187500.02, -187500.02, 0.000, 0.000, 0.000, 15:44:51.858, 1578577491858
34, -101376.69, -116809.59, -172249.69, -171486.69, -126399.96, -113744.67, -172710.02, 179927.41, 0.000, 0.000, 0.000, 15:44:51.858, 1578577491858
35, -184912.67, -174874.36, -184905.38, 187500.00, -187500.02, 187500.00, -187500.02, -187500.02, 0.000, 0.000, 0.000, 15:44:51.858, 1578577491858
36, -101651.84, -117072.84, -172247.20, -171872.39, -126706.38, -113965.57, -172614.31, 180063.30, -0.016, -0.020, 0.946, 15:44:51.858, 1578577491858
37, -184923.67, -175295.56, -184916.88, 187500.00, -187500.02, 187500.00, -187500.02, -187500.02, 0.000, 0.000, 0.000, 15:44:51.858, 1578577491858
38, -101929.07, -117339.44, -172234.47, -172590.16, -127017.56, -114186.81, -172703.86, 180202.97, 0.000, 0.000, 0.000, 15:44:51.858, 1578577491858
39, -184931.11, -175721.23, -184925.31, 187500.00, -187500.02, 187500.00, -187500.02, -187500.02, 0.000, 0.000, 0.000, 15:44:51.858, 1578577491858
40, -102248.16, -117643.98, -172225.64, -172773.25, -127364.39, -114445.13, -172608.23, 180294.47, 0.000, 0.000, 0.000, 15:44:51.858, 1578577491858
41, -184945.19, -176137.91, -184937.72, 187500.00, -187500.02, 187500.00, -187500.02, -187500.02, 0.000, 0.000, 0.000, 15:44:51.858, 1578577491858
42, -102558.43, -117942.73, -172221.17, -172678.16, -127703.94, -114694.51, -172671.53, 180404.00, 0.000, 0.000, 0.000, 15:44:51.858, 1578577491858
43, -184953.61, -176556.95, -184943.64, 187500.00, -187500.02, 187500.00, -187500.02, -187500.02, 0.000, 0.000, 0.000, 15:44:51.858, 1578577491858
44, -102879.89, -118251.32, -172216.16, -172591.48, -128053.01, -114954.41, -172664.36, 180493.59, 0.000, 0.000, 0.000, 15:44:51.858, 1578577491858
45, -184968.34, -176983.52, -184959.31, 187500.00, -187500.02, 187500.00, -187500.02, -187500.02, 0.000, 0.000, 0.000, 15:44:51.858, 1578577491858
46, -103203.27, -118564.78, -172210.23, -172507.50, -128404.42, -115217.45, -172577.39, 180578.27, -0.018, -0.014, 0.964, 15:44:51.858, 1578577491858
47, -184978.05, -177402.84, -184969.38, 187500.00, -187500.02, 187500.00, -187500.02, -187500.02, 0.000, 0.000, 0.000, 15:44:51.858, 1578577491858
48, -103511.35, -118863.55, -172204.56, -172413.34, -128742.63, -115470.36, -172689.92, 180688.72, 0.000, 0.000, 0.000, 15:44:51.858, 1578577491858
49, -184987.20, -177824.48, -184978.58, 187500.00, -187500.02, 187500.00, -187500.02, -187500.02, 0.000, 0.000, 0.000, 15:44:51.858, 1578577491858
50, -103830.04, -119174.60, -172200.25, -172327.30, -129090.95, -115731.65, -172618.84, 180774.98, 0.000, 0.000, 0.000, 15:44:51.858, 1578577491858
51, -184996.73, -178248.14, -184989.78, 187500.00, -187500.02, 187500.00, -187500.02, -187500.02, 0.000, 0.000, 0.000, 15:44:51.859, 1578577491859
52, -104147.10, -119479.93, -172196.77, -172240.22, -129438.12, -115991.91, -172577.33, 180868.20, 0.000, 0.000, 0.000, 15:44:51.859, 1578577491859
53, -185006.30, -178673.47, -185004.28, 187500.00, -187500.02, 187500.00, -187500.02, -187500.02, 0.000, 0.000, 0.000, 15:44:51.859, 1578577491859
54, -104456.23, -119778.77, -172187.59, -172146.61, -129778.52, -116243.88, -172676.11, 180970.16, 0.000, 0.000, 0.000, 15:44:51.859, 1578577491859
55, -185019.17, -179099.72, -185014.69, 187500.00, -187500.02, 187500.00, -187500.02, -187500.02, -0.024, -0.014, 0.966, 15:44:51.859, 1578577491859
56, -104780.15, -120090.22, -172184.06, -172062.41, -130131.63, -116508.45, -172580.23, 181051.36, 0.000, 0.000, 0.000, 15:44:51.859, 1578577491859
57, -185029.20, -179519.13, -185023.08, 187500.00, -187500.02, 187500.00, -187500.02, -187500.02, 0.000, 0.000, 0.000, 15:44:51.859, 1578577491859
58, -105090.39, -120390.80, -172180.38, -171970.69, -130472.25, -116760.48, -172598.83, 181154.89, 0.000, 0.000, 0.000, 15:44:51.859, 1578577491859
59, -185038.48, -179948.33, -185032.86, 187500.00, -187500.02, 187500.00, -187500.02, -187500.02, 0.000, 0.000, 0.000, 15:44:51.859, 1578577491859
60, -105406.94, -120694.90, -172171.41, -171881.94, -130816.95, -117015.85, -172641.52, 181252.45, 0.000, 0.000, 0.000, 15:44:51.859, 1578577491859
61, -185047.92, -180376.98, -185042.17, 187500.00, -187500.02, 187500.00, -187500.02, -187500.02, 0.000, 0.000, 0.000, 15:44:51.859, 1578577491859
62, -105734.12, -121011.36, -172166.47, -171803.95, -131173.05, -117283.98, -172546.14, 181329.50, 0.000, 0.000, 0.000, 15:44:51.859, 1578577491859
63, -185060.66, -180805.98, -185056.19, 187500.00, -187500.02, 187500.00, -187500.02, -187500.02, 0.000, 0.000, 0.000, 15:44:51.859, 1578577491859
64, -106042.59, -121305.93, -172158.03, -171667.34, -131506.91, -117529.34, -172622.84, 181437.89, 0.000, 0.000, 0.000, 15:44:51.859, 1578577491859
65, -185069.63, -181236.52, -185063.50, 187500.00, -187500.02, 187500.00, -187500.02, -187500.02, -0.026, -0.014, 0.972, 15:44:51.859, 1578577491859
66, -106342.22, -121591.30, -172159.55, -171402.33, -131834.50, -117770.02, -172580.55, 181548.78, 0.000, 0.000, 0.000, 15:44:51.859, 1578577491859
67, -185081.83, -181662.67, -185075.56, 187500.00, -187500.02, 187500.00, -187500.02, -187500.02, 0.000, 0.000, 0.000, 15:44:51.859, 1578577491859
68, -106613.17, -121852.32, -172155.25, -171851.38, -132135.39, -117985.20, -172540.95, 181689.95, 0.000, 0.000, 0.000, 15:44:51.859, 1578577491859
69, -185089.81, -182097.59, -185083.66, 187500.00, -187500.02, 187500.00, -187500.02, -187500.02, 0.000, 0.000, 0.000, 15:44:51.859, 1578577491859
70, -106895.11, -122123.89, -172141.84, -172579.20, -132447.63, -118210.48, -172594.38, 181819.67, 0.000, 0.000, 0.000, 15:44:51.859, 1578577491859
71, -185103.58, -182530.17, -185096.47, 187500.00, -187500.02, 187500.00, -187500.02, -187500.02, 0.000, 0.000, 0.000, 15:44:51.859, 1578577491859
72, -107216.87, -122435.27, -172134.28, -172675.09, -132797.72, -118473.49, -172503.38, 181903.52, 0.000, 0.000, 0.000, 15:44:51.859, 1578577491859
73, -185112.81, -182961.45, -185111.08, 187500.00, -187500.02, 187500.00, -187500.02, -187500.02, 0.000, 0.000, 0.000, 15:44:51.859, 1578577491859
74, -107522.57, -122731.50, -172131.73, -172576.20, -133134.34, -118719.74, -172605.53, 182008.94, 0.000, 0.000, 0.000, 15:44:51.859, 1578577491859
75, -185123.58, -183397.83, -185120.77, 187500.00, -187500.02, 187500.00, -187500.02, -187500.02, -0.020, -0.016, 0.976, 15:44:51.859, 1578577491859
76, -107847.25, -123045.70, -172123.52, -172492.31, -133489.19, -118985.66, -172541.98, 182085.91, 0.000, 0.000, 0.000, 15:44:51.859, 1578577491859
77, -185135.97, -183831.52, -185131.83, 187500.00, -187500.02, 187500.00, -187500.02, -187500.02, 0.000, 0.000, 0.000, 15:44:51.859, 1578577491859
78, -108167.35, -123353.28, -172123.45, -172404.23, -133836.36, -119243.38, -172504.67, 182177.95, 0.000, 0.000, 0.000, 15:44:51.859, 1578577491859
79, -185144.70, -184271.39, -185138.28, 187500.00, -187500.02, 187500.00, -187500.02, -187500.02, 0.000, 0.000, 0.000, 15:44:51.859, 1578577491859
80, -108479.96, -123652.62, -172114.33, -172308.20, -134173.84, -119492.58, -172598.63, 182280.06, 0.000, 0.000, 0.000, 15:44:51.859, 1578577491859
81, -185153.63, -184707.80, -185151.03, 187500.00, -187500.02, 187500.00, -187500.02, -187500.02, 0.000, 0.000, 0.000, 15:44:51.859, 1578577491859
82, -108807.55, -123967.73, -172105.75, -172226.42, -134531.08, -119761.52, -172504.45, 182356.83, 0.000, 0.000, 0.000, 15:44:51.859, 1578577491859
83, -185166.38, -185249.11, -185163.81, 187500.00, -187500.02, 187500.00, -187500.02, -187500.02, 0.000, 0.000, 0.000, 15:44:51.859, 1578577491859
84, -109120.68, -124270.60, -172102.13, -172133.59, -134873.42, -120014.20, -172524.77, 182457.80, 0.000, 0.000, 0.000, 15:44:51.859, 1578577491859
85, -185196.20, -185426.73, -185196.22, 187500.00, -187500.02, 187500.00, -187500.02, -187500.02, -0.022, -0.022, 0.970, 15:44:51.859, 1578577491859
86, -109439.37, -124581.06, -172096.02, -172045.84, -135221.34, -120273.95, -172552.00, 182545.81, 0.000, 0.000, 0.000, 15:44:51.859, 1578577491859
87, -185215.31, -185455.66, -185225.77, 187500.00, -187500.02, 187500.00, -187500.02, -187500.02, 0.000, 0.000, 0.000, 15:44:51.859, 1578577491859
88, -109762.02, -124894.03, -172093.25, -171962.22, -135573.61, -120535.84, -172460.63, 182627.61, 0.000, 0.000, 0.000, 15:44:51.859, 1578577491859
89, -185239.97, -185489.83, -185258.78, 187500.00, -187500.02, 187500.00, -187500.02, -187500.02, 0.000, 0.000, 0.000, 15:44:51.861, 1578577491861
90, -110068.52, -125190.66, -172086.05, -171862.06, -135908.86, -120782.56, -172559.50, 182736.20, 0.000, 0.000, 0.000, 15:44:51.861, 1578577491861
91, -185262.42, -185523.83, -185290.25, 187500.00, -187500.02, 187500.00, -187500.02, -187500.02, 0.000, 0.000, 0.000, 15:44:51.861, 1578577491861
92, -110396.40, -125508.75, -172079.06, -171781.80, -136265.80, -121051.39, -172498.52, 182812.83, 0.000, 0.000, 0.000, 15:44:51.861, 1578577491861
93, -185286.86, -185558.00, -185322.63, 187500.00, -187500.02, 187500.00, -187500.02, -187500.02, 0.000, 0.000, 0.000, 15:44:51.861, 1578577491861
94, -110710.53, -125813.20, -172074.09, -171690.11, -136610.06, -121306.02, -172465.41, 182906.86, -0.022, -0.018, 0.976, 15:44:51.861, 1578577491861
95, -185313.75, -185595.61, -185358.14, 187500.00, -187500.02, 187500.00, -187500.02, -187500.02, 0.000, 0.000, 0.000, 15:44:51.861, 1578577491861
96, -111020.46, -126113.63, -172059.00, -171536.22, -136947.66, -121555.87, -172539.77, 183004.66, 0.000, 0.000, 0.000, 15:44:51.861, 1578577491861
97, -185334.28, -185628.39, -185387.23, 187500.00, -187500.02, 187500.00, -187500.02, -187500.02, 0.000, 0.000, 0.000, 15:44:51.861, 1578577491861
98, -111313.49, -126398.09, -172070.63, -171315.77, -137272.81, -121791.50, -172426.22, 183114.56, 0.000, 0.000, 0.000, 15:44:51.861, 1578577491861
99, -185360.91, -185666.56, -185421.66, 187500.00, -187500.02, 187500.00, -187500.02, -187500.02, 0.000, 0.000, 0.000, 15:44:51.861, 1578577491861
100, -111569.58, -126643.59, -172060.06, -171774.05, -137561.39, -121990.61, -172524.19, 183271.72, 0.000, 0.000, 0.000, 15:44:51.861, 1578577491861
101, -185385.86, -185702.33, -185454.14, 187500.00, -187500.02, 187500.00, -187500.02, -187500.02, 0.000, 0.000, 0.000, 15:44:51.861, 1578577491861
102, -111859.86, -126924.78, -172046.33, -172512.91, -137883.59, -122228.19, -172447.95, 183381.02, 0.000, 0.000, 0.000, 15:44:51.861, 1578577491861
103, -185405.91, -185735.70, -185483.58, 187500.00, -187500.02, 187500.00, -187500.02, -187500.02, 0.000, 0.000, 0.000, 15:44:51.861, 1578577491861
104, -112163.73, -127219.48, -172038.17, -172562.44, -138217.64, -122474.16, -172450.23, 183486.20, -0.022, -0.020, 0.976, 15:44:51.861, 1578577491861
105, -185429.13, -185771.75, -185514.44, 187500.00, -187500.02, 187500.00, -187500.02, -187500.02, 0.000, 0.000, 0.000, 15:44:51.861, 1578577491861
106, -112472.32, -127518.84, -172029.97, -172465.03, -138557.56, -122723.52, -172488.92, 183582.84, 0.000, 0.000, 0.000, 15:44:51.861, 1578577491861
107, -185447.34, -185804.03, -185542.55, 187500.00, -187500.02, 187500.00, -187500.02, -187500.02, 0.000, 0.000, 0.000, 15:44:51.861, 1578577491861
108, -112791.99, -127828.15, -172024.41, -172377.78, -138908.22, -122984.68, -172390.81, 183661.50, 0.000, 0.000, 0.000, 15:44:51.861, 1578577491861
109, -185472.52, -185841.00, -185574.61, 187500.00, -187500.02, 187500.00, -187500.02, -187500.02, 0.000, 0.000, 0.000, 15:44:51.861, 1578577491861
110, -113090.95, -128116.28, -172021.64, -172272.42, -139235.58, -123223.84, -172495.58, 183770.16, 0.000, 0.000, 0.000, 15:44:51.861, 1578577491861
111, -185490.61, -185873.17, -185601.80, 187500.00, -187500.02, 187500.00, -187500.02, -187500.02, 0.000, 0.000, 0.000, 15:44:51.861, 1578577491861
112, -113412.52, -128426.01, -172011.59, -172186.39, -139585.50, -123481.94, -172465.16, 183853.06, 0.000, 0.000, 0.000, 15:44:51.861, 1578577491861
113, -185508.31, -185903.91, -185627.77, 187500.00, -187500.02, 187500.00, -187500.02, -187500.02, 0.000, 0.000, 0.000, 15:44:51.861, 1578577491861
114, -113726.70, -128730.09, -172008.88, -172096.25, -139932.42, -123737.94, -172368.64, 183935.83, -0.024, -0.018, 0.976, 15:44:51.861, 1578577491861
115, -185531.14, -185940.98, -185659.33, 187500.00, -187500.02, 187500.00, -187500.02, -187500.02, 0.000, 0.000, 0.000, 15:44:51.861, 1578577491861
116, -114029.27, -129021.51, -172004.45, -171995.28, -140263.27, -123980.98, -172479.39, 184040.64, 0.000, 0.000, 0.000, 15:44:51.861, 1578577491861
117, -185551.70, -185973.66, -185688.11, 187500.00, -187500.02, 187500.00, -187500.02, -187500.02, 0.000, 0.000, 0.000, 15:44:51.861, 1578577491861
118, -114351.16, -129334.30, -171996.80, -171909.34, -140612.83, -124242.15, -172416.36, 184116.52, 0.000, 0.000, 0.000, 15:44:51.861, 1578577491861
119, -185574.09, -186010.05, -185718.88, 187500.00, -187500.02, 187500.00, -187500.02, -187500.02, 0.000, 0.000, 0.000, 15:44:51.861, 1578577491861
120, -114656.11, -129630.44, -171993.78, -171809.38, -140947.66, -124487.34, -172386.64, 184215.53, 0.000, 0.000, 0.000, 15:44:51.861, 1578577491861
121, -185593.70, -186042.81, -185745.20, 187500.00, -187500.02, 187500.00, -187500.02, -187500.02, 0.000, 0.000, 0.000, 15:44:52.335, 1578577492335
122, -114962.75, -129928.59, -171984.16, -171713.92, -141286.42, -124738.15, -172456.94, 184314.42, 0.000, 0.000, 0.000, 15:44:52.336, 1578577492336
123, -185613.17, -186076.39, -185774.33, 187500.00, -187500.02, 187500.00, -187500.02, -187500.02, 0.000, 0.000, 0.000, 15:44:52.336, 1578577492336
124, -115279.66, -130235.16, -171979.92, -171622.45, -141633.95, -124995.04, -172352.03, 184395.83, -0.030, -0.018, 0.972, 15:44:52.336, 1578577492336
125, -185638.30, -186114.77, -185807.34, 187500.00, -187500.02, 187500.00, -187500.02, -187500.02, 0.000, 0.000, 0.000, 15:44:52.336, 1578577492336
126, -115579.68, -130525.73, -171967.00, -171476.08, -141962.39, -125234.85, -172430.53, 184503.00, 0.000, 0.000, 0.000, 15:44:52.336, 1578577492336
127, -185657.27, -186146.75, -185833.36, 187500.00, -187500.02, 187500.00, -187500.02, -187500.02, 0.000, 0.000, 0.000, 15:44:52.336, 1578577492336
128, -115870.86, -130806.31, -171973.69, -171214.09, -142281.41, -125467.53, -172364.67, 184609.52, 0.000, 0.000, 0.000, 15:44:52.337, 1578577492337
129, -185678.53, -186181.44, -185861.25, 187500.00, -187500.02, 187500.00, -187500.02, -187500.02, 0.000, 0.000, 0.000, 15:44:52.337, 1578577492337
130, -116119.84, -131045.44, -171963.83, -171643.59, -142560.67, -125663.18, -172389.28, 184766.16, 0.000, 0.000, 0.000, 15:44:52.337, 1578577492337
131, -185698.48, -186216.38, -185889.19, 187500.00, -187500.02, 187500.00, -187500.02, -187500.02, 0.000, 0.000, 0.000, 15:44:52.337, 1578577492337
132, -116397.04, -131314.45, -171947.73, -172371.03, -142870.61, -125886.67, -172375.13, 184886.06, 0.000, 0.000, 0.000, 15:44:52.337, 1578577492337
133, -185718.30, -186250.86, -185917.64, 187500.00, -187500.02, 187500.00, -187500.02, -187500.02, -0.030, -0.014, 0.972, 15:44:52.337, 1578577492337
134, -116701.65, -131609.59, -171942.02, -172471.39, -143202.44, -126133.39, -172326.98, 184985.83, 0.000, 0.000, 0.000, 15:44:52.337, 1578577492337
135, -185739.25, -186286.61, -185945.52, 187500.00, -187500.02, 187500.00, -187500.02, -187500.02, 0.000, 0.000, 0.000, 15:44:52.337, 1578577492337
136, -117000.34, -131901.03, -171935.69, -172365.58, -143531.61, -126374.44, -172394.11, 185091.06, 0.000, 0.000, 0.000, 15:44:52.337, 1578577492337
137, -185753.36, -186314.64, -185967.17, 187500.00, -187500.02, 187500.00, -187500.02, -187500.02, 0.000, 0.000, 0.000, 15:44:52.337, 1578577492337
138, -117309.62, -132201.80, -171929.88, -172269.78, -143869.25, -126624.48, -172297.64, 185176.23, 0.000, 0.000, 0.000, 15:44:52.337, 1578577492337
139, -185774.28, -186349.75, -185994.88, 187500.00, -187500.02, 187500.00, -187500.02, -187500.02, 0.000, 0.000, 0.000, 15:44:52.337, 1578577492337
140, -117602.76, -132486.72, -171922.50, -172157.73, -144191.20, -126859.51, -172395.53, 185287.97, 0.000, 0.000, 0.000, 15:44:52.338, 1578577492338
141, -185792.81, -186382.61, -186020.33, 187500.00, -187500.02, 187500.00, -187500.02, -187500.02, 0.000, 0.000, 0.000, 15:44:52.338, 1578577492338
142, -117918.91, -132793.05, -171914.09, -172065.47, -144532.31, -127114.70, -172321.53, 185368.91, 0.000, 0.000, 0.000, 15:44:52.338, 1578577492338
143, -185805.84, -186410.77, -186040.94, 187500.00, -187500.02, 187500.00, -187500.02, -187500.02, -0.024, -0.014, 0.976, 15:44:52.338, 1578577492338
144, -118218.88, -133083.52, -171913.31, -171959.20, -144856.06, -127351.27, -172330.17, 185476.67, 0.000, 0.000, 0.000, 15:44:52.338, 1578577492338
145, -185815.72, -186436.72, -186058.17, 187500.00, -187500.02, 187500.00, -187500.02, -187500.02, 0.000, 0.000, 0.000, 15:44:52.338, 1578577492338
146, -118525.51, -133379.94, -171901.56, -171860.13, -145190.88, -127597.97, -172372.17, 185568.69, 0.000, 0.000, 0.000, 15:44:52.338, 1578577492338
147, -185819.41, -186455.67, -186068.77, 187500.00, -187500.02, 187500.00, -187500.02, -187500.02, 0.000, 0.000, 0.000, 15:44:52.338, 1578577492338
148, -118848.05, -133691.48, -171896.31, -171776.59, -145542.50, -127861.67, -172271.95, 185640.08, 0.000, 0.000, 0.000, 15:44:52.338, 1578577492338
149, -185832.23, -186481.47, -186090.38, 187500.00, -187500.02, 187500.00, -187500.02, -187500.02, 0.000, 0.000, 0.000, 15:44:52.338, 1578577492338
150, -119157.34, -133989.56, -171895.22, -171680.17, -145879.69, -128109.45, -172346.50, 185740.53, 0.000, 0.000, 0.000, 15:44:52.338, 1578577492338
151, -185841.56, -186505.50, -186109.77, 187500.00, -187500.02, 187500.00, -187500.02, -187500.02, 0.000, 0.000, 0.000, 15:44:52.338, 1578577492338
152, -119485.27, -134307.00, -171886.78, -171599.70, -146235.23, -128375.32, -172333.39, 185811.50, 0.000, 0.000, 0.000, 15:44:52.339, 1578577492339
153, -185852.02, -186531.84, -186130.86, 187500.00, -187500.02, 187500.00, -187500.02, -187500.02, -0.026, -0.018, 0.974, 15:44:52.339, 1578577492339
154, -119810.40, -134621.72, -171880.42, -171516.66, -146586.13, -128637.57, -172246.45, 185885.70, 0.000, 0.000, 0.000, 15:44:52.339, 1578577492339
155, -185875.11, -186568.94, -186162.67, 187500.00, -187500.02, 187500.00, -187500.02, -187500.02, 0.000, 0.000, 0.000, 15:44:52.341, 1578577492341
156, -120122.88, -134923.44, -171867.41, -171394.44, -146926.39, -128887.42, -172368.73, 185979.88, 0.000, 0.000, 0.000, 15:44:52.341, 1578577492341
157, -185895.27, -186602.34, -186192.02, 187500.00, -187500.02, 187500.00, -187500.02, -187500.02, 0.000, 0.000, 0.000, 15:44:52.341, 1578577492341
158, -120428.24, -135220.88, -171876.38, -171117.95, -147264.94, -129134.34, -172291.27, 186066.84, 0.000, 0.000, 0.000, 15:44:52.341, 1578577492341
159, -185919.44, -186640.72, -186224.25, 187500.00, -187500.02, 187500.00, -187500.02, -187500.02, 0.000, 0.000, 0.000, 15:44:52.341, 1578577492341
160, -120688.55, -135474.97, -171870.88, -171541.19, -147560.41, -129340.89, -172260.08, 186204.22, 0.000, 0.000, 0.000, 15:44:52.341, 1578577492341
161, -185939.22, -186674.83, -186253.42, 187500.00, -187500.02, 187500.00, -187500.02, -187500.02, 0.000, 0.000, 0.000, 15:44:52.341, 1578577492341
162, -120970.43, -135750.16, -171855.94, -172274.61, -147874.06, -129566.95, -172311.47, 186320.80, 0.000, 0.000, 0.000, 15:44:52.341, 1578577492341
163, -185959.58, -186709.91, -186283.03, 187500.00, -187500.02, 187500.00, -187500.02, -187500.02, -0.022, -0.014, 0.982, 15:44:52.341, 1578577492341
164, -121288.41, -136059.11, -171850.69, -172390.08, -148224.73, -129825.41, -172215.33, 186396.42, 0.000, 0.000, 0.000, 15:44:52.341, 1578577492341
165, -185985.75, -186749.44, -186317.05, 187500.00, -187500.02, 187500.00, -187500.02, -187500.02, 0.000, 0.000, 0.000, 15:44:52.341, 1578577492341
166, -121594.55, -136356.08, -171845.55, -172291.17, -148559.55, -130072.06, -172317.97, 186494.41, 0.000, 0.000, 0.000, 15:44:52.342, 1578577492342
167, -186005.83, -186783.38, -186344.78, 187500.00, -187500.02, 187500.00, -187500.02, -187500.02, 0.000, 0.000, 0.000, 15:44:52.342, 1578577492342
168, -121918.91, -136669.30, -171835.48, -172206.27, -148910.11, -130334.96, -172270.28, 186568.70, 0.000, 0.000, 0.000, 15:44:52.342, 1578577492342
169, -186026.64, -186820.09, -186373.75, 187500.00, -187500.02, 187500.00, -187500.02, -187500.02, 0.000, 0.000, 0.000, 15:44:52.342, 1578577492342
170, -122231.52, -136970.91, -171833.80, -172112.70, -149250.27, -130585.88, -172208.78, 186656.73, 0.000, 0.000, 0.000, 15:44:52.342, 1578577492342
171, -186047.11, -186853.95, -186402.50, 187500.00, -187500.02, 187500.00, -187500.02, -187500.02, 0.000, 0.000, 0.000, 15:44:52.342, 1578577492342
172, -122542.36, -137272.72, -171823.80, -172018.69, -149589.89, -130832.94, -172327.52, 186750.52, -0.018, -0.012, 0.974, 15:44:52.342, 1578577492342
173, -186069.33, -186889.56, -186432.36, 187500.00, -187500.02, 187500.00, -187500.02, -187500.02, 0.000, 0.000, 0.000, 15:44:52.342, 1578577492342
174, -122862.64, -137583.78, -171819.83, -171932.73, -149939.94, -131095.19, -172238.02, 186822.13, 0.000, 0.000, 0.000, 15:44:52.342, 1578577492342
175, -186093.23, -186927.94, -186464.13, 187500.00, -187500.02, 187500.00, -187500.02, -187500.02, 0.000, 0.000, 0.000, 15:44:52.342, 1578577492342
176, -123173.35, -137881.61, -171816.77, -171837.17, -150276.77, -131345.94, -172204.16, 186911.98, 0.000, 0.000, 0.000, 15:44:52.342, 1578577492342
177, -186107.97, -186957.89, -186486.59, 187500.00, -187500.02, 187500.00, -187500.02, -187500.02, 0.000, 0.000, 0.000, 15:44:52.342, 1578577492342
178, -123484.51, -138181.78, -171809.84, -171742.80, -150613.92, -131595.63, -172283.47, 187003.20, 0.000, 0.000, 0.000, 15:44:52.342, 1578577492342
179, -186127.95, -186993.09, -186515.02, 187500.00, -187500.02, 187500.00, -187500.02, -187500.02, 0.000, 0.000, 0.000, 15:44:52.342, 1578577492342
180, -123819.09, -138505.02, -171802.66, -171666.00, -150977.56, -131867.02, -172194.75, 187373.70, 0.000, 0.000, 0.000, 15:44:52.342, 1578577492342
181, -186148.31, -187027.86, -186543.89, 187500.00, -187500.02, 187500.00, -187500.02, -187500.02, 0.000, 0.000, 0.000, 15:44:52.342, 1578577492342
182, -124192.77, -138868.36, -171796.80, -171626.75, -151380.30, -132179.77, -172171.53, 187500.00, -0.018, -0.010, 0.974, 15:44:52.342, 1578577492342
183, -186164.50, -187058.44, -186568.81, 187500.00, -187500.02, 187500.00, -187500.02, -187500.02, 0.000, 0.000, 0.000, 15:44:52.343, 1578577492343
184, -124555.07, -139220.41, -171798.08, -171577.38, -151768.67, -132479.97, -172309.28, 187500.00, 0.000, 0.000, 0.000, 15:44:52.343, 1578577492343
185, -186182.53, -187092.91, -186596.16, 187500.00, -187500.02, 187500.00, -187500.02, -187500.02, 0.000, 0.000, 0.000, 15:44:52.343, 1578577492343
186, -124936.03, -139590.55, -171792.00, -171544.31, -152175.77, -132798.11, -172273.89, 187500.00, 0.000, 0.000, 0.000, 15:44:52.343, 1578577492343
187, -186198.52, -187121.84, -186619.94, 187500.00, -187500.02, 187500.00, -187500.02, -187500.02, 0.000, 0.000, 0.000, 15:44:52.343, 1578577492343
188, -125319.07, -139965.34, -171793.41, -171515.38, -152591.75, -133123.00, -172232.33, 187500.00, 0.000, 0.000, 0.000, 15:44:52.343, 1578577492343
189, -186219.48, -187157.00, -186648.97, 187500.00, -187500.02, 187500.00, -187500.02, -187500.02, 0.000, 0.000, 0.000, 15:44:52.343, 1578577492343
190, -125702.32, -140339.98, -171791.41, -171483.73, -153002.38, -133445.50, -172188.02, 187500.00, 0.000, 0.000, 0.000, 15:44:52.343, 1578577492343
191, -186239.13, -187189.97, -186676.78, 187500.00, -187500.02, 187500.00, -187500.02, -187500.02, 0.000, 0.000, 0.000, 15:44:52.343, 1578577492343
192, -126081.73, -140708.52, -171792.91, -171450.92, -153410.91, -133766.69, -172160.63, 187500.00, -0.014, -0.016, 0.974, 15:44:52.343, 1578577492343
193, -186253.95, -187220.38, -186700.09, 187500.00, -187500.02, 187500.00, -187500.02, -187500.02, 0.000, 0.000, 0.000, 15:44:52.343, 1578577492343
194, -126440.75, -141060.52, -171786.25, -171402.69, -153802.95, -134070.61, -172318.47, 187500.00, 0.000, 0.000, 0.000, 15:44:52.343, 1578577492343
195, -186275.20, -187257.16, -186731.23, 187500.00, -187500.02, 187500.00, -187500.02, -187500.02, 0.000, 0.000, 0.000, 15:44:52.343, 1578577492343
196, -126819.52, -141432.25, -171785.72, -171371.98, -154215.70, -134393.70, -172295.02, 187500.00, 0.000, 0.000, 0.000, 15:44:52.343, 1578577492343
197, -186293.92, -187289.55, -186758.94, 187500.00, -187500.02, 187500.00, -187500.02, -187500.02, 0.000, 0.000, 0.000, 15:44:52.343, 1578577492343
198, -127203.33, -141810.30, -171780.66, -171344.91, -154633.25, -134719.41, -172254.97, 187500.00, 0.000, 0.000, 0.000, 15:44:52.343, 1578577492343
199, -186315.98, -187325.58, -186788.09, 187500.00, -187500.02, 187500.00, -187500.02, -187500.02, 0.000, 0.000, 0.000, 15:44:52.344, 1578577492344
200, -127579.44, -142175.50, -171784.19, -171146.36, -155038.36, -135032.69, -172204.20, 187500.00, 0.000, 0.000, 0.000, 15:44:52.344, 1578577492344
201, -186334.38, -187357.80, -186813.69, 187500.00, -187500.02, 187500.00, -187500.02, -187500.02, 0.000, 0.000, 0.000, 15:44:52.344, 1578577492344
202, -127911.54, -142499.00, -171794.00, -171249.58, -155402.08, -135307.95, -172198.61, 187500.00, -0.012, -0.014, 0.976, 15:44:52.344, 1578577492344
203, -186352.36, -187390.94, -186841.42, 187500.00, -187500.02, 187500.00, -187500.02, -187500.02, 0.000, 0.000, 0.000, 15:44:52.344, 1578577492344
204, -128238.93, -142820.09, -171785.91, -171980.13, -155762.84, -135578.69, -172289.86, 187500.00, 0.000, 0.000, 0.000, 15:44:52.344, 1578577492344
205, -186376.28, -187430.38, -186874.34, 187500.00, -187500.02, 187500.00, -187500.02, -187500.02, 0.000, 0.000, 0.000, 15:44:52.344, 1578577492344
206, -128614.91, -143183.77, -171778.89, -172392.58, -156167.97, -135895.98, -172239.77, 187500.00, 0.000, 0.000, 0.000, 15:44:52.344, 1578577492344
207, -186392.91, -187462.83, -186900.45, 187500.00, -187500.02, 187500.00, -187500.02, -187500.02, 0.000, 0.000, 0.000, 15:44:52.344, 1578577492344
208, -129002.35, -143554.59, -171780.06, -172361.30, -156581.66, -136220.89, -172197.92, 187500.00, 0.000, 0.000, 0.000, 15:44:52.344, 1578577492344
209, -186412.77, -187493.80, -186928.75, 187500.00, -187500.02, 187500.00, -187500.02, -187500.02, 0.000, 0.000, 0.000, 15:44:52.344, 1578577492344
210, -129381.50, -143919.75, -171780.73, -172325.13, -156989.70, -136538.23, -172150.00, 187500.00, 0.000, 0.000, 0.000, 15:44:52.345, 1578577492345
211, -186432.61, -187500.02, -186956.75, 187500.00, -187500.02, 187500.00, -187500.02, -187500.02, 0.000, 0.000, 0.000, 15:44:52.345, 1578577492345
212, -129744.67, -144272.86, -171780.75, -172279.53, -157384.08, -136843.97, -172277.39, 187500.00, -0.014, -0.018, 0.974, 15:44:52.345, 1578577492345
213, -186451.89, -187500.02, -186985.56, 187500.00, -187500.02, 187500.00, -187500.02, -187500.02, 0.000, 0.000, 0.000, 15:44:52.345, 1578577492345
214, -130123.96, -144641.63, -171779.20, -172246.83, -157791.91, -137161.97, -172296.20, 187500.00, 0.000, 0.000, 0.000, 15:44:52.345, 1578577492345
215, -186474.20, -187500.02, -187016.69, 187500.00, -187500.02, 187500.00, -187500.02, -187500.02, 0.000, 0.000, 0.000, 15:44:52.345, 1578577492345
216, -130504.55, -145011.88, -171779.72, -172214.23, -158200.86, -137482.16, -172251.23, 187500.00, 0.000, 0.000, 0.000, 15:44:52.345, 1578577492345
217, -186488.72, -187500.02, -187040.05, 187500.00, -187500.02, 187500.00, -187500.02, -187500.02, 0.000, 0.000, 0.000, 15:44:52.345, 1578577492345
218, -130885.71, -145384.06, -171777.98, -172185.70, -158615.55, -137804.44, -172209.64, 187500.00, 0.000, 0.000, 0.000, 15:44:52.345, 1578577492345
219, -186509.98, -187500.02, -187069.39, 187500.00, -187500.02, 187500.00, -187500.02, -187500.02, 0.000, 0.000, 0.000, 15:44:52.346, 1578577492346
220, -131265.36, -145754.88, -171775.39, -172153.08, -159028.19, -138124.95, -172165.05, 187500.00, 0.000, 0.000, 0.000, 15:44:52.346, 1578577492346
221, -186530.47, -187500.02, -187099.39, 187500.00, -187500.02, 187500.00, -187500.02, -187500.02, -0.016, -0.020, 0.974, 15:44:52.346, 1578577492346
222, -131638.42, -146117.95, -171776.91, -172114.14, -159432.64, -138438.94, -172204.34, 187500.00, 0.000, 0.000, 0.000, 15:44:52.346, 1578577492346
223, -186548.06, -187500.02, -187125.28, 187500.00, -187500.02, 187500.00, -187500.02, -187500.02, 0.000, 0.000, 0.000, 15:44:52.346, 1578577492346
224, -132008.34, -146480.61, -171775.16, -172073.48, -159834.77, -138746.86, -172299.80, 187500.00, 0.000, 0.000, 0.000, 15:44:52.346, 1578577492346
225, -186568.81, -187500.02, -187152.61, 187500.00, -187500.02, 187500.00, -187500.02, -187500.02, 0.000, 0.000, 0.000, 15:44:52.346, 1578577492346
226, -132388.63, -146855.27, -171775.00, -172042.11, -160244.95, -139068.08, -172256.78, 187500.00, 0.000, 0.000, 0.000, 15:44:52.346, 1578577492346
227, -186585.41, -187500.02, -187177.86, 187500.00, -187500.02, 187500.00, -187500.02, -187500.02, 0.000, 0.000, 0.000, 15:44:52.346, 1578577492346
228, -132772.73, -147235.09, -171773.64, -172015.91, -160660.89, -139394.30, -172218.63, 187500.00, 0.000, 0.000, 0.000, 15:44:52.346, 1578577492346
229, -186608.11, -187500.02, -187210.47, 187500.00, -187500.02, 187500.00, -187500.02, -187500.02, 0.000, 0.000, 0.000, 15:44:52.346, 1578577492346
230, -133153.31, -147607.23, -171773.75, -171985.27, -161071.45, -139716.06, -172175.34, 187500.00, 0.000, 0.000, 0.000, 15:44:52.346, 1578577492346
231, -186627.45, -187500.02, -187238.70, 187500.00, -187500.02, 187500.00, -187500.02, -187500.02, -0.022, -0.018, 0.976, 15:44:52.346, 1578577492346
232, -133531.17, -147975.31, -171774.72, -171953.06, -161482.34, -140032.05, -172142.94, 187500.00, 0.000, 0.000, 0.000, 15:44:52.347, 1578577492347
233, -186643.61, -187500.02, -187263.63, 187500.00, -187500.02, 187500.00, -187500.02, -187500.02, 0.000, 0.000, 0.000, 15:44:52.347, 1578577492347
234, -133893.09, -148327.95, -171773.95, -171905.00, -161877.39, -140332.09, -172292.61, 187500.00, 0.000, 0.000, 0.000, 15:44:52.347, 1578577492347
235, -186664.89, -187500.02, -187293.38, 187500.00, -187500.02, 187500.00, -187500.02, -187500.02, 0.000, 0.000, 0.000, 15:44:52.347, 1578577492347
236, -134273.11, -148699.67, -171767.86, -171875.97, -162291.52, -140651.80, -172277.98, 187500.00, 0.000, 0.000, 0.000, 15:44:52.347, 1578577492347
237, -186684.00, -187500.02, -187321.02, 187500.00, -187500.02, 187500.00, -187500.02, -187500.02, 0.000, 0.000, 0.000, 15:44:52.347, 1578577492347
238, -134657.36, -149073.50, -171767.73, -171850.75, -162708.73, -140975.31, -172239.59, 187500.00, 0.000, 0.000, 0.000, 15:44:52.347, 1578577492347
239, -186704.45, -187500.02, -187350.89, 187500.00, -187500.02, 187500.00, -187500.02, -187500.02, 0.000, 0.000, 0.000, 15:44:52.347, 1578577492347
240, -135034.61, -149438.66, -171770.11, -171817.34, -163119.06, -141293.75, -172194.13, 187500.00, 0.000, 0.000, 0.000, 15:44:52.347, 1578577492347
241, -186722.33, -187500.02, -187377.73, 187500.00, -187500.02, 187500.00, -187500.02, -187500.02, -0.020, -0.012, 0.972, 15:44:52.814, 1578577492814
242, -135417.34, -149810.34, -171768.03, -171790.45, -163535.80, -141617.70, -172153.69, 187500.00, 0.000, 0.000, 0.000, 15:44:52.814, 1578577492814
243, -186740.38, -187500.02, -187404.42, 187500.00, -187500.02, 187500.00, -187500.02, -187500.02, 0.000, 0.000, 0.000, 15:44:52.814, 1578577492814
244, -135790.03, -150172.58, -171772.95, -171750.84, -163940.73, -141929.33, -172182.52, 187500.00, 0.000, 0.000, 0.000, 15:44:52.815, 1578577492815
245, -186766.05, -187500.02, -187436.92, 187500.00, -187500.02, 187500.00, -187500.02, -187500.02, 0.000, 0.000, 0.000, 15:44:52.815, 1578577492815
246, -136157.97, -150531.11, -171768.84, -171711.66, -164345.11, -142239.33, -172296.97, 187500.00, 0.000, 0.000, 0.000, 15:44:52.815, 1578577492815
247, -186782.30, -187500.02, -187462.23, 187500.00, -187500.02, 187500.00, -187500.02, -187500.02, 0.000, 0.000, 0.000, 15:44:52.815, 1578577492815
248, -136537.30, -150901.09, -171773.31, -171684.41, -164763.47, -142562.58, -172256.58, 187500.00, 0.000, 0.000, 0.000, 15:44:52.815, 1578577492815
249, -186800.19, -187500.02, -187490.19, 187500.00, -187500.02, 187500.00, -187500.02, -187500.02, 0.000, 0.000, 0.000, 15:44:52.815, 1578577492815
250, -136915.47, -151271.64, -171768.77, -171653.03, -165178.48, -142880.08, -172213.81, 187500.00, 0.000, 0.000, 0.000, 15:44:52.815, 1578577492815
251, -186820.20, -187500.02, -187500.02, 187500.00, -187500.02, 187500.00, -187500.02, -187500.02, -0.024, -0.020, 0.984, 15:44:52.815, 1578577492815
252, -137301.83, -151647.73, -171766.58, -171627.27, -165600.77, -143205.66, -172176.23, 187500.00, 0.000, 0.000, 0.000, 15:44:52.815, 1578577492815
253, -186840.08, -187500.02, -187500.02, 187500.00, -187500.02, 187500.00, -187500.02, -187500.02, 0.000, 0.000, 0.000, 15:44:52.815, 1578577492815
254, -137682.00, -152017.50, -171769.39, -171597.78, -166019.94, -143524.55, -172136.23, 187500.00, 0.000, 0.000, 0.000, 15:44:52.815, 1578577492815
255, -186863.02, -187500.02, -187500.02, 187500.00, -187500.02, 187500.00, -187500.02, -187500.02, 0.000, 0.000, 0.000, 15:44:52.815, 1578577492815
0, -138039.03, -152369.31, -171766.02, -171549.81, -166421.11, -143822.19, -172275.91, 187500.00, 0.000, 0.000, 0.000, 15:44:52.815, 1578577492815
1, -186878.30, -187500.02, -187500.02, 187500.00, -187500.02, 187500.00, -187500.02, -187500.02, 0.000, 0.000, 0.000, 15:44:52.815, 1578577492815
2, -138417.42, -152738.34, -171765.55, -171520.75, -166842.53, -144141.56, -172277.42, 187500.00, 0.000, 0.000, 0.000, 15:44:52.815, 1578577492815
3, -186899.53, -187500.02, -187500.02, 187500.00, -187500.02, 187500.00, -187500.02, -187500.02, 0.000, 0.000, 0.000, 15:44:52.815, 1578577492815
4, -138794.06, -153108.33, -171767.72, -171490.38, -167263.86, -144461.88, -172235.83, 187500.00, -0.018, -0.020, 0.980, 15:44:52.815, 1578577492815
5, -186920.77, -187500.02, -187500.02, 187500.00, -187500.02, 187500.00, -187500.02, -187500.02, 0.000, 0.000, 0.000, 15:44:52.815, 1578577492815
6, -139176.44, -153482.34, -171764.28, -171465.33, -167689.73, -144785.92, -172198.13, 187500.00, 0.000, 0.000, 0.000, 15:44:52.815, 1578577492815
7, -186939.64, -187500.02, -187500.02, 187500.00, -187500.02, 187500.00, -187500.02, -187500.02, 0.000, 0.000, 0.000, 15:44:52.815, 1578577492815
8, -139554.83, -153854.20, -171764.20, -171435.95, -168110.64, -145105.31, -172155.86, 187500.00, 0.000, 0.000, 0.000, 15:44:52.815, 1578577492815
9, -186959.80, -187500.02, -187500.02, 187500.00, -187500.02, 187500.00, -187500.02, -187500.02, 0.000, 0.000, 0.000, 15:44:52.816, 1578577492816
10, -139920.78, -154209.59, -171765.39, -171394.56, -168518.20, -145408.83, -172192.58, 187500.00, 0.000, 0.000, 0.000, 15:44:52.816, 1578577492816
11, -186976.38, -187500.02, -187500.02, 187500.00, -187500.02, 187500.00, -187500.02, -187500.02, 0.000, 0.000, 0.000, 15:44:52.816, 1578577492816
12, -140292.08, -154572.91, -171763.11, -171360.09, -168932.73, -145721.20, -172294.89, 187500.00, 0.000, 0.000, 0.000, 15:44:52.816, 1578577492816
13, -187000.14, -187500.02, -187500.02, 187500.00, -187500.02, 187500.00, -187500.02, -187500.02, 0.000, 0.000, 0.000, 15:44:52.816, 1578577492816
14, -140672.23, -154943.00, -171756.25, -171331.19, -169356.88, -146040.77, -172254.86, 187500.00, -0.020, -0.016, 0.980, 15:44:52.816, 1578577492816
15, -187020.28, -187500.02, -187500.02, 187500.00, -187500.02, 187500.00, -187500.02, -187500.02, 0.000, 0.000, 0.000, 15:44:52.816, 1578577492816
16, -141054.80, -155314.06, -171754.00, -171304.08, -169786.61, -146361.67, -172215.22, 187500.00, 0.000, 0.000, 0.000, 15:44:52.816, 1578577492816
17, -187036.23, -187500.02, -187500.02, 187500.00, -187500.02, 187500.00, -187500.02, -187500.02, 0.000, 0.000, 0.000, 15:44:52.816, 1578577492816
18, -141426.55, -155670.75, -171761.23, -171055.14, -170207.05, -146671.25, -172163.17, 187500.00, 0.000, 0.000, 0.000, 15:44:52.816, 1578577492816
19, -187058.61, -187500.02, -187500.02, 187500.00, -187500.02, 187500.00, -187500.02, -187500.02, 0.000, 0.000, 0.000, 15:44:52.816, 1578577492816
20, -141747.05, -155983.78, -171764.09, -171322.77, -170581.28, -146933.30, -172202.95, 187500.00, 0.000, 0.000, 0.000, 15:44:52.817, 1578577492817
21, -187077.66, -187500.02, -187500.02, 187500.00, -187500.02, 187500.00, -187500.02, -187500.02, 0.000, 0.000, 0.000, 15:44:52.817, 1578577492817
22, -142084.30, -156314.66, -171754.67, -172101.25, -170971.34, -147214.78, -172247.14, 187500.00, 0.000, 0.000, 0.000, 15:44:52.817, 1578577492817
23, -187098.47, -187500.02, -187500.02, 187500.00, -187500.02, 187500.00, -187500.02, -187500.02, 0.000, 0.000, 0.000, 15:44:52.817, 1578577492817
24, -142459.27, -156677.52, -171751.30, -172362.39, -171395.16, -147526.66, -172197.28, 187500.00, -0.016, -0.020, 0.980, 15:44:52.817, 1578577492817
25, -187115.77, -187500.02, -187500.02, 187500.00, -187500.02, 187500.00, -187500.02, -187500.02, 0.000, 0.000, 0.000, 15:44:52.817, 1578577492817
26, -142842.13, -157051.67, -171750.98, -172335.34, -171748.31, -147849.56, -172159.30, 187500.00, 0.000, 0.000, 0.000, 15:44:52.817, 1578577492817
27, -187133.64, -187500.02, -187500.02, 187500.00, -187500.02, 187500.00, -187500.02, -187500.02, 0.000, 0.000, 0.000, 15:44:52.817, 1578577492817
28, -143237.84, -157439.72, -171755.42, -172322.38, -171879.86, -148212.89, -172135.66, 187500.00, 0.000, 0.000, 0.000, 15:44:52.817, 1578577492817
29, -187158.58, -187500.02, -187500.02, 187500.00, -187500.02, 187500.00, -187500.02, -187500.02, 0.000, 0.000, 0.000, 15:44:52.817, 1578577492817
30, -143650.98, -157844.92, -171758.05, -172320.88, -171874.30, -148612.14, -172123.95, 187500.00, 0.000, 0.000, 0.000, 15:44:52.817, 1578577492817
31, -187175.78, -187500.02, -187500.02, 187500.00, -187500.02, 187500.00, -187500.02, -187500.02, 0.000, 0.000, 0.000, 15:44:52.817, 1578577492817
32, -144054.11, -158245.39, -171755.89, -172314.59, -171874.20, -149007.08, -172184.95, 187500.00, 0.000, 0.000, 0.000, 15:44:52.817, 1578577492817
33, -187194.53, -187500.02, -187500.02, 187500.00, -187500.02, 187500.00, -187500.02, -187500.02, 0.000, 0.000, 0.000, 15:44:52.817, 1578577492817
34, -144451.30, -158639.69, -171755.33, -172302.34, -171867.72, -149394.58, -172313.92, 187500.00, -0.020, -0.016, 0.976, 15:44:52.817, 1578577492817
35, -187214.00, -187500.02, -187500.02, 187500.00, -187500.02, 187500.00, -187500.02, -187500.02, 0.000, 0.000, 0.000, 15:44:52.817, 1578577492817
36, -144867.97, -159046.97, -171761.77, -172305.95, -171883.17, -149800.42, -172308.09, 187500.00, 0.000, 0.000, 0.000, 15:44:52.817, 1578577492817
37, -187233.03, -187500.02, -187500.02, 187500.00, -187500.02, 187500.00, -187500.02, -187500.02, 0.000, 0.000, 0.000, 15:44:52.817, 1578577492817
38, -145284.48, -159456.09, -171765.33, -172309.08, -171890.52, -150205.81, -172300.73, 187500.00, 0.000, 0.000, 0.000, 15:44:52.817, 1578577492817
39, -187256.97, -187500.02, -187500.02, 187500.00, -187500.02, 187500.00, -187500.02, -187500.02, 0.000, 0.000, 0.000, 15:44:52.818, 1578577492818
40, -145696.25, -159862.39, -171765.02, -172309.41, -171895.14, -150609.27, -172290.81, 187500.00, 0.000, 0.000, 0.000, 15:44:52.818, 1578577492818
41, -187272.23, -187500.02, -187500.02, 187500.00, -187500.02, 187500.00, -187500.02, -187500.02, 0.000, 0.000, 0.000, 15:44:52.818, 1578577492818
42, -146109.06, -160270.31, -171768.67, -172314.20, -171903.42, -151014.08, -172284.48, 187500.00, 0.000, 0.000, 0.000, 15:44:52.818, 1578577492818
43, -187292.88, -187500.02, -187500.02, 187500.00, -187500.02, 187500.00, -187500.02, -187500.02, -0.016, -0.014, 0.974, 15:44:52.818, 1578577492818
44, -146519.06, -160675.83, -171770.05, -172315.38, -171910.03, -151418.17, -172275.23, 187500.00, 0.000, 0.000, 0.000, 15:44:52.818, 1578577492818
45, -187314.31, -187500.02, -187500.02, 187500.00, -187500.02, 187500.00, -187500.02, -187500.02, 0.000, 0.000, 0.000, 15:44:52.818, 1578577492818
46, -146936.09, -161088.14, -171774.89, -172320.64, -171920.72, -151826.81, -172270.45, 187500.00, 0.000, 0.000, 0.000, 15:44:52.818, 1578577492818
47, -187331.23, -187500.02, -187500.02, 187500.00, -187500.02, 187500.00, -187500.02, -187500.02, 0.000, 0.000, 0.000, 15:44:52.818, 1578577492818
48, -147346.45, -161499.59, -171778.30, -172322.48, -171926.84, -152231.25, -172261.47, 187500.00, 0.000, 0.000, 0.000, 15:44:52.818, 1578577492818
49, -187351.11, -187500.02, -187500.02, 187500.00, -187500.02, 187500.00, -187500.02, -187500.02, 0.000, 0.000, 0.000, 15:44:52.818, 1578577492818
50, -147758.13, -161908.67, -171785.36, -172322.95, -171931.22, -152632.08, -172250.19, 187500.00, 0.000, 0.000, 0.000, 15:44:52.818, 1578577492818
51, -187368.23, -187500.02, -187500.02, 187500.00, -187500.02, 187500.00, -187500.02, -187500.02, 0.000, 0.000, 0.000, 15:44:52.818, 1578577492818
52, -148175.34, -162322.91, -171791.44, -172329.38, -171942.73, -153039.17, -172245.52, 187500.00, 0.000, 0.000, 0.000, 15:44:52.818, 1578577492818
53, -187390.41, -187500.02, -187500.02, 187500.00, -187500.02, 187500.00, -187500.02, -187500.02, -0.018, -0.014, 0.974, 15:44:52.818, 1578577492818
54, -148589.14, -162735.78, -171793.73, -172331.61, -171950.58, -153441.45, -172236.55, 187500.00, 0.000, 0.000, 0.000, 15:44:52.818, 1578577492818
55, -187410.16, -187500.02, -187500.02, 187500.00, -187500.02, 187500.00, -187500.02, -187500.02, 0.000, 0.000, 0.000, 15:44:52.818, 1578577492818
56, -149002.78, -163150.41, -171797.89, -172336.33, -171959.47, -153846.09, -172230.09, 187500.00, 0.000, 0.000, 0.000, 15:44:52.818, 1578577492818
57, -187425.73, -187500.02, -187500.02, 187500.00, -187500.02, 187500.00, -187500.02, -187500.02, 0.000, 0.000, 0.000, 15:44:52.820, 1578577492820
58, -149416.28, -163562.28, -171799.86, -172339.72, -171967.09, -154249.63, -172221.86, 187500.00, 0.000, 0.000, 0.000, 15:44:52.820, 1578577492820
59, -187448.19, -187500.02, -187500.02, 187500.00, -187500.02, 187500.00, -187500.02, -187500.02, 0.000, 0.000, 0.000, 15:44:52.820, 1578577492820
60, -149831.77, -163977.94, -171803.13, -172343.48, -171975.98, -154650.63, -172215.17, 187500.00, 0.000, 0.000, 0.000, 15:44:52.820, 1578577492820
61, -187468.45, -187500.02, -187500.02, 187500.00, -187500.02, 187500.00, -187500.02, -187500.02, 0.000, 0.000, 0.000, 15:44:52.820, 1578577492820
62, -150250.23, -164399.17, -171809.58, -172350.36, -171988.33, -155055.80, -172210.81, 187500.00, 0.000, 0.000, 0.000, 15:44:52.820, 1578577492820
63, -187489.33, -187500.02, -187500.02, 187500.00, -187500.02, 187500.00, -187500.02, -187500.02, -0.022, -0.014, 0.978, 15:44:52.820, 1578577492820
64, -150661.64, -164816.13, -171809.19, -172349.48, -171995.38, -155457.42, -172199.84, 187500.00, 0.000, 0.000, 0.000, 15:44:52.820, 1578577492820
65, -187500.02, -187500.02, -187500.02, 187500.00, -187500.02, 187500.00, -187500.02, -187500.02, 0.000, 0.000, 0.000, 15:44:52.820, 1578577492820
66, -151075.33, -165235.69, -171814.09, -172355.33, -172006.13, -155859.98, -172194.08, 187500.00, 0.000, 0.000, 0.000, 15:44:52.820, 1578577492820
67, -187500.02, -187500.02, -187500.02, 187500.00, -187500.02, 187500.00, -187500.02, -187500.02, 0.000, 0.000, 0.000, 15:44:52.820, 1578577492820
68, -151487.36, -165655.05, -171817.31, -172359.84, -172016.09, -156264.69, -172188.52, 187500.00, 0.000, 0.000, 0.000, 15:44:52.820, 1578577492820
69, -187500.02, -187500.02, -187500.02, 187500.00, -187500.02, 187500.00, -187500.02, -187500.02, 0.000, 0.000, 0.000, 15:44:52.820, 1578577492820
70, -151900.45, -166073.28, -171820.83, -172363.91, -172026.19, -156668.42, -172181.61, 187500.00, 0.000, 0.000, 0.000, 15:44:52.820, 1578577492820
71, -187500.02, -187500.02, -187500.02, 187500.00, -187500.02, 187500.00, -187500.02, -187500.02, 0.000, 0.000, 0.000, 15:44:52.820, 1578577492820
72, -152314.75, -166494.55, -171827.47, -172371.33, -172038.58, -157071.80, -172177.45, 187500.00, 0.000, 0.000, 0.000, 15:44:52.820, 1578577492820
73, -187500.02, -187500.02, -187500.02, 187500.00, -187500.02, 187500.00, -187500.02, -187500.02, -0.018, -0.012, 0.980, 15:44:52.820, 1578577492820
74, -152717.42, -166905.98, -171821.44, -172365.89, -172038.16, -157462.56, -172214.66, 187500.00, 0.000, 0.000, 0.000, 15:44:52.820, 1578577492820
75, -187500.02, -187500.02, -187500.02, 187500.00, -187500.02, 187500.00, -187500.02, -187500.02, 0.000, 0.000, 0.000, 15:44:52.820, 1578577492820
76, -153119.28, -167317.91, -171816.53, -172362.31, -172040.64, -157856.13, -172365.77, 187500.00, 0.000, 0.000, 0.000, 15:44:52.821, 1578577492821
77, -187500.02, -187500.02, -187500.02, 187500.00, -187500.02, 187500.00, -187500.02, -187500.02, 0.000, 0.000, 0.000, 15:44:52.821, 1578577492821
78, -153536.00, -167741.52, -171821.45, -172367.30, -172051.52, -158261.95, -172362.28, 187500.00, 0.000, 0.000, 0.000, 15:44:52.821, 1578577492821
79, -187500.02, -187500.02, -187500.02, 187500.00, -187500.02, 187500.00, -187500.02, -187500.02, 0.000, 0.000, 0.000, 15:44:52.821, 1578577492821
80, -153947.13, -168165.27, -171823.08, -172368.78, -172059.92, -158665.22, -172353.64, 187500.00, 0.000, 0.000, 0.000, 15:44:52.821, 1578577492821
81, -187500.02, -187500.02, -187500.02, 187500.00, -187500.02, 187500.00, -187500.02, -187500.02, 0.000, 0.000, 0.000, 15:44:52.821, 1578577492821
82, -154360.92, -168596.03, -171827.28, -172374.80, -172071.48, -159070.36, -172348.69, 187500.00, -0.012, -0.016, 0.974, 15:44:52.821, 1578577492821
83, -187500.02, -187500.02, -187500.02, 187500.00, -187500.02, 187500.00, -187500.02, -187500.02, 0.000, 0.000, 0.000, 15:44:52.821, 1578577492821
84, -154773.91, -169025.31, -171828.78, -172376.05, -172079.86, -159473.75, -172339.83, 187500.00, 0.000, 0.000, 0.000, 15:44:52.821, 1578577492821
85, -187500.02, -187500.02, -187500.02, 187500.00, -187500.02, 187500.00, -187500.02, -187500.02, 0.000, 0.000, 0.000, 15:44:52.821, 1578577492821
86, -155188.88, -169460.28, -171834.91, -172380.64, -172091.84, -159879.77, -172334.42, 187500.00, 0.000, 0.000, 0.000, 15:44:52.821, 1578577492821
87, -187500.02, -187500.02, -187500.02, 187500.00, -187500.02, 187500.00, -187500.02, -187500.02, 0.000, 0.000, 0.000, 15:44:52.821, 1578577492821
88, -155599.97, -169896.09, -171835.83, -172383.13, -172099.19, -160281.47, -172324.98, 187500.00, 0.000, 0.000, 0.000, 15:44:52.821, 1578577492821
89, -187500.02, -187500.02, -187500.02, 187500.00, -187500.02, 187500.00, -187500.02, -187500.02, 0.000, 0.000, 0.000, 15:44:52.821, 1578577492821
90, -156010.59, -170332.20, -171835.42, -172384.58, -172106.70, -160685.17, -172315.31, 187500.00, 0.000, 0.000, 0.000, 15:44:52.821, 1578577492821
91, -187500.02, -187500.02, -187500.02, 187500.00, -187500.02, 187500.00, -187500.02, -187500.02, 0.000, 0.000, 0.000, 15:44:52.821, 1578577492821
92, -156427.00, -170770.70, -171841.25, -172390.50, -172120.27, -161093.28, -172310.67, 187500.00, -0.020, -0.024, 0.972, 15:44:52.821, 1578577492821
93, -187500.02, -187500.02, -187500.02, 187500.00, -187500.02, 187500.00, -187500.02, -187500.02, 0.000, 0.000, 0.000, 15:44:52.821, 1578577492821
94, -156838.83, -171207.81, -171843.05, -172393.64, -172129.34, -161496.88, -172302.50, 187500.00, 0.000, 0.000, 0.000, 15:44:52.822, 1578577492822
95, -187500.02, -187500.02, -187500.02, 187500.00, -187500.02, 187500.00, -187500.02, -187500.02, 0.000, 0.000, 0.000, 15:44:52.822, 1578577492822
96, -157252.52, -171653.30, -171846.86, -172398.27, -172139.56, -161904.47, -172295.00, 187500.00, 0.000, 0.000, 0.000, 15:44:52.822, 1578577492822
97, -187500.02, -187500.02, -187500.02, 187500.00, -187500.02, 187500.00, -187500.02, -187500.02, 0.000, 0.000, 0.000, 15:44:52.822, 1578577492822
98, -157702.02, -172014.22, -171860.59, -172412.61, -172159.83, -162322.39, -172299.53, 187500.00, 0.000, 0.000, 0.000, 15:44:52.822, 1578577492822
99, -187500.02, -187500.02, -187500.02, 187500.00, -187500.02, 187500.00, -187500.02, -187500.02, 0.000, 0.000, 0.000, 15:44:52.822, 1578577492822
100, -158197.42, -172066.63, -171887.17, -172440.08, -172194.55, -162755.30, -172316.56, 187500.00, 0.000, 0.000, 0.000, 15:44:52.822, 1578577492822
101, -187500.02, -187500.02, -187500.02, 187500.00, -187500.02, 187500.00, -187500.02, -187500.02, 0.000, 0.000, 0.000, 15:44:52.822, 1578577492822
102, -158695.28, -172103.52, -171918.22, -172470.33, -172232.55, -163191.13, -172337.17, 187500.00, -0.024, -0.022, 0.974, 15:44:52.822, 1578577492822
103, -187500.02, -187500.02, -187500.02, 187500.00, -187500.02, 187500.00, -187500.02, -187500.02, 0.000, 0.000, 0.000, 15:44:52.822, 1578577492822
104, -159186.45, -172135.09, -171943.42, -172496.11, -172265.05, -163620.91, -172352.00, 187500.00, 0.000, 0.000, 0.000, 15:44:52.822, 1578577492822
105, -187500.02, -187500.02, -187500.02, 187500.00, -187500.02, 187500.00, -187500.02, -187500.02, 0.000, 0.000, 0.000, 15:44:52.822, 1578577492822
106, -159683.38, -172170.55, -171971.95, -172525.89, -172301.44, -164056.75, -172370.39, 187500.00, 0.000, 0.000, 0.000, 15:44:53.295, 1578577493295
107, -187500.02, -187500.02, -187500.02, 187500.00, -187500.02, 187500.00, -187500.02, -187500.02, 0.000, 0.000, 0.000, 15:44:53.296, 1578577493296
108, -160181.58, -172206.27, -172000.27, -172554.81, -172338.36, -164494.95, -172388.94, 187500.00, 0.000, 0.000, 0.000, 15:44:53.296, 1578577493296
109, -187500.02, -187500.02, -187500.02, 187500.00, -187500.02, 187500.00, -187500.02, -187500.02, 0.000, 0.000, 0.000, 15:44:53.296, 1578577493296
110, -160679.13, -172240.14, -172027.53, -172581.56, -172371.97, -164930.80, -172407.14, 187500.00, 0.000, 0.000, 0.000, 15:44:53.296, 1578577493296
111, -187500.02, -187500.02, -187500.02, 187500.00, -187500.02, 187500.00, -187500.02, -187500.02, 0.000, 0.000, 0.000, 15:44:53.296, 1578577493296
112, -161176.19, -172275.64, -172057.05, -172610.16, -172407.63, -165367.25, -172425.31, 187500.00, -0.022, -0.016, 0.978, 15:44:53.296, 1578577493296
113, -187500.02, -187500.02, -187500.02, 187500.00, -187500.02, 187500.00, -187500.02, -187500.02, 0.000, 0.000, 0.000, 15:44:53.296, 1578577493296
114, -161668.89, -172307.94, -172079.80, -172634.55, -172438.34, -165797.59, -172439.67, 187500.00, 0.000, 0.000, 0.000, 15:44:53.296, 1578577493296
115, -187500.02, -187500.02, -187500.02, 187500.00, -187500.02, 187500.00, -187500.02, -187500.02, 0.000, 0.000, 0.000, 15:44:53.296, 1578577493296
116, -162168.11, -172344.33, -172108.69, -172663.05, -172474.25, -166235.53, -172457.69, 187500.00, 0.000, 0.000, 0.000, 15:44:53.296, 1578577493296
117, -187500.02, -187500.02, -187500.02, 187500.00, -187500.02, 187500.00, -187500.02, -187500.02, 0.000, 0.000, 0.000, 15:44:53.296, 1578577493296
118, -162665.28, -172378.44, -172136.20, -172689.86, -172508.25, -166673.41, -172474.14, 187500.00, 0.000, 0.000, 0.000, 15:44:53.296, 1578577493296
119, -187500.02, -187500.02, -187500.02, 187500.00, -187500.02, 187500.00, -187500.02, -187500.02, 0.000, 0.000, 0.000, 15:44:53.296, 1578577493296
120, -163160.22, -172409.92, -172158.11, -172713.88, -172538.25, -167109.17, -172487.64, 187500.00, 0.000, 0.000, 0.000, 15:44:53.296, 1578577493296
121, -187500.02, -187500.02, -187500.02, 187500.00, -187500.02, 187500.00, -187500.02, -187500.02, -0.020, -0.018, 0.976, 15:44:53.296, 1578577493296
122, -163659.00, -172445.25, -172183.63, -172740.36, -172572.50, -167546.80, -172503.41, 187500.00, 0.000, 0.000, 0.000, 15:44:53.296, 1578577493296
123, -187500.02, -187500.02, -187500.02, 187500.00, -187500.02, 187500.00, -187500.02, -187500.02, 0.000, 0.000, 0.000, 15:44:53.296, 1578577493296
124, -164158.20, -172476.63, -172205.83, -172763.73, -172602.75, -167986.88, -172515.52, 187500.00, 0.000, 0.000, 0.000, 15:44:53.296, 1578577493296
125, -187500.02, -187500.02, -187500.02, 187500.00, -187500.02, 187500.00, -187500.02, -187500.02, 0.000, 0.000, 0.000, 15:44:53.297, 1578577493297
126, -164658.52, -172511.66, -172231.52, -172789.86, -172636.67, -168427.94, -172531.28, 187500.00, 0.000, 0.000, 0.000, 15:44:53.297, 1578577493297
127, -187500.02, -187500.02, -187500.02, 187500.00, -187500.02, 187500.00, -187500.02, -187500.02, 0.000, 0.000, 0.000, 15:44:53.297, 1578577493297
128, -165154.17, -172543.50, -172254.06, -172813.42, -172666.27, -168866.48, -172544.98, 187500.00, 0.000, 0.000, 0.000, 15:44:53.297, 1578577493297
129, -187500.02, -187500.02, -187500.02, 187500.00, -187500.02, 187500.00, -187500.02, -187500.02, 0.000, 0.000, 0.000, 15:44:53.297, 1578577493297
130, -165651.83, -172573.31, -172274.91, -172833.73, -172694.44, -169303.58, -172555.95, 187500.00, 0.000, 0.000, 0.000, 15:44:53.297, 1578577493297
131, -187500.02, -187500.02, -187500.02, 187500.00, -187500.02, 187500.00, -187500.02, -187500.02, -0.018, -0.016, 0.976, 15:44:53.297, 1578577493297
132, -166158.23, -172609.06, -172300.42, -172859.73, -172728.33, -169750.41, -172572.20, 187500.00, 0.000, 0.000, 0.000, 15:44:53.297, 1578577493297
133, -187500.02, -187500.02, -187500.02, 187500.00, -187500.02, 187500.00, -187500.02, -187500.02, 0.000, 0.000, 0.000, 15:44:53.297, 1578577493297
134, -166660.88, -172640.31, -172321.97, -172880.77, -172756.92, -170189.48, -172583.45, 187500.00, 0.000, 0.000, 0.000, 15:44:53.297, 1578577493297
135, -187500.02, -187500.02, -187500.02, 187500.00, -187500.02, 187500.00, -187500.02, -187500.02, 0.000, 0.000, 0.000, 15:44:53.297, 1578577493297
136, -167164.94, -172671.67, -172344.14, -172903.59, -172786.78, -170632.00, -172595.50, 187500.00, 0.000, 0.000, 0.000, 15:44:53.297, 1578577493297
137, -187500.02, -187500.02, -187500.02, 187500.00, -187500.02, 187500.00, -187500.02, -187500.02, 0.000, 0.000, 0.000, 15:44:53.297, 1578577493297
138, -167668.81, -172701.39, -172365.34, -172925.09, -172815.41, -171073.97, -172606.13, 187500.00, 0.000, 0.000, 0.000, 15:44:53.297, 1578577493297
139, -187500.02, -187500.02, -187500.02, 187500.00, -187500.02, 187500.00, -187500.02, -187500.02, 0.000, 0.000, 0.000, 15:44:53.297, 1578577493297
140, -168176.42, -172731.53, -172386.69, -172946.19, -172844.69, -171525.89, -172617.22, 187500.00, 0.000, 0.000, 0.000, 15:44:53.297, 1578577493297
141, -187500.02, -187500.02, -187500.02, 187500.00, -187500.02, 187500.00, -187500.02, -187500.02, -0.022, -0.020, 0.976, 15:44:53.297, 1578577493297
142, -168707.91, -172778.94, -172425.16, -172985.73, -172891.31, -172073.53, -172646.19, 187500.00, 0.000, 0.000, 0.000, 15:44:53.297, 1578577493297
143, -187500.02, -187500.02, -187500.02, 187500.00, -187500.02, 187500.00, -187500.02, -187500.02, 0.000, 0.000, 0.000, 15:44:53.298, 1578577493298
144, -169257.64, -172843.73, -172480.38, -173039.89, -172953.75, -172200.20, -172691.47, 187500.00, 0.000, 0.000, 0.000, 15:44:53.298, 1578577493298
145, -187500.02, -187500.02, -187500.02, 187500.00, -187500.02, 187500.00, -187500.02, -187500.02, 0.000, 0.000, 0.000, 15:44:53.298, 1578577493298
146, -169813.28, -172911.88, -172539.34, -173099.88, -173020.80, -172262.81, -172741.47, 187500.00, 0.000, 0.000, 0.000, 15:44:53.298, 1578577493298
147, -187500.02, -187500.02, -187500.02, 187500.00, -187500.02, 187500.00, -187500.02, -187500.02, 0.000, 0.000, 0.000, 15:44:53.298, 1578577493298
148, -170371.97, -172980.59, -172599.45, -173158.95, -173088.94, -172325.97, -172791.67, 187500.00, 0.000, 0.000, 0.000, 15:44:53.298, 1578577493298
149, -187500.02, -187500.02, -187500.02, 187500.00, -187500.02, 187500.00, -187500.02, -187500.02, 0.000, 0.000, 0.000, 15:44:53.298, 1578577493298
150, -170931.66, -173047.36, -172658.03, -173217.23, -173155.78, -172387.38, -172838.97, 187500.00, 0.000, 0.000, 0.000, 15:44:53.298, 1578577493298
151, -187500.02, -187500.02, -187500.02, 187500.00, -187500.02, 187500.00, -187500.02, -187500.02, -0.022, -0.026, 0.976, 15:44:53.298, 1578577493298
152, -171328.02, -173117.81, -172719.77, -173279.64, -173226.14, -172453.17, -172891.05, 187500.00, 0.000, 0.000, 0.000, 15:44:53.298, 1578577493298
153, -187500.02, -187500.02, -187500.02, 187500.00, -187500.02, 187500.00, -187500.02, -187500.02, 0.000, 0.000, 0.000, 15:44:53.298, 1578577493298
154, -171540.88, -173198.95, -172792.13, -173350.80, -173305.52, -172529.20, -172952.41, 187500.00, 0.000, 0.000, 0.000, 15:44:53.298, 1578577493298
155, -187500.02, -187500.02, -187500.02, 187500.00, -187500.02, 187500.00, -187500.02, -187500.02, 0.000, 0.000, 0.000, 15:44:53.298, 1578577493298
156, -171873.98, -173288.67, -172872.86, -173430.00, -173393.86, -172613.95, -173023.42, 187500.00, 0.000, 0.000, 0.000, 15:44:53.298, 1578577493298
157, -187500.02, -187500.02, -187500.02, 187500.00, -187500.02, 187500.00, -187500.02, -187500.02, 0.000, 0.000, 0.000, 15:44:53.298, 1578577493298
158, -172071.50, -173378.27, -172954.03, -173510.31, -173482.56, -172698.67, -173094.77, 187500.00, 0.000, 0.000, 0.000, 15:44:53.298, 1578577493298
159, -187500.02, -187500.02, -187500.02, 187500.00, -187500.02, 187500.00, -187500.02, -187500.02, 0.000, 0.000, 0.000, 15:44:53.298, 1578577493298
160, -172043.30, -173477.98, -173045.33, -173601.05, -173581.34, -172794.63, -173175.34, 187500.00, 0.000, 0.000, 0.000, 15:44:53.298, 1578577493298
161, -187500.02, -187500.02, -187500.02, 187500.00, -187500.02, 187500.00, -187500.02, -187500.02, -0.020, -0.022, 0.978, 15:44:53.298, 1578577493298
162, -172143.00, -173585.47, -173143.47, -173698.22, -173687.88, -172897.64, -173263.98, 187500.00, 0.000, 0.000, 0.000, 15:44:53.299, 1578577493299
163, -187500.02, -187500.02, -187500.02, 187500.00, -187500.02, 187500.00, -187500.02, -187500.02, 0.000, 0.000, 0.000, 15:44:53.299, 1578577493299
164, -172241.58, -173689.61, -173240.03, -173793.44, -173792.72, -172999.03, -173350.13, 187500.00, 0.000, 0.000, 0.000, 15:44:53.299, 1578577493299
165, -187500.02, -187500.02, -187500.02, 187500.00, -187500.02, 187500.00, -187500.02, -187500.02, 0.000, 0.000, 0.000, 15:44:53.299, 1578577493299
166, -172343.36, -173797.64, -173339.22, -173891.72, -173899.06, -173102.30, -173439.92, 187500.00, 0.000, 0.000, 0.000, 15:44:53.299, 1578577493299
167, -187500.02, -187500.02, -187500.02, 187500.00, -187500.02, 187500.00, -187500.02, -187500.02, 0.000, 0.000, 0.000, 15:44:53.299, 1578577493299
168, -172441.58, -173902.88, -173436.09, -173986.69, -174002.73, -173203.55, -173526.39, 187500.00, 0.000, 0.000, 0.000, 15:44:53.299, 1578577493299
169, -187500.02, -187500.02, -187500.02, 187500.00, -187500.02, 187500.00, -187500.02, -187500.02, 0.000, 0.000, 0.000, 15:44:53.299, 1578577493299
170, -172539.55, -174005.73, -173530.88, -174080.63, -174104.73, -173302.97, -173610.91, 187500.00, -0.016, -0.020, 0.972, 15:44:53.299, 1578577493299
171, -187500.02, -187500.02, -187500.02, 187500.00, -187500.02, 187500.00, -187500.02, -187500.02, 0.000, 0.000, 0.000, 15:44:53.299, 1578577493299
172, -172643.50, -174114.34, -173630.22, -174178.31, -174214.05, -173408.00, -173701.50, 187500.00, 0.000, 0.000, 0.000, 15:44:53.299, 1578577493299
173, -187500.02, -187500.02, -187500.02, 187500.00, -187500.02, 187500.00, -187500.02, -187500.02, 0.000, 0.000, 0.000, 15:44:53.299, 1578577493299
174, -172743.08, -174219.14, -173726.80, -174272.92, -174316.91, -173509.36, -173786.75, 187500.00, 0.000, 0.000, 0.000, 15:44:53.300, 1578577493300
175, -187500.02, -187500.02, -187500.02, 187500.00, -187500.02, 187500.00, -187500.02, -187500.02, 0.000, 0.000, 0.000, 15:44:53.300, 1578577493300
176, -172843.47, -174324.88, -173822.83, -174368.52, -174422.77, -173611.58, -173873.67, 187500.00, 0.000, 0.000, 0.000, 15:44:53.300, 1578577493300
177, -187500.02, -187500.02, -187500.02, 187500.00, -187500.02, 187500.00, -187500.02, -187500.02, 0.000, 0.000, 0.000, 15:44:53.300, 1578577493300
178, -172942.73, -174429.56, -173918.52, -174462.72, -174526.08, -173712.14, -173959.55, 187500.00, 0.000, 0.000, 0.000, 15:44:53.300, 1578577493300
179, -187500.02, -187500.02, -187500.02, 187500.00, -187500.02, 187500.00, -187500.02, -187500.02, 0.000, 0.000, 0.000, 15:44:53.300, 1578577493300
180, -173043.47, -174533.52, -174014.52, -174556.61, -174629.44, -173813.84, -174046.30, 187500.00, -0.016, -0.018, 0.972, 15:44:53.300, 1578577493300
181, -187500.02, -187500.02, -187500.02, 187500.00, -187500.02, 187500.00, -187500.02, -187500.02, 0.000, 0.000, 0.000, 15:44:53.300, 1578577493300
182, -173146.55, -174640.59, -174113.73, -174654.41, -174737.27, -173918.38, -174135.53, 187500.00, 0.000, 0.000, 0.000, 15:44:53.300, 1578577493300
183, -187500.02, -187500.02, -187500.02, 187500.00, -187500.02, 187500.00, -187500.02, -187500.02, 0.000, 0.000, 0.000, 15:44:53.300, 1578577493300
184, -173243.27, -174742.48, -174205.83, -174746.73, -174837.69, -174015.59, -174218.31, 187500.00, 0.000, 0.000, 0.000, 15:44:53.300, 1578577493300
185, -187500.02, -187500.02, -187500.02, 187500.00, -187500.02, 187500.00, -187500.02, -187500.02, 0.000, 0.000, 0.000, 15:44:53.301, 1578577493301
186, -173343.89, -174848.42, -174301.77, -174841.33, -174940.81, -174117.92, -174305.61, 187500.00, 0.000, 0.000, 0.000, 15:44:53.301, 1578577493301
187, -187500.02, -187500.02, -187500.02, 187500.00, -187500.02, 187500.00, -187500.02, -187500.02, 0.000, 0.000, 0.000, 15:44:53.301, 1578577493301
188, -173445.95, -174954.09, -174399.75, -174937.23, -175046.05, -174221.50, -174391.45, 187500.00, 0.000, 0.000, 0.000, 15:44:53.301, 1578577493301
189, -187500.02, -187500.02, -187500.02, 187500.00, -187500.02, 187500.00, -187500.02, -187500.02, 0.000, 0.000, 0.000, 15:44:53.301, 1578577493301
190, -173546.83, -175057.22, -174494.14, -175030.94, -175148.70, -174320.64, -174476.70, 187500.00, -0.016, -0.016, 0.966, 15:44:53.301, 1578577493301
191, -187500.02, -187500.02, -187500.02, 187500.00, -187500.02, 187500.00, -187500.02, -187500.02, 0.000, 0.000, 0.000, 15:44:53.301, 1578577493301
192, -173647.59, -175163.03, -174590.23, -175125.98, -175252.95, -174421.66, -174563.25, 187500.00, 0.000, 0.000, 0.000, 15:44:53.302, 1578577493302
193, -187500.02, -187500.02, -187500.02, 187500.00, -187500.02, 187500.00, -187500.02, -187500.02, 0.000, 0.000, 0.000, 15:44:53.302, 1578577493302
194, -173744.17, -175264.06, -174682.61, -175216.13, -175353.14, -174519.31, -174645.13, 187500.00, 0.000, 0.000, 0.000, 15:44:53.302, 1578577493302
195, -187500.02, -187500.02, -187500.02, 187500.00, -187500.02, 187500.00, -187500.02, -187500.02, 0.000, 0.000, 0.000, 15:44:53.302, 1578577493302
196, -173845.58, -175369.33, -174778.61, -175311.77, -175457.70, -174622.59, -174731.67, 187500.00, 0.000, 0.000, 0.000, 15:44:53.302, 1578577493302
197, -187500.02, -187500.02, -187500.02, 187500.00, -187500.02, 187500.00, -187500.02, -187500.02, 0.000, 0.000, 0.000, 15:44:53.302, 1578577493302
198, -173946.66, -175475.19, -174874.45, -175406.61, -175562.19, -174724.42, -174818.38, 187500.00, 0.000, 0.000, 0.000, 15:44:53.302, 1578577493302
199, -187500.02, -187500.02, -187500.02, 187500.00, -187500.02, 187500.00, -187500.02, -187500.02, 0.000, 0.000, 0.000, 15:44:53.302, 1578577493302
200, -174043.81, -175575.89, -174965.34, -175497.27, -175661.48, -174821.45, -174899.42, 187500.00, -0.014, -0.016, 0.972, 15:44:53.302, 1578577493302
201, -187500.02, -187500.02, -187500.02, 187500.00, -187500.02, 187500.00, -187500.02, -187500.02, 0.000, 0.000, 0.000, 15:44:53.302, 1578577493302
202, -174143.64, -175679.28, -175059.70, -175591.39, -175764.28, -174923.20, -174983.47, 187500.00, 0.000, 0.000, 0.000, 15:44:53.302, 1578577493302
203, -187500.02, -187500.02, -187500.02, 187500.00, -187500.02, 187500.00, -187500.02, -187500.02, 0.000, 0.000, 0.000, 15:44:53.302, 1578577493302
204, -174242.17, -175781.05, -175151.95, -175680.97, -175863.88, -175021.81, -175066.36, 187500.00, 0.000, 0.000, 0.000, 15:44:53.302, 1578577493302
205, -187500.02, -187500.02, -187500.02, 187500.00, -187500.02, 187500.00, -187500.02, -187500.02, 0.000, 0.000, 0.000, 15:44:53.303, 1578577493303
206, -174343.31, -175884.39, -175245.69, -175773.73, -175966.73, -175123.44, -175150.67, 187500.00, 0.000, 0.000, 0.000, 15:44:53.303, 1578577493303
207, -187500.02, -187500.02, -187500.02, 187500.00, -187500.02, 187500.00, -187500.02, -187500.02, 0.000, 0.000, 0.000, 15:44:53.303, 1578577493303
208, -174440.41, -175985.41, -175336.94, -175864.66, -176065.98, -175220.45, -175232.39, 187500.00, 0.000, 0.000, 0.000, 15:44:53.303, 1578577493303
209, -187500.02, -187500.02, -187500.02, 187500.00, -187500.02, 187500.00, -187500.02, -187500.02, -0.014, -0.024, 0.976, 15:44:53.303, 1578577493303
210, -174535.38, -176083.13, -175424.89, -175952.30, -176162.19, -175315.16, -175310.88, 187500.00, 0.000, 0.000, 0.000, 15:44:53.303, 1578577493303
211, -187500.02, -187500.02, -187500.02, 187500.00, -187500.02, 187500.00, -187500.02, -187500.02, 0.000, 0.000, 0.000, 15:44:53.303, 1578577493303
212, -174634.91, -176185.67, -175519.14, -176043.98, -176263.14, -175415.08, -175395.14, 187500.00, 0.000, 0.000, 0.000, 15:44:53.303, 1578577493303
213, -187500.02, -187500.02, -187500.02, 187500.00, -187500.02, 187500.00, -187500.02, -187500.02, 0.000, 0.000, 0.000, 15:44:53.303, 1578577493303
214, -174730.02, -176283.02, -175606.70, -176130.95, -176360.05, -175509.41, -175473.95, 187500.00, 0.000, 0.000, 0.000, 15:44:53.303, 1578577493303
215, -187500.02, -187500.02, -187500.02, 187500.00, -187500.02, 187500.00, -187500.02, -187500.02, 0.000, 0.000, 0.000, 15:44:53.303, 1578577493303
216, -174824.83, -176381.23, -175694.03, -176218.33, -176455.81, -175603.50, -175552.42, 187500.00, 0.000, 0.000, 0.000, 15:44:53.303, 1578577493303
217, -187500.02, -187500.02, -187500.02, 187500.00, -187500.02, 187500.00, -187500.02, -187500.02, 0.000, 0.000, 0.000, 15:44:53.303, 1578577493303
218, -174916.50, -176476.50, -175777.83, -176302.33, -176549.61, -175695.81, -175628.67, 187500.00, 0.000, 0.000, 0.000, 15:44:53.304, 1578577493304
219, -187500.02, -187500.02, -187500.02, 187500.00, -187500.02, 187500.00, -187500.02, -187500.02, -0.016, -0.018, 0.970, 15:44:53.304, 1578577493304
220, -175006.98, -176570.34, -175861.55, -176384.25, -176641.73, -175786.31, -175701.94, 187500.00, 0.000, 0.000, 0.000, 15:44:53.304, 1578577493304
221, -187500.02, -187500.02, -187500.02, 187500.00, -187500.02, 187500.00, -187500.02, -187500.02, 0.000, 0.000, 0.000, 15:44:53.304, 1578577493304
222, -175101.41, -176668.31, -175947.97, -176469.28, -176737.31, -175880.11, -175778.06, 187500.00, 0.000, 0.000, 0.000, 15:44:53.304, 1578577493304
223, -187500.02, -187500.02, -187500.02, 187500.00, -187500.02, 187500.00, -187500.02, -187500.02, 0.000, 0.000, 0.000, 15:44:53.304, 1578577493304
224, -175188.25, -176758.28, -176026.19, -176547.64, -176824.22, -175966.06, -175846.84, 187500.00, 0.000, 0.000, 0.000, 15:44:53.304, 1578577493304
225, -187500.02, -187500.02, -187500.02, 187500.00, -187500.02, 187500.00, -187500.02, -187500.02, 0.000, 0.000, 0.000, 15:44:53.304, 1578577493304
226, -175276.11, -176851.64, -176108.11, -176628.86, -176915.22, -176054.20, -175918.22, 187500.00, 0.000, 0.000, 0.000, 15:44:53.775, 1578577493775
227, -187500.02, -187500.02, -187500.02, 187500.00, -187500.02, 187500.00, -187500.02, -187500.02, 0.000, 0.000, 0.000, 15:44:53.775, 1578577493775
228, -175367.94, -176947.72, -176192.98, -176713.05, -177009.58, -176145.86, -175993.92, 187500.00, 0.000, 0.000, 0.000, 15:44:53.775, 1578577493775
229, -187500.02, -187500.02, -187500.02, 187500.00, -187500.02, 187500.00, -187500.02, -187500.02, -0.020, -0.018, 0.972, 15:44:53.775, 1578577493775
230, -175463.02, -177046.75, -176279.84, -176799.41, -177106.13, -176240.48, -176071.41, 187500.00, 0.000, 0.000, 0.000, 15:44:53.775, 1578577493775
231, -187500.02, -187500.02, -187500.02, 187500.00, -187500.02, 187500.00, -187500.02, -187500.02, 0.000, 0.000, 0.000, 15:44:53.776, 1578577493776
232, -175563.88, -177153.66, -176373.61, -176893.17, -177211.39, -176341.67, -176155.80, 187500.00, 0.000, 0.000, 0.000, 15:44:53.776, 1578577493776
233, -187500.02, -187500.02, -187500.02, 187500.00, -187500.02, 187500.00, -187500.02, -187500.02, 0.000, 0.000, 0.000, 15:44:53.776, 1578577493776
234, -175664.56, -177261.64, -176468.56, -176988.89, -177317.23, -176443.86, -176240.73, 187500.00, 0.000, 0.000, 0.000, 15:44:53.776, 1578577493776
235, -187500.02, -187500.02, -187500.02, 187500.00, -187500.02, 187500.00, -187500.02, -187500.02, 0.000, 0.000, 0.000, 15:44:53.776, 1578577493776
236, -175773.98, -177380.22, -176573.14, -177091.88, -177433.06, -176554.23, -176333.31, 187500.00, 0.000, 0.000, 0.000, 15:44:53.776, 1578577493776
237, -187500.02, -187500.02, -187500.02, 187500.00, -187500.02, 187500.00, -187500.02, -187500.02, 0.000, 0.000, 0.000, 15:44:53.776, 1578577493776
238, -175884.89, -177500.81, -176678.28, -177198.30, -177551.95, -176667.27, -176428.22, 187500.00, 0.000, 0.000, 0.000, 15:44:53.776, 1578577493776
239, -187500.02, -187500.02, -187500.02, 187500.00, -187500.02, 187500.00, -187500.02, -187500.02, -0.018, -0.014, 0.974, 15:44:53.776, 1578577493776
240, -175991.13, -177618.72, -176780.52, -177300.58, -177667.34, -176775.42, -176520.70, 187500.00, 0.000, 0.000, 0.000, 15:44:53.776, 1578577493776
241, -187500.02, -187500.02, -187500.02, 187500.00, -187500.02, 187500.00, -187500.02, -187500.02, 0.000, 0.000, 0.000, 15:44:53.776, 1578577493776
242, -176101.63, -177740.66, -176886.53, -177407.28, -177787.84, -176889.20, -176615.66, 187500.00, 0.000, 0.000, 0.000, 15:44:53.776, 1578577493776
243, -187500.02, -187500.02, -187500.02, 187500.00, -187500.02, 187500.00, -187500.02, -187500.02, 0.000, 0.000, 0.000, 15:44:53.776, 1578577493776
244, -176209.81, -177860.94, -176990.11, -177511.52, -177905.75, -177000.16, -176708.38, 187500.00, 0.000, 0.000, 0.000, 15:44:53.776, 1578577493776
245, -187500.02, -187500.02, -187500.02, 187500.00, -187500.02, 187500.00, -187500.02, -187500.02, 0.000, 0.000, 0.000, 15:44:53.776, 1578577493776
246, -176320.25, -177983.06, -177095.09, -177618.06, -178026.14, -177112.92, -176802.41, 187500.00, 0.000, 0.000, 0.000, 15:44:53.776, 1578577493776
247, -187500.02, -187500.02, -187500.02, 187500.00, -187500.02, 187500.00, -187500.02, -187500.02, 0.000, 0.000, 0.000, 15:44:53.776, 1578577493776
248, -176427.61, -178102.63, -177198.09, -177722.27, -178144.88, -177223.78, -176893.58, 187500.00, -0.020, -0.018, 0.976, 15:44:53.776, 1578577493776
249, -187500.02, -187500.02, -187500.02, 187500.00, -187500.02, 187500.00, -187500.02, -187500.02, 0.000, 0.000, 0.000, 15:44:53.777, 1578577493777
250, -176532.17, -178219.66, -177297.25, -177823.88, -178260.08, -177331.09, -176981.89, 187500.00, 0.000, 0.000, 0.000, 15:44:53.777, 1578577493777
251, -187500.02, -187500.02, -187500.02, 187500.00, -187500.02, 187500.00, -187500.02, -187500.02, 0.000, 0.000, 0.000, 15:44:53.777, 1578577493777
252, -176641.03, -178341.61, -177402.09, -177930.11, -178381.69, -177443.23, -177074.67, 187500.00, 0.000, 0.000, 0.000, 15:44:53.777, 1578577493777
253, -187500.02, -187500.02, -187500.02, 187500.00, -187500.02, 187500.00, -187500.02, -187500.02, 0.000, 0.000, 0.000, 15:44:53.777, 1578577493777
254, -176745.03, -178455.77, -177501.86, -178031.28, -178496.44, -177551.52, -177161.86, 187500.00, 0.000, 0.000, 0.000, 15:44:53.777, 1578577493777
255, -187500.02, -187500.02, -187500.02, 187500.00, -187500.02, 187500.00, -187500.02, -187500.02, 0.000, 0.000, 0.000, 15:44:53.777, 1578577493777
0, -176848.67, -178568.17, -177601.19, -178133.09, -178610.73, -177658.72, -177248.56, 187500.00, 0.000, 0.000, 0.000, 15:44:53.777, 1578577493777
1, -187500.02, -187500.02, -187500.02, 187500.00, -187500.02, 187500.00, -187500.02, -187500.02, 0.000, 0.000, 0.000, 15:44:53.777, 1578577493777
2, -176951.28, -178678.45, -177699.94, -178234.33, -178721.59, -177765.77, -177335.20, 187500.00, -0.016, -0.016, 0.974, 15:44:53.777, 1578577493777
3, -187500.02, -187500.02, -187500.02, 187500.00, -187500.02, 187500.00, -187500.02, -187500.02, 0.000, 0.000, 0.000, 15:44:53.777, 1578577493777
4, -177054.05, -178783.47, -177799.11, -178333.81, -178829.58, -177873.70, -177420.91, 187500.00, 0.000, 0.000, 0.000, 15:44:53.777, 1578577493777
5, -187500.02, -187500.02, -187500.02, 187500.00, -187500.02, 187500.00, -187500.02, -187500.02, 0.000, 0.000, 0.000, 15:44:53.777, 1578577493777
6, -177160.95, -178890.84, -177903.39, -178436.94, -178939.28, -177984.61, -177511.30, 187500.00, 0.000, 0.000, 0.000, 15:44:53.777, 1578577493777
7, -187500.02, -187500.02, -187500.02, 187500.00, -187500.02, 187500.00, -187500.02, -187500.02, 0.000, 0.000, 0.000, 15:44:53.777, 1578577493777
8, -177261.78, -178988.50, -178000.44, -178534.34, -179040.02, -178090.83, -177595.73, 187500.00, 0.000, 0.000, 0.000, 15:44:53.777, 1578577493777
9, -187500.02, -187500.02, -187500.02, 187500.00, -187500.02, 187500.00, -187500.02, -187500.02, 0.000, 0.000, 0.000, 15:44:53.777, 1578577493777
10, -177368.22, -179084.83, -178101.05, -178634.33, -179140.75, -178199.91, -177683.84, 187500.00, 0.000, 0.000, 0.000, 15:44:53.777, 1578577493777
11, -187500.02, -187500.02, -187500.02, 187500.00, -187500.02, 187500.00, -187500.02, -187500.02, 0.000, 0.000, 0.000, 15:44:53.778, 1578577493778
12, -177476.16, -179184.20, -178204.80, -178736.97, -179241.34, -178312.73, -177774.73, 187500.00, -0.020, -0.014, 0.972, 15:44:53.778, 1578577493778
13, -187500.02, -187500.02, -187500.02, 187500.00, -187500.02, 187500.00, -187500.02, -187500.02, 0.000, 0.000, 0.000, 15:44:53.778, 1578577493778
14, -177584.33, -179260.53, -178309.69, -178835.72, -179338.17, -178423.38, -177866.25, 187500.00, 0.000, 0.000, 0.000, 15:44:53.778, 1578577493778
15, -187500.02, -187500.02, -187500.02, 187500.00, -187500.02, 187500.00, -187500.02, -187500.02, 0.000, 0.000, 0.000, 15:44:53.778, 1578577493778
16, -177697.44, -179289.77, -178418.33, -178938.66, -179422.92, -178537.77, -177961.41, 187500.00, 0.000, 0.000, 0.000, 15:44:53.778, 1578577493778
17, -187500.02, -187500.02, -187500.02, 187500.00, -187500.02, 187500.00, -187500.02, -187500.02, 0.000, 0.000, 0.000, 15:44:53.778, 1578577493778
18, -177807.72, -179307.41, -178523.48, -179035.55, -179459.25, -178649.06, -178053.97, 187500.00, 0.000, 0.000, 0.000, 15:44:53.778, 1578577493778
19, -187500.02, -187500.02, -187500.02, 187500.00, -187500.02, 187500.00, -187500.02, -187500.02, 0.000, 0.000, 0.000, 15:44:53.778, 1578577493778
20, -177925.36, -179323.02, -178635.69, -179134.70, -179478.31, -178763.50, -178153.13, 187500.00, 0.000, 0.000, 0.000, 15:44:53.778, 1578577493778
21, -187500.02, -187500.02, -187500.02, 187500.00, -187500.02, 187500.00, -187500.02, -187500.02, 0.000, 0.000, 0.000, 15:44:53.778, 1578577493778
22, -178044.83, -179334.80, -178747.08, -179232.70, -179491.50, -178877.73, -178253.86, 187500.00, -0.016, -0.018, 0.980, 15:44:53.778, 1578577493778
23, -187500.02, -187500.02, -187500.02, 187500.00, -187500.02, 187500.00, -187500.02, -187500.02, 0.000, 0.000, 0.000, 15:44:53.778, 1578577493778
24, -178160.56, -179348.47, -178852.42, -179325.22, -179505.63, -178985.03, -178350.39, 187500.00, 0.000, 0.000, 0.000, 15:44:53.778, 1578577493778
25, -187500.02, -187500.02, -187500.02, 187500.00, -187500.02, 187500.00, -187500.02, -187500.02, 0.000, 0.000, 0.000, 15:44:53.778, 1578577493778
26, -178281.64, -179358.08, -178961.50, -179422.25, -179515.53, -179094.42, -178452.19, 187500.00, 0.000, 0.000, 0.000, 15:44:53.778, 1578577493778
27, -187500.02, -187500.02, -187500.02, 187500.00, -187500.02, 187500.00, -187500.02, -187500.02, 0.000, 0.000, 0.000, 15:44:53.778, 1578577493778
28, -178401.11, -179368.45, -179066.13, -179503.30, -179525.94, -179199.31, -178552.55, 187500.00, 0.000, 0.000, 0.000, 15:44:53.779, 1578577493779
29, -187500.02, -187500.02, -187500.02, 187500.00, -187500.02, 187500.00, -187500.02, -187500.02, 0.000, 0.000, 0.000, 15:44:53.779, 1578577493779
30, -178522.75, -179381.02, -179170.48, -179541.98, -179538.69, -179304.06, -178655.28, 187500.00, 0.000, 0.000, 0.000, 15:44:53.779, 1578577493779
31, -187500.02, -187500.02, -187500.02, 187500.00, -187500.02, 187500.00, -187500.02, -187500.02, -0.018, -0.016, 0.978, 15:44:53.779, 1578577493779
32, -178640.48, -179393.59, -179269.55, -179560.31, -179552.89, -179406.56, -178754.05, 187500.00, 0.000, 0.000, 0.000, 15:44:53.779, 1578577493779
33, -187500.02, -187500.02, -187500.02, 187500.00, -187500.02, 187500.00, -187500.02, -187500.02, 0.000, 0.000, 0.000, 15:44:53.779, 1578577493779
34, -178754.98, -179402.73, -179363.28, -179572.05, -179563.34, -179481.97, -178849.36, 187500.00, 0.000, 0.000, 0.000, 15:44:53.779, 1578577493779
35, -187500.02, -187500.02, -187500.02, 187500.00, -187500.02, 187500.00, -187500.02, -187500.02, 0.000, 0.000, 0.000, 15:44:53.779, 1578577493779
36, -178870.75, -179416.64, -179462.63, -179588.84, -179577.28, -179513.92, -178949.80, 187500.00, 0.000, 0.000, 0.000, 15:44:53.779, 1578577493779
37, -187500.02, -187500.02, -187500.02, 187500.00, -187500.02, 187500.00, -187500.02, -187500.02, 0.000, 0.000, 0.000, 15:44:53.779, 1578577493779
38, -178980.88, -179425.58, -179548.58, -179601.58, -179586.17, -179527.89, -179044.11, 187500.00, 0.000, 0.000, 0.000, 15:44:53.779, 1578577493779
39, -187500.02, -187500.02, -187500.02, 187500.00, -187500.02, 187500.00, -187500.02, -187500.02, 0.000, 0.000, 0.000, 15:44:53.779, 1578577493779
40, -179087.63, -179437.05, -179593.80, -179614.20, -179597.47, -179541.56, -179136.80, 187500.00, 0.000, 0.000, 0.000, 15:44:53.779, 1578577493779
41, -187500.02, -187500.02, -187500.02, 187500.00, -187500.02, 187500.00, -187500.02, -187500.02, -0.018, -0.018, 0.974, 15:44:53.779, 1578577493779
42, -179190.84, -179447.86, -179611.61, -179625.36, -179608.08, -179553.64, -179228.23, 187500.00, 0.000, 0.000, 0.000, 15:44:53.779, 1578577493779
43, -187500.02, -187500.02, -187500.02, 187500.00, -187500.02, 187500.00, -187500.02, -187500.02, 0.000, 0.000, 0.000, 15:44:53.779, 1578577493779
44, -179290.00, -179458.91, -179625.25, -179636.31, -179618.67, -179565.28, -179315.33, 187500.00, 0.000, 0.000, 0.000, 15:44:53.780, 1578577493780
45, -187500.02, -187500.02, -187500.02, 187500.00, -187500.02, 187500.00, -187500.02, -187500.02, 0.000, 0.000, 0.000, 15:44:53.780, 1578577493780
46, -179392.61, -179473.81, -179639.17, -179648.63, -179631.06, -179578.30, -179404.75, 187500.00, 0.000, 0.000, 0.000, 15:44:53.780, 1578577493780
47, -187500.02, -187500.02, -187500.02, 187500.00, -187500.02, 187500.00, -187500.02, -187500.02, 0.000, 0.000, 0.000, 15:44:53.780, 1578577493780
48, -179463.14, -179486.33, -179650.83, -179659.34, -179641.67, -179589.47, -179486.69, 187500.00, 0.000, 0.000, 0.000, 15:44:53.780, 1578577493780
49, -187500.02, -187500.02, -187500.02, 187500.00, -187500.02, 187500.00, -187500.02, -187500.02, 0.000, 0.000, 0.000, 15:44:53.780, 1578577493780
50, -179488.81, -179497.33, -179662.67, -179670.47, -179652.50, -179600.80, -179567.92, 187500.00, 0.000, 0.000, 0.000, 15:44:53.780, 1578577493780
51, -187500.02, -187500.02, -187500.02, 187500.00, -187500.02, 187500.00, -187500.02, -187500.02, -0.018, -0.014, 0.978, 15:44:53.780, 1578577493780
52, -179503.81, -179507.38, -179673.33, -179680.69, -179662.53, -179611.14, -179650.55, 187500.00, 0.000, 0.000, 0.000, 15:44:53.780, 1578577493780
53, -187500.02, -187500.02, -187500.02, 187500.00, -187500.02, 187500.00, -187500.02, -187500.02, 0.000, 0.000, 0.000, 15:44:53.780, 1578577493780
54, -179518.08, -179519.23, -179685.72, -179692.81, -179674.41, -179623.27, -179722.02, 187500.00, 0.000, 0.000, 0.000, 15:44:53.780, 1578577493780
55, -187500.02, -187500.02, -187500.02, 187500.00, -187500.02, 187500.00, -187500.02, -187500.02, 0.000, 0.000, 0.000, 15:44:53.780, 1578577493780
56, -179531.16, -179530.70, -179697.58, -179704.42, -179685.84, -179634.89, -179759.70, 187500.00, 0.000, 0.000, 0.000, 15:44:53.780, 1578577493780
57, -187500.02, -187500.02, -187500.02, 187500.00, -187500.02, 187500.00, -187500.02, -187500.02, 0.000, 0.000, 0.000, 15:44:53.780, 1578577493780
58, -179540.88, -179539.27, -179706.48, -179713.14, -179694.36, -179643.67, -179774.67, 187500.00, 0.000, 0.000, 0.000, 15:44:53.781, 1578577493781
59, -187500.02, -187500.02, -187500.02, 187500.00, -187500.02, 187500.00, -187500.02, -187500.02, 0.000, 0.000, 0.000, 15:44:53.781, 1578577493781
60, -179551.77, -179549.25, -179716.84, -179723.33, -179704.38, -179653.84, -179788.11, 187500.00, 0.000, 0.000, 0.000, 15:44:53.781, 1578577493781
61, -187500.02, -187500.02, -187500.02, 187500.00, -187500.02, 187500.00, -187500.02, -187500.02, -0.020, -0.014, 0.978, 15:44:53.781, 1578577493781
62, -179562.91, -179559.64, -179727.47, -179733.75, -179714.86, -179664.48, -179800.56, 187500.00, 0.000, 0.000, 0.000, 15:44:53.781, 1578577493781
63, -187500.02, -187500.02, -187500.02, 187500.00, -187500.02, 187500.00, -187500.02, -187500.02, 0.000, 0.000, 0.000, 15:44:53.781, 1578577493781
64, -179572.67, -179569.08, -179737.08, -179743.22, -179724.27, -179674.00, -179811.23, 187500.00, 0.000, 0.000, 0.000, 15:44:53.781, 1578577493781
65, -187500.02, -187500.02, -187500.02, 187500.00, -187500.02, 187500.00, -187500.02, -187500.02, 0.000, 0.000, 0.000, 15:44:53.781, 1578577493781
66, -179583.25, -179579.20, -179747.42, -179753.39, -179734.27, -179684.14, -179822.28, 187500.00, 0.000, 0.000, 0.000, 15:44:53.781, 1578577493781
67, -187500.02, -187500.02, -187500.02, 187500.00, -187500.02, 187500.00, -187500.02, -187500.02, 0.000, 0.000, 0.000, 15:44:53.781, 1578577493781
68, -179594.06, -179589.67, -179758.05, -179764.02, -179744.75, -179694.81, -179833.45, 187500.00, 0.000, 0.000, 0.000, 15:44:53.781, 1578577493781
69, -187500.02, -187500.02, -187500.02, 187500.00, -187500.02, 187500.00, -187500.02, -187500.02, 0.000, 0.000, 0.000, 15:44:53.781, 1578577493781
70, -179603.88, -179599.30, -179767.78, -179773.70, -179754.28, -179704.47, -179843.69, 187500.00, -0.020, -0.014, 0.976, 15:44:53.781, 1578577493781
71, -187500.02, -187500.02, -187500.02, 187500.00, -187500.02, 187500.00, -187500.02, -187500.02, 0.000, 0.000, 0.000, 15:44:53.781, 1578577493781
72, -179615.13, -179610.16, -179778.73, -179784.58, -179765.22, -179715.50, -179855.05, 187500.00, 0.000, 0.000, 0.000, 15:44:53.782, 1578577493782
73, -187500.02, -187500.02, -187500.02, 187500.00, -187500.02, 187500.00, -187500.02, -187500.02, 0.000, 0.000, 0.000, 15:44:53.782, 1578577493782
74, -179625.39, -179620.25, -179788.98, -179794.72, -179775.30, -179725.63, -179865.48, 187500.00, 0.000, 0.000, 0.000, 15:44:53.782, 1578577493782
75, -187500.02, -187500.02, -187500.02, 187500.00, -187500.02, 187500.00, -187500.02, -187500.02, 0.000, 0.000, 0.000, 15:44:53.782, 1578577493782
76, -179636.63, -179631.23, -179800.08, -179805.81, -179786.34, -179736.73, -179876.84, 187500.00, 0.000, 0.000, 0.000, 15:44:53.782, 1578577493782
77, -187500.02, -187500.02, -187500.02, 187500.00, -187500.02, 187500.00, -187500.02, -187500.02, 0.000, 0.000, 0.000, 15:44:53.782, 1578577493782
78, -179647.41, -179641.86, -179810.69, -179816.38, -179796.84, -179747.41, -179887.59, 187500.00, 0.000, 0.000, 0.000, 15:44:53.782, 1578577493782
79, -187500.02, -187500.02, -187500.02, 187500.00, -187500.02, 187500.00, -187500.02, -187500.02, 0.000, 0.000, 0.000, 15:44:53.782, 1578577493782
80, -179656.77, -179651.22, -179820.16, -179825.72, -179806.14, -179756.81, -179897.22, 187500.00, -0.018, -0.018, 0.972, 15:44:53.782, 1578577493782
81, -187500.02, -187500.02, -187500.02, 187500.00, -187500.02, 187500.00, -187500.02, -187500.02, 0.000, 0.000, 0.000, 15:44:53.782, 1578577493782
82, -179668.03, -179662.22, -179831.20, -179836.81, -179817.19, -179767.81, -179908.48, 187500.00, 0.000, 0.000, 0.000, 15:44:53.782, 1578577493782
83, -187500.02, -187500.02, -187500.02, 187500.00, -187500.02, 187500.00, -187500.02, -187500.02, 0.000, 0.000, 0.000, 15:44:53.782, 1578577493782
84, -179677.00, -179671.08, -179840.20, -179845.66, -179826.03, -179776.66, -179917.55, 187500.00, 0.000, 0.000, 0.000, 15:44:53.782, 1578577493782
85, -187500.02, -187500.02, -187500.02, 187500.00, -187500.02, 187500.00, -187500.02, -187500.02, 0.000, 0.000, 0.000, 15:44:53.782, 1578577493782
86, -179685.95, -179679.92, -179849.13, -179854.58, -179834.89, -179785.58, -179926.50, 187500.00, 0.000, 0.000, 0.000, 15:44:53.782, 1578577493782
87, -187500.02, -187500.02, -187500.02, 187500.00, -187500.02, 187500.00, -187500.02, -187500.02, 0.000, 0.000, 0.000, 15:44:53.782, 1578577493782
88, -179695.45, -179689.27, -179858.41, -179863.97, -179844.28, -179795.03, -179935.92, 187500.00, 0.000, 0.000, 0.000, 15:44:53.782, 1578577493782
89, -187500.02, -187500.02, -187500.02, 187500.00, -187500.02, 187500.00, -187500.02, -187500.02, 0.000, 0.000, 0.000, 15:44:53.782, 1578577493782
90, -179701.41, -179695.08, -179864.25, -179869.80, -179850.00, -179800.78, -179941.80, 187500.00, -0.022, -0.020, 0.972, 15:44:54.255, 1578577494255
91, -187500.02, -187500.02, -187500.02, 187500.00, -187500.02, 187500.00, -187500.02, -187500.02, 0.000, 0.000, 0.000, 15:44:54.255, 1578577494255
92, -179710.77, -179704.33, -179873.58, -179878.94, -179859.30, -179810.03, -179951.14, 187500.00, 0.000, 0.000, 0.000, 15:44:54.255, 1578577494255
93, -187500.02, -187500.02, -187500.02, 187500.00, -187500.02, 187500.00, -187500.02, -187500.02, 0.000, 0.000, 0.000, 15:44:54.255, 1578577494255
94, -179717.47, -179710.95, -179880.33, -179885.78, -179865.98, -179816.81, -179957.98, 187500.00, 0.000, 0.000, 0.000, 15:44:54.255, 1578577494255
95, -187500.02, -187500.02, -187500.02, 187500.00, -187500.02, 187500.00, -187500.02, -187500.02, 0.000, 0.000, 0.000, 15:44:54.257, 1578577494257
96, -179724.47, -179717.78, -179887.19, -179892.59, -179872.80, -179823.67, -179964.95, 187500.00, 0.000, 0.000, 0.000, 15:44:54.257, 1578577494257
97, -187500.02, -187500.02, -187500.02, 187500.00, -187500.02, 187500.00, -187500.02, -187500.02, 0.000, 0.000, 0.000, 15:44:54.257, 1578577494257
98, -179731.52, -179724.94, -179894.30, -179899.78, -179879.92, -179830.80, -179972.08, 187500.00, 0.000, 0.000, 0.000, 15:44:54.257, 1578577494257
99, -187500.02, -187500.02, -187500.02, 187500.00, -187500.02, 187500.00, -187500.02, -187500.02, 0.000, 0.000, 0.000, 15:44:54.257, 1578577494257
100, -179742.78, -179736.05, -179905.42, -179910.89, -179891.06, -179842.00, -179983.23, 187500.00, -0.018, -0.018, 0.962, 15:44:54.257, 1578577494257
101, -187500.02, -187500.02, -187500.02, 187500.00, -187500.02, 187500.00, -187500.02, -187500.02, 0.000, 0.000, 0.000, 15:44:54.257, 1578577494257
102, -179751.81, -179745.08, -179914.48, -179919.91, -179899.95, -179850.95, -179992.27, 187500.00, 0.000, 0.000, 0.000, 15:44:54.257, 1578577494257
103, -187500.02, -187500.02, -187500.02, 187500.00, -187500.02, 187500.00, -187500.02, -187500.02, 0.000, 0.000, 0.000, 15:44:54.257, 1578577494257
104, -179761.42, -179754.53, -179924.09, -179929.39, -179909.45, -179860.56, -180001.88, 187500.00, 0.000, 0.000, 0.000, 15:44:54.257, 1578577494257
105, -187500.02, -187500.02, -187500.02, 187500.00, -187500.02, 187500.00, -187500.02, -187500.02, 0.000, 0.000, 0.000, 15:44:54.257, 1578577494257
106, -179775.59, -179768.75, -179938.36, -179943.56, -179923.52, -179874.72, -180016.03, 187500.00, 0.000, 0.000, 0.000, 15:44:54.257, 1578577494257
107, -187500.02, -187500.02, -187500.02, 187500.00, -187500.02, 187500.00, -187500.02, -187500.02, 0.000, 0.000, 0.000, 15:44:54.257, 1578577494257
108, -179784.22, -179777.28, -179946.94, -179952.17, -179932.03, -179883.23, -180024.72, 187500.00, 0.000, 0.000, 0.000, 15:44:54.257, 1578577494257
109, -187500.02, -187500.02, -187500.02, 187500.00, -187500.02, 187500.00, -187500.02, -187500.02, 0.000, 0.000, 0.000, 15:44:54.257, 1578577494257
110, -179794.36, -179787.30, -179957.00, -179962.16, -179942.06, -179893.25, -180034.88, 187500.00, -0.022, -0.016, 0.976, 15:44:54.257, 1578577494257
111, -187500.02, -187500.02, -187500.02, 187500.00, -187500.02, 187500.00, -187500.02, -187500.02, 0.000, 0.000, 0.000, 15:44:54.257, 1578577494257
112, -179805.19, -179798.09, -179967.77, -179973.02, -179952.91, -179904.16, -180045.64, 187500.00, 0.000, 0.000, 0.000, 15:44:54.258, 1578577494258
113, -187500.02, -187500.02, -187500.02, 187500.00, -187500.02, 187500.00, -187500.02, -187500.02, 0.000, 0.000, 0.000, 15:44:54.258, 1578577494258
114, -179815.69, -179808.64, -179978.31, -179983.58, -179963.45, -179914.61, -180056.19, 187500.00, 0.000, 0.000, 0.000, 15:44:54.258, 1578577494258
115, -187500.02, -187500.02, -187500.02, 187500.00, -187500.02, 187500.00, -187500.02, -187500.02, 0.000, 0.000, 0.000, 15:44:54.258, 1578577494258
116, -179824.92, -179817.67, -179987.45, -179992.67, -179972.59, -179923.77, -180065.41, 187500.00, 0.000, 0.000, 0.000, 15:44:54.258, 1578577494258
117, -187500.02, -187500.02, -187500.02, 187500.00, -187500.02, 187500.00, -187500.02, -187500.02, 0.000, 0.000, 0.000, 15:44:54.258, 1578577494258
118, -179832.98, -179825.72, -179995.48, -180000.72, -179980.55, -179931.84, -180073.50, 187500.00, 0.000, 0.000, 0.000, 15:44:54.258, 1578577494258
119, -187500.02, -187500.02, -187500.02, 187500.00, -187500.02, 187500.00, -187500.02, -187500.02, -0.016, -0.016, 0.972, 15:44:54.258, 1578577494258
120, -179845.75, -179838.53, -180008.31, -180013.36, -179993.27, -179944.50, -180086.25, 187500.00, 0.000, 0.000, 0.000, 15:44:54.258, 1578577494258
121, -187500.02, -187500.02, -187500.02, 187500.00, -187500.02, 187500.00, -187500.02, -187500.02, 0.000, 0.000, 0.000, 15:44:54.258, 1578577494258
122, -179855.83, -179848.50, -180018.39, -180023.45, -180003.28, -179954.58, -180096.33, 187500.00, 0.000, 0.000, 0.000, 15:44:54.258, 1578577494258
123, -187500.02, -187500.02, -187500.02, 187500.00, -187500.02, 187500.00, -187500.02, -187500.02, 0.000, 0.000, 0.000, 15:44:54.258, 1578577494258
124, -179864.70, -179857.34, -180027.20, -180032.33, -180012.19, -179963.39, -180105.23, 187500.00, 0.000, 0.000, 0.000, 15:44:54.258, 1578577494258
125, -187500.02, -187500.02, -187500.02, 187500.00, -187500.02, 187500.00, -187500.02, -187500.02, 0.000, 0.000, 0.000, 15:44:54.258, 1578577494258
126, -179877.22, -179869.67, -180039.66, -180044.77, -180024.59, -179975.86, -180117.66, 187500.00, 0.000, 0.000, 0.000, 15:44:54.258, 1578577494258
127, -187500.02, -187500.02, -187500.02, 187500.00, -187500.02, 187500.00, -187500.02, -187500.02, 0.000, 0.000, 0.000, 15:44:54.258, 1578577494258
128, -179888.05, -179880.48, -180050.42, -180055.56, -180035.34, -179986.67, -180128.39, 187500.00, 0.000, 0.000, 0.000, 15:44:54.258, 1578577494258
129, -187500.02, -187500.02, -187500.02, 187500.00, -187500.02, 187500.00, -187500.02, -187500.02, -0.020, -0.016, 0.974, 15:44:54.258, 1578577494258
130, -179898.50, -179891.03, -180060.94, -180066.03, -180045.84, -179997.20, -180138.88, 187500.00, 0.000, 0.000, 0.000, 15:44:54.259, 1578577494259
131, -187500.02, -187500.02, -187500.02, 187500.00, -187500.02, 187500.00, -187500.02, -187500.02, 0.000, 0.000, 0.000, 15:44:54.259, 1578577494259
132, -179907.80, -179900.31, -180070.20, -180075.38, -180055.05, -180006.38, -180148.14, 187500.00, 0.000, 0.000, 0.000, 15:44:54.259, 1578577494259
133, -187500.02, -187500.02, -187500.02, 187500.00, -187500.02, 187500.00, -187500.02, -187500.02, 0.000, 0.000, 0.000, 15:44:54.259, 1578577494259
134, -179919.11, -179911.44, -180081.42, -180086.56, -180066.30, -180017.61, -180159.41, 187500.00, 0.000, 0.000, 0.000, 15:44:54.259, 1578577494259
135, -187500.02, -187500.02, -187500.02, 187500.00, -187500.02, 187500.00, -187500.02, -187500.02, 0.000, 0.000, 0.000, 15:44:54.259, 1578577494259
136, -179929.06, -179921.39, -180091.33, -180096.50, -180076.11, -180027.56, -180169.34, 187500.00, 0.000, 0.000, 0.000, 15:44:54.259, 1578577494259
137, -187500.02, -187500.02, -187500.02, 187500.00, -187500.02, 187500.00, -187500.02, -187500.02, 0.000, 0.000, 0.000, 15:44:54.259, 1578577494259
138, -179939.06, -179931.47, -180101.48, -180106.64, -180086.19, -180037.69, -180179.39, 187500.00, 0.000, 0.000, 0.000, 15:44:54.259, 1578577494259
139, -187500.02, -187500.02, -187500.02, 187500.00, -187500.02, 187500.00, -187500.02, -187500.02, -0.022, -0.014, 0.978, 15:44:54.259, 1578577494259
140, -179950.42, -179942.73, -180112.91, -180117.84, -180097.52, -180049.00, -180190.66, 187500.00, 0.000, 0.000, 0.000, 15:44:54.259, 1578577494259
141, -187500.02, -187500.02, -187500.02, 187500.00, -187500.02, 187500.00, -187500.02, -187500.02, 0.000, 0.000, 0.000, 15:44:54.259, 1578577494259
142, -179962.38, -179954.67, -180124.81, -180129.78, -180109.41, -180060.86, -180202.63, 187500.00, 0.000, 0.000, 0.000, 15:44:54.259, 1578577494259
143, -187500.02, -187500.02, -187500.02, 187500.00, -187500.02, 187500.00, -187500.02, -187500.02, 0.000, 0.000, 0.000, 15:44:54.259, 1578577494259
144, -179973.06, -179965.38, -180135.45, -180140.48, -180120.14, -180071.59, -180213.42, 187500.00, 0.000, 0.000, 0.000, 15:44:54.259, 1578577494259
145, -187500.02, -187500.02, -187500.02, 187500.00, -187500.02, 187500.00, -187500.02, -187500.02, 0.000, 0.000, 0.000, 15:44:54.259, 1578577494259
146, -179986.08, -179978.31, -180148.44, -180153.48, -180133.02, -180084.58, -180226.42, 187500.00, 0.000, 0.000, 0.000, 15:44:54.259, 1578577494259
147, -187500.02, -187500.02, -187500.02, 187500.00, -187500.02, 187500.00, -187500.02, -187500.02, 0.000, 0.000, 0.000, 15:44:54.259, 1578577494259
148, -179995.73, -179987.95, -180158.03, -180163.06, -180142.61, -180094.13, -180235.86, 187500.00, 0.000, 0.000, 0.000, 15:44:54.259, 1578577494259
149, -187500.02, -187500.02, -187500.02, 187500.00, -187500.02, 187500.00, -187500.02, -187500.02, -0.022, -0.014, 0.978, 15:44:54.259, 1578577494259
150, -180005.81, -179998.02, -180168.17, -180173.19, -180152.66, -180104.27, -180245.95, 187500.00, 0.000, 0.000, 0.000, 15:44:54.260, 1578577494260
151, -187500.02, -187500.02, -187500.02, 187500.00, -187500.02, 187500.00, -187500.02, -187500.02, 0.000, 0.000, 0.000, 15:44:54.260, 1578577494260
152, -180015.52, -180007.78, -180177.81, -180182.84, -180162.28, -180113.88, -180255.59, 187500.00, 0.000, 0.000, 0.000, 15:44:54.260, 1578577494260
153, -187500.02, -187500.02, -187500.02, 187500.00, -187500.02, 187500.00, -187500.02, -187500.02, 0.000, 0.000, 0.000, 15:44:54.260, 1578577494260
154, -180026.06, -180018.19, -180188.38, -180193.34, -180172.80, -180124.45, -180266.09, 187500.00, 0.000, 0.000, 0.000, 15:44:54.260, 1578577494260
155, -187500.02, -187500.02, -187500.02, 187500.00, -187500.02, 187500.00, -187500.02, -187500.02, 0.000, 0.000, 0.000, 15:44:54.260, 1578577494260
156, -180034.64, -180026.70, -180196.86, -180201.97, -180181.41, -180133.00, -180274.70, 187500.00, 0.000, 0.000, 0.000, 15:44:54.260, 1578577494260
157, -187500.02, -187500.02, -187500.02, 187500.00, -187500.02, 187500.00, -187500.02, -187500.02, 0.000, 0.000, 0.000, 15:44:54.260, 1578577494260
158, -180044.41, -180036.56, -180206.73, -180211.83, -180191.27, -180142.78, -180284.58, 187500.00, -0.024, -0.010, 0.978, 15:44:54.260, 1578577494260
159, -187500.02, -187500.02, -187500.02, 187500.00, -187500.02, 187500.00, -187500.02, -187500.02, 0.000, 0.000, 0.000, 15:44:54.260, 1578577494260
160, -180055.67, -180047.86, -180217.97, -180223.09, -180202.50, -180154.14, -180295.77, 187500.00, 0.000, 0.000, 0.000, 15:44:54.260, 1578577494260
161, -187500.02, -187500.02, -187500.02, 187500.00, -187500.02, 187500.00, -187500.02, -187500.02, 0.000, 0.000, 0.000, 15:44:54.260, 1578577494260
162, -180062.72, -180054.81, -180224.97, -180230.06, -180209.50, -180161.09, -180302.73, 187500.00, 0.000, 0.000, 0.000, 15:44:54.260, 1578577494260
163, -187500.02, -187500.02, -187500.02, 187500.00, -187500.02, 187500.00, -187500.02, -187500.02, 0.000, 0.000, 0.000, 15:44:54.260, 1578577494260
164, -180072.59, -180064.69, -180234.81, -180239.98, -180219.27, -180170.97, -180312.59, 187500.00, 0.000, 0.000, 0.000, 15:44:54.260, 1578577494260
165, -187500.02, -187500.02, -187500.02, 187500.00, -187500.02, 187500.00, -187500.02, -187500.02, 0.000, 0.000, 0.000, 15:44:54.260, 1578577494260
166, -180083.75, -180075.81, -180246.05, -180251.17, -180230.42, -180182.17, -180323.66, 187500.00, 0.000, 0.000, 0.000, 15:44:54.260, 1578577494260
167, -187500.02, -187500.02, -187500.02, 187500.00, -187500.02, 187500.00, -187500.02, -187500.02, 0.000, 0.000, 0.000, 15:44:54.260, 1578577494260
168, -180094.44, -180086.34, -180256.63, -180261.67, -180241.05, -180192.63, -180334.20, 187500.00, -0.020, -0.016, 0.976, 15:44:54.260, 1578577494260
169, -187500.02, -187500.02, -187500.02, 187500.00, -187500.02, 187500.00, -187500.02, -187500.02, 0.000, 0.000, 0.000, 15:44:54.261, 1578577494261
170, -180103.28, -180095.22, -180265.31, -180270.41, -180249.80, -180201.39, -180342.89, 187500.00, 0.000, 0.000, 0.000, 15:44:54.261, 1578577494261
171, -187500.02, -187500.02, -187500.02, 187500.00, -187500.02, 187500.00, -187500.02, -187500.02, 0.000, 0.000, 0.000, 15:44:54.261, 1578577494261
172, -180112.91, -180104.83, -180275.02, -180280.06, -180259.34, -180211.06, -180352.55, 187500.00, 0.000, 0.000, 0.000, 15:44:54.261, 1578577494261
173, -187500.02, -187500.02, -187500.02, 187500.00, -187500.02, 187500.00, -187500.02, -187500.02, 0.000, 0.000, 0.000, 15:44:54.261, 1578577494261
174, -180121.34, -180113.19, -180283.44, -180288.38, -180267.80, -180219.53, -180360.95, 187500.00, 0.000, 0.000, 0.000, 15:44:54.261, 1578577494261
175, -187500.02, -187500.02, -187500.02, 187500.00, -187500.02, 187500.00, -187500.02, -187500.02, 0.000, 0.000, 0.000, 15:44:54.261, 1578577494261
176, -180129.73, -180121.69, -180291.91, -180296.78, -180276.20, -180227.92, -180369.34, 187500.00, 0.000, 0.000, 0.000, 15:44:54.261, 1578577494261
177, -187500.02, -187500.02, -187500.02, 187500.00, -187500.02, 187500.00, -187500.02, -187500.02, 0.000, 0.000, 0.000, 15:44:54.261, 1578577494261
178, -180137.84, -180129.69, -180299.92, -180304.92, -180284.20, -180235.97, -180377.39, 187500.00, -0.022, -0.016, 0.978, 15:44:54.261, 1578577494261
179, -187500.02, -187500.02, -187500.02, 187500.00, -187500.02, 187500.00, -187500.02, -187500.02, 0.000, 0.000, 0.000, 15:44:54.261, 1578577494261
180, -180147.86, -180139.67, -180309.91, -180314.84, -180294.23, -180245.94, -180387.44, 187500.00, 0.000, 0.000, 0.000, 15:44:54.261, 1578577494261
181, -187500.02, -187500.02, -187500.02, 187500.00, -187500.02, 187500.00, -187500.02, -187500.02, 0.000, 0.000, 0.000, 15:44:54.261, 1578577494261
182, -180156.89, -180148.66, -180318.98, -180323.91, -180303.27, -180254.92, -180396.41, 187500.00, 0.000, 0.000, 0.000, 15:44:54.261, 1578577494261
183, -187500.02, -187500.02, -187500.02, 187500.00, -187500.02, 187500.00, -187500.02, -187500.02, 0.000, 0.000, 0.000, 15:44:54.261, 1578577494261
184, -180167.70, -180159.59, -180329.78, -180334.81, -180314.06, -180265.84, -180407.22, 187500.00, 0.000, 0.000, 0.000, 15:44:54.261, 1578577494261
185, -187500.02, -187500.02, -187500.02, 187500.00, -187500.02, 187500.00, -187500.02, -187500.02, 0.000, 0.000, 0.000, 15:44:54.261, 1578577494261
186, -180178.05, -180169.73, -180340.06, -180345.09, -180324.38, -180276.11, -180417.55, 187500.00, 0.000, 0.000, 0.000, 15:44:54.261, 1578577494261
187, -187500.02, -187500.02, -187500.02, 187500.00, -187500.02, 187500.00, -187500.02, -187500.02, 0.000, 0.000, 0.000, 15:44:54.261, 1578577494261
188, -180188.78, -180180.53, -180350.78, -180355.86, -180335.09, -180286.86, -180428.22, 187500.00, -0.024, -0.016, 0.976, 15:44:54.261, 1578577494261
189, -187500.02, -187500.02, -187500.02, 187500.00, -187500.02, 187500.00, -187500.02, -187500.02, 0.000, 0.000, 0.000, 15:44:54.262, 1578577494262
190, -180198.27, -180189.98, -180360.27, -180365.23, -180344.48, -180296.20, -180437.69, 187500.00, 0.000, 0.000, 0.000, 15:44:54.262, 1578577494262
191, -187500.02, -187500.02, -187500.02, 187500.00, -187500.02, 187500.00, -187500.02, -187500.02, 0.000, 0.000, 0.000, 15:44:54.262, 1578577494262
192, -180208.59, -180200.31, -180370.56, -180375.48, -180354.77, -180306.59, -180448.00, 187500.00, 0.000, 0.000, 0.000, 15:44:54.262, 1578577494262
193, -187500.02, -187500.02, -187500.02, 187500.00, -187500.02, 187500.00, -187500.02, -187500.02, 0.000, 0.000, 0.000, 15:44:54.262, 1578577494262
194, -180217.55, -180209.30, -180379.53, -180384.38, -180363.70, -180315.55, -180456.89, 187500.00, 0.000, 0.000, 0.000, 15:44:54.262, 1578577494262
195, -187500.02, -187500.02, -187500.02, 187500.00, -187500.02, 187500.00, -187500.02, -187500.02, 0.000, 0.000, 0.000, 15:44:54.262, 1578577494262
196, -180229.70, -180221.30, -180391.61, -180396.59, -180375.80, -180327.63, -180469.08, 187500.00, 0.000, 0.000, 0.000, 15:44:54.262, 1578577494262
197, -187500.02, -187500.02, -187500.02, 187500.00, -187500.02, 187500.00, -187500.02, -187500.02, -0.026, -0.018, 0.976, 15:44:54.262, 1578577494262
198, -180238.88, -180230.52, -180400.75, -180405.80, -180385.02, -180336.80, -180478.19, 187500.00, 0.000, 0.000, 0.000, 15:44:54.262, 1578577494262
199, -187500.02, -187500.02, -187500.02, 187500.00, -187500.02, 187500.00, -187500.02, -187500.02, 0.000, 0.000, 0.000, 15:44:54.262, 1578577494262
200, -180249.25, -180240.91, -180411.09, -180416.13, -180395.41, -180347.22, -180488.59, 187500.00, 0.000, 0.000, 0.000, 15:44:54.262, 1578577494262
201, -187500.02, -187500.02, -187500.02, 187500.00, -187500.02, 187500.00, -187500.02, -187500.02, 0.000, 0.000, 0.000, 15:44:54.262, 1578577494262
202, -180259.59, -180251.19, -180421.47, -180426.42, -180405.66, -180357.52, -180498.78, 187500.00, 0.000, 0.000, 0.000, 15:44:54.262, 1578577494262
203, -187500.02, -187500.02, -187500.02, 187500.00, -187500.02, 187500.00, -187500.02, -187500.02, 0.000, 0.000, 0.000, 15:44:54.262, 1578577494262
204, -180270.61, -180262.19, -180432.48, -180437.45, -180416.64, -180368.48, -180509.84, 187500.00, 0.000, 0.000, 0.000, 15:44:54.262, 1578577494262
205, -187500.02, -187500.02, -187500.02, 187500.00, -187500.02, 187500.00, -187500.02, -187500.02, 0.000, 0.000, 0.000, 15:44:54.262, 1578577494262
206, -180279.55, -180271.19, -180441.42, -180446.39, -180425.67, -180377.47, -180518.83, 187500.00, 0.000, 0.000, 0.000, 15:44:54.262, 1578577494262
207, -187500.02, -187500.02, -187500.02, 187500.00, -187500.02, 187500.00, -187500.02, -187500.02, -0.018, -0.018, 0.982, 15:44:54.262, 1578577494262
208, -180289.55, -180281.14, -180451.34, -180456.33, -180435.56, -180387.44, -180528.73, 187500.00, 0.000, 0.000, 0.000, 15:44:54.263, 1578577494263
209, -187500.02, -187500.02, -187500.02, 187500.00, -187500.02, 187500.00, -187500.02, -187500.02, 0.000, 0.000, 0.000, 15:44:54.263, 1578577494263
210, -180299.25, -180290.73, -180460.98, -180466.03, -180445.25, -180397.08, -180538.31, 187500.00, 0.000, 0.000, 0.000, 15:44:54.736, 1578577494736
211, -187500.02, -187500.02, -187500.02, 187500.00, -187500.02, 187500.00, -187500.02, -187500.02, 0.000, 0.000, 0.000, 15:44:54.736, 1578577494736
212, -180310.08, -180301.70, -180471.89, -180476.92, -180456.27, -180407.94, -180549.23, 187500.00, 0.000, 0.000, 0.000, 15:44:54.736, 1578577494736
213, -187500.02, -187500.02, -187500.02, 187500.00, -187500.02, 187500.00, -187500.02, -187500.02, 0.000, 0.000, 0.000, 15:44:54.736, 1578577494736
214, -180318.56, -180310.13, -180480.41, -180485.33, -180464.63, -180416.44, -180557.70, 187500.00, 0.000, 0.000, 0.000, 15:44:54.736, 1578577494736
215, -187500.02, -187500.02, -187500.02, 187500.00, -187500.02, 187500.00, -187500.02, -187500.02, 0.000, 0.000, 0.000, 15:44:54.736, 1578577494736
216, -180329.38, -180320.97, -180491.16, -180496.16, -180475.38, -180427.20, -180568.34, 187500.00, 0.000, 0.000, 0.000, 15:44:54.737, 1578577494737
217, -187500.02, -187500.02, -187500.02, 187500.00, -187500.02, 187500.00, -187500.02, -187500.02, -0.020, -0.018, 0.978, 15:44:54.737, 1578577494737
218, -180338.52, -180330.02, -180500.25, -180505.23, -180484.50, -180436.23, -180577.44, 187500.00, 0.000, 0.000, 0.000, 15:44:54.737, 1578577494737
219, -187500.02, -187500.02, -187500.02, 187500.00, -187500.02, 187500.00, -187500.02, -187500.02, 0.000, 0.000, 0.000, 15:44:54.737, 1578577494737
220, -180349.00, -180340.64, -180510.78, -180515.77, -180495.05, -180446.77, -180588.00, 187500.00, 0.000, 0.000, 0.000, 15:44:54.737, 1578577494737
221, -187500.02, -187500.02, -187500.02, 187500.00, -187500.02, 187500.00, -187500.02, -187500.02, 0.000, 0.000, 0.000, 15:44:54.737, 1578577494737
222, -180358.50, -180350.16, -180520.28, -180525.27, -180504.45, -180456.31, -180597.48, 187500.00, 0.000, 0.000, 0.000, 15:44:54.737, 1578577494737
223, -187500.02, -187500.02, -187500.02, 187500.00, -187500.02, 187500.00, -187500.02, -187500.02, 0.000, 0.000, 0.000, 15:44:54.737, 1578577494737
224, -180369.86, -180361.52, -180531.59, -180536.64, -180515.78, -180467.59, -180608.81, 187500.00, 0.000, 0.000, 0.000, 15:44:54.737, 1578577494737
225, -187500.02, -187500.02, -187500.02, 187500.00, -187500.02, 187500.00, -187500.02, -187500.02, 0.000, 0.000, 0.000, 15:44:54.737, 1578577494737
226, -180377.59, -180369.19, -180539.30, -180544.33, -180523.48, -180475.28, -180616.58, 187500.00, 0.000, 0.000, 0.000, 15:44:54.737, 1578577494737
227, -187500.02, -187500.02, -187500.02, 187500.00, -187500.02, 187500.00, -187500.02, -187500.02, -0.018, -0.016, 0.974, 15:44:54.737, 1578577494737
228, -180389.72, -180381.33, -180551.48, -180556.38, -180535.66, -180487.45, -180628.70, 187500.00, 0.000, 0.000, 0.000, 15:44:54.737, 1578577494737
229, -187500.02, -187500.02, -187500.02, 187500.00, -187500.02, 187500.00, -187500.02, -187500.02, 0.000, 0.000, 0.000, 15:44:54.738, 1578577494738
230, -180400.91, -180392.47, -180562.66, -180567.56, -180546.67, -180498.58, -180639.75, 187500.00, 0.000, 0.000, 0.000, 15:44:54.738, 1578577494738
231, -187500.02, -187500.02, -187500.02, 187500.00, -187500.02, 187500.00, -187500.02, -187500.02, 0.000, 0.000, 0.000, 15:44:54.738, 1578577494738
232, -180409.33, -180400.97, -180571.17, -180576.11, -180555.27, -180507.14, -180648.22, 187500.00, 0.000, 0.000, 0.000, 15:44:54.738, 1578577494738
233, -187500.02, -187500.02, -187500.02, 187500.00, -187500.02, 187500.00, -187500.02, -187500.02, 0.000, 0.000, 0.000, 15:44:54.738, 1578577494738
234, -180419.25, -180410.84, -180580.88, -180585.89, -180564.97, -180516.97, -180658.02, 187500.00, 0.000, 0.000, 0.000, 15:44:54.738, 1578577494738
235, -187500.02, -187500.02, -187500.02, 187500.00, -187500.02, 187500.00, -187500.02, -187500.02, 0.000, 0.000, 0.000, 15:44:54.738, 1578577494738
236, -180431.67, -180423.23, -180593.34, -180598.28, -180577.39, -180529.41, -180670.48, 187500.00, -0.018, -0.014, 0.976, 15:44:54.738, 1578577494738
237, -187500.02, -187500.02, -187500.02, 187500.00, -187500.02, 187500.00, -187500.02, -187500.02, 0.000, 0.000, 0.000, 15:44:54.738, 1578577494738
238, -180441.89, -180433.31, -180603.50, -180608.45, -180587.58, -180539.59, -180680.61, 187500.00, 0.000, 0.000, 0.000, 15:44:54.738, 1578577494738
239, -187500.02, -187500.02, -187500.02, 187500.00, -187500.02, 187500.00, -187500.02, -187500.02, 0.000, 0.000, 0.000, 15:44:54.738, 1578577494738
240, -180451.17, -180442.66, -180612.81, -180617.80, -180597.00, -180548.80, -180689.94, 187500.00, 0.000, 0.000, 0.000, 15:44:54.738, 1578577494738
241, -187500.02, -187500.02, -187500.02, 187500.00, -187500.02, 187500.00, -187500.02, -187500.02, 0.000, 0.000, 0.000, 15:44:54.738, 1578577494738
242, -180461.30, -180452.75, -180622.97, -180628.00, -180607.03, -180558.97, -180699.88, 187500.00, 0.000, 0.000, 0.000, 15:44:54.739, 1578577494739
243, -187500.02, -187500.02, -187500.02, 187500.00, -187500.02, 187500.00, -187500.02, -187500.02, 0.000, 0.000, 0.000, 15:44:54.739, 1578577494739
244, -180468.53, -180460.09, -180630.20, -180635.28, -180614.25, -180566.28, -180707.13, 187500.00, 0.000, 0.000, 0.000, 15:44:54.739, 1578577494739
245, -187500.02, -187500.02, -187500.02, 187500.00, -187500.02, 187500.00, -187500.02, -187500.02, 0.000, 0.000, 0.000, 15:44:54.739, 1578577494739
246, -180479.63, -180471.22, -180641.39, -180646.39, -180625.45, -180577.33, -180718.27, 187500.00, -0.018, -0.014, 0.976, 15:44:54.739, 1578577494739
247, -187500.02, -187500.02, -187500.02, 187500.00, -187500.02, 187500.00, -187500.02, -187500.02, 0.000, 0.000, 0.000, 15:44:54.739, 1578577494739
248, -180489.48, -180480.98, -180651.11, -180656.19, -180635.14, -180587.05, -180728.00, 187500.00, 0.000, 0.000, 0.000, 15:44:54.739, 1578577494739
249, -187500.02, -187500.02, -187500.02, 187500.00, -187500.02, 187500.00, -187500.02, -187500.02, 0.000, 0.000, 0.000, 15:44:54.739, 1578577494739
250, -180499.86, -180491.30, -180661.36, -180666.42, -180645.34, -180597.28, -180738.33, 187500.00, 0.000, 0.000, 0.000, 15:44:54.739, 1578577494739
251, -187500.02, -187500.02, -187500.02, 187500.00, -187500.02, 187500.00, -187500.02, -187500.02, 0.000, 0.000, 0.000, 15:44:54.739, 1578577494739
252, -180509.75, -180501.38, -180671.45, -180676.50, -180655.44, -180607.34, -180748.36, 187500.00, 0.000, 0.000, 0.000, 15:44:54.739, 1578577494739
253, -187500.02, -187500.02, -187500.02, 187500.00, -187500.02, 187500.00, -187500.02, -187500.02, 0.000, 0.000, 0.000, 15:44:54.739, 1578577494739
254, -180520.06, -180511.67, -180681.75, -180686.72, -180665.72, -180617.72, -180758.63, 187500.00, 0.000, 0.000, 0.000, 15:44:54.739, 1578577494739
255, -187500.02, -187500.02, -187500.02, 187500.00, -187500.02, 187500.00, -187500.02, -187500.02, 0.000, 0.000, 0.000, 15:44:54.739, 1578577494739
0, -180530.89, -180522.36, -180692.53, -180697.52, -180676.55, -180628.44, -180769.28, 187500.00, -0.020, -0.010, 0.972, 15:44:54.740, 1578577494740
1, -187500.02, -187500.02, -187500.02, 187500.00, -187500.02, 187500.00, -187500.02, -187500.02, 0.000, 0.000, 0.000, 15:44:54.740, 1578577494740
2, -180540.28, -180531.72, -180701.91, -180706.94, -180685.94, -180637.72, -180778.73, 187500.00, 0.000, 0.000, 0.000, 15:44:54.740, 1578577494740
3, -187500.02, -187500.02, -187500.02, 187500.00, -187500.02, 187500.00, -187500.02, -187500.02, 0.000, 0.000, 0.000, 15:44:54.740, 1578577494740
4, -180550.92, -180542.45, -180712.53, -180717.61, -180696.50, -180648.47, -180789.38, 187500.00, 0.000, 0.000, 0.000, 15:44:54.740, 1578577494740
5, -187500.02, -187500.02, -187500.02, 187500.00, -187500.02, 187500.00, -187500.02, -187500.02, 0.000, 0.000, 0.000, 15:44:54.740, 1578577494740
6, -180561.47, -180552.88, -180722.94, -180728.00, -180706.89, -180658.95, -180799.72, 187500.00, 0.000, 0.000, 0.000, 15:44:54.740, 1578577494740
7, -187500.02, -187500.02, -187500.02, 187500.00, -187500.02, 187500.00, -187500.02, -187500.02, 0.000, 0.000, 0.000, 15:44:54.740, 1578577494740
8, -180569.75, -180561.16, -180731.27, -180736.28, -180715.08, -180667.16, -180807.92, 187500.00, 0.000, 0.000, 0.000, 15:44:54.740, 1578577494740
9, -187500.02, -187500.02, -187500.02, 187500.00, -187500.02, 187500.00, -187500.02, -187500.02, 0.000, 0.000, 0.000, 15:44:54.740, 1578577494740
10, -180579.47, -180570.86, -180740.98, -180745.98, -180724.80, -180676.91, -180817.66, 187500.00, -0.024, -0.010, 0.974, 15:44:54.740, 1578577494740
11, -187500.02, -187500.02, -187500.02, 187500.00, -187500.02, 187500.00, -187500.02, -187500.02, 0.000, 0.000, 0.000, 15:44:54.740, 1578577494740
12, -180590.58, -180581.92, -180752.16, -180757.02, -180735.91, -180687.92, -180828.67, 187500.00, 0.000, 0.000, 0.000, 15:44:54.740, 1578577494740
13, -187500.02, -187500.02, -187500.02, 187500.00, -187500.02, 187500.00, -187500.02, -187500.02, 0.000, 0.000, 0.000, 15:44:54.740, 1578577494740
14, -180599.63, -180591.06, -180761.14, -180766.13, -180745.00, -180697.06, -180837.86, 187500.00, 0.000, 0.000, 0.000, 15:44:54.740, 1578577494740
15, -187500.02, -187500.02, -187500.02, 187500.00, -187500.02, 187500.00, -187500.02, -187500.02, 0.000, 0.000, 0.000, 15:44:54.741, 1578577494741
16, -180612.77, -180604.25, -180774.31, -180779.36, -180758.27, -180710.22, -180851.00, 187500.00, 0.000, 0.000, 0.000, 15:44:54.741, 1578577494741
17, -187500.02, -187500.02, -187500.02, 187500.00, -187500.02, 187500.00, -187500.02, -187500.02, 0.000, 0.000, 0.000, 15:44:54.741, 1578577494741
18, -180621.02, -180612.45, -180782.56, -180787.63, -180766.42, -180718.50, -180859.16, 187500.00, 0.000, 0.000, 0.000, 15:44:54.744, 1578577494744
19, -187500.02, -187500.02, -187500.02, 187500.00, -187500.02, 187500.00, -187500.02, -187500.02, -0.020, -0.012, 0.976, 15:44:54.744, 1578577494744
20, -180631.44, -180622.92, -180793.00, -180797.98, -180776.83, -180728.80, -180869.53, 187500.00, 0.000, 0.000, 0.000, 15:44:54.744, 1578577494744
21, -187500.02, -187500.02, -187500.02, 187500.00, -187500.02, 187500.00, -187500.02, -187500.02, 0.000, 0.000, 0.000, 15:44:54.744, 1578577494744
22, -180640.67, -180632.05, -180802.06, -180807.09, -180786.02, -180738.03, -180878.67, 187500.00, 0.000, 0.000, 0.000, 15:44:54.744, 1578577494744
23, -187500.02, -187500.02, -187500.02, 187500.00, -187500.02, 187500.00, -187500.02, -187500.02, 0.000, 0.000, 0.000, 15:44:54.744, 1578577494744
24, -180648.33, -180639.78, -180809.84, -180814.88, -180793.67, -180745.70, -180886.38, 187500.00, 0.000, 0.000, 0.000, 15:44:54.744, 1578577494744
25, -187500.02, -187500.02, -187500.02, 187500.00, -187500.02, 187500.00, -187500.02, -187500.02, 0.000, 0.000, 0.000, 15:44:54.744, 1578577494744
26, -180660.66, -180652.06, -180822.14, -180827.17, -180805.98, -180757.98, -180898.58, 187500.00, 0.000, 0.000, 0.000, 15:44:54.744, 1578577494744
27, -187500.02, -187500.02, -187500.02, 187500.00, -187500.02, 187500.00, -187500.02, -187500.02, 0.000, 0.000, 0.000, 15:44:54.744, 1578577494744
28, -180671.53, -180662.94, -180832.98, -180838.03, -180816.86, -180768.86, -180909.41, 187500.00, 0.000, 0.000, 0.000, 15:44:54.744, 1578577494744
29, -187500.02, -187500.02, -187500.02, 187500.00, -187500.02, 187500.00, -187500.02, -187500.02, -0.016, -0.020, 0.978, 15:44:54.744, 1578577494744
30, -180681.80, -180673.25, -180843.31, -180848.25, -180827.11, -180779.16, -180919.69, 187500.00, 0.000, 0.000, 0.000, 15:44:54.744, 1578577494744
31, -187500.02, -187500.02, -187500.02, 187500.00, -187500.02, 187500.00, -187500.02, -187500.02, 0.000, 0.000, 0.000, 15:44:54.744, 1578577494744
32, -180689.08, -180680.52, -180850.55, -180855.53, -180834.34, -180786.41, -180926.86, 187500.00, 0.000, 0.000, 0.000, 15:44:54.744, 1578577494744
33, -187500.02, -187500.02, -187500.02, 187500.00, -187500.02, 187500.00, -187500.02, -187500.02, 0.000, 0.000, 0.000, 15:44:54.744, 1578577494744
34, -180699.20, -180690.64, -180860.59, -180865.69, -180844.38, -180796.50, -180937.05, 187500.00, 0.000, 0.000, 0.000, 15:44:54.745, 1578577494745
35, -187500.02, -187500.02, -187500.02, 187500.00, -187500.02, 187500.00, -187500.02, -187500.02, 0.000, 0.000, 0.000, 15:44:54.745, 1578577494745
36, -180708.30, -180699.72, -180869.77, -180874.80, -180853.53, -180805.64, -180946.11, 187500.00, 0.000, 0.000, 0.000, 15:44:54.745, 1578577494745
37, -187500.02, -187500.02, -187500.02, 187500.00, -187500.02, 187500.00, -187500.02, -187500.02, 0.000, 0.000, 0.000, 15:44:54.745, 1578577494745
38, -180719.50, -180710.81, -180880.95, -180885.89, -180864.70, -180816.78, -180957.23, 187500.00, 0.000, 0.000, 0.000, 15:44:54.745, 1578577494745
39, -187500.02, -187500.02, -187500.02, 187500.00, -187500.02, 187500.00, -187500.02, -187500.02, -0.016, -0.020, 0.978, 15:44:54.745, 1578577494745
