%OpenBCI Raw EEG Data
%Number of channels = 8
%Sample Rate = 250.0 Hz
%First Column = SampleIndex
%Last Column = Timestamp 
%Other Columns = EEG data in microvolts followed by Accel Data (in G) interleaved with Aux Data
0, 0.00, 0.00, 0.00, 0.00, 0.00, 0.00, 0.00, 0.00, 457, 765, 1019, 17:16:30.676, 1579101390676
1, 187500.00, 187500.00, 187500.00, -15352.88, 187500.00, 22906.25, 187500.00, 187500.00, 461, 621, 1018, 17:16:30.693, 1579101390693
2, 187500.00, 187500.00, 187500.00, -15356.68, 187500.00, 22901.89, 187500.00, 187500.00, 460, 516, 1019, 17:16:30.696, 1579101390696
3, 187500.00, 187500.00, 187500.00, -15358.80, 187500.00, 22894.69, 187500.00, 187500.00, 459, 444, 1018, 17:16:30.700, 1579101390700
4, 187500.00, 187500.00, 187500.00, -15363.38, 187500.00, 22893.46, 187500.00, 187500.00, 459, 394, 1018, 17:16:30.703, 1579101390703
5, 187500.00, 187500.00, 187500.00, -15363.63, 187500.00, 22907.90, 187500.00, 187500.00, 459, 360, 1018, 17:16:30.707, 1579101390707
6, 187500.00, 187500.00, 187500.00, -15360.77, 187500.00, 22924.02, 187500.00, 187500.00, 459, 337, 1018, 17:16:30.713, 1579101390713
7, 187500.00, 187500.00, 187500.00, -15356.09, 187500.00, 22907.88, 187500.00, 187500.00, 458, 321, 1018, 17:16:30.715, 1579101390715
8, 187500.00, 187500.00, 187500.00, -15362.58, 187500.00, 22903.43, 187500.00, 187500.00, 458, 310, 1018, 17:16:30.720, 1579101390720
9, 187500.00, 187500.00, 187500.00, -15353.70, 187500.00, 22910.94, 187500.00, 187500.00, 458, 302, 1018, 17:16:30.723, 1579101390723
10, 187500.00, 187500.00, 187500.00, -15360.01, 187500.00, 22920.39, 187500.00, 187500.00, 458, 296, 1019, 17:16:30.727, 1579101390727
11, 187500.00, 187500.00, 187500.00, -15367.92, 187500.00, 22922.76, 187500.00, 187500.00, 458, 293, 1018, 17:16:30.730, 1579101390730
12, 187500.00, 187500.00, 187500.00, -15363.78, 187500.00, 22912.41, 187500.00, 187500.00, 458, 290, 1018, 17:16:30.734, 1579101390734
13, 187500.00, 187500.00, 187500.00, -15361.24, 187500.00, 22904.84, 187500.00, 187500.00, 458, 288, 1018, 17:16:30.738, 1579101390738
14, 187500.00, 187500.00, 187500.00, -15356.32, 187500.00, 22914.92, 187500.00, 187500.00, 458, 287, 1019, 17:16:30.742, 1579101390742
15, 187500.00, 187500.00, 187500.00, -15367.32, 187500.00, 22924.53, 187500.00, 187500.00, 458, 286, 1019, 17:16:30.747, 1579101390747
16, 187500.00, 187500.00, 187500.00, -15374.02, 187500.00, 22934.70, 187500.00, 187500.00, 458, 286, 1019, 17:16:30.750, 1579101390750
17, 187500.00, 187500.00, 187500.00, -15356.43, 187500.00, 22931.26, 187500.00, 187500.00, 458, 285, 1019, 17:16:30.754, 1579101390754
18, 187500.00, 187500.00, 187500.00, -15351.71, 187500.00, 22929.69, 187500.00, 187500.00, 458, 285, 1019, 17:16:30.759, 1579101390759
19, 187500.00, 187500.00, 187500.00, -15367.74, 187500.00, 22919.97, 187500.00, 187500.00, 458, 284, 1018, 17:16:30.764, 1579101390764
20, 187500.00, 187500.00, 187500.00, -15376.70, 187500.00, 22925.20, 187500.00, 187500.00, 458, 284, 1018, 17:16:30.767, 1579101390767
21, 187500.00, 187500.00, 187500.00, -15357.17, 187500.00, 22933.09, 187500.00, 187500.00, 458, 284, 1018, 17:16:30.770, 1579101390770
22, 187500.00, 187500.00, 187500.00, -15354.55, 187500.00, 22927.21, 187500.00, 187500.00, 458, 284, 1018, 17:16:30.773, 1579101390773
23, 187500.00, 187500.00, 187500.00, -15364.10, 187500.00, 22924.13, 187500.00, 187500.00, 458, 284, 1019, 17:16:30.778, 1579101390778
24, 187500.00, 187500.00, 187500.00, -15367.99, 187500.00, 22934.19, 187500.00, 187500.00, 458, 284, 1018, 17:16:30.781, 1579101390781
25, 187500.00, 187500.00, 187500.00, -15362.38, 187500.00, 22941.25, 187500.00, 187500.00, 458, 284, 1019, 17:16:30.787, 1579101390787
26, 187500.00, 187500.00, 187500.00, -15367.29, 187500.00, 22936.15, 187500.00, 187500.00, 458, 284, 1019, 17:16:30.793, 1579101390793
27, 187500.00, 187500.00, 187500.00, -15372.28, 187500.00, 22931.95, 187500.00, 187500.00, 459, 284, 1019, 17:16:30.796, 1579101390796
28, 187500.00, 187500.00, 187500.00, -15377.26, 187500.00, 22921.71, 187500.00, 187500.00, 459, 284, 1018, 17:16:30.799, 1579101390799
29, 187500.00, 187500.00, 187500.00, -15373.62, 187500.00, 22927.50, 187500.00, 187500.00, 459, 284, 1018, 17:16:30.801, 1579101390801
30, 187500.00, 187500.00, 187500.00, -15370.65, 187500.00, 22932.02, 187500.00, 187500.00, 459, 284, 1019, 17:16:30.806, 1579101390806
31, 187500.00, 187500.00, 187500.00, -15384.84, 187500.00, 22933.72, 187500.00, 187500.00, 459, 284, 1018, 17:16:30.810, 1579101390810
32, 187500.00, 187500.00, 187500.00, -15374.58, 187500.00, 22929.96, 187500.00, 187500.00, 459, 284, 1019, 17:16:30.815, 1579101390815
33, 187500.00, 187500.00, 187500.00, -15375.18, 187500.00, 22917.49, 187500.00, 187500.00, 458, 284, 1018, 17:16:30.819, 1579101390819
34, 187500.00, 187500.00, 187500.00, -15372.25, 187500.00, 22914.25, 187500.00, 187500.00, 458, 284, 1018, 17:16:30.823, 1579101390823
35, 187500.00, 187500.00, 187500.00, -15374.29, 187500.00, 22933.92, 187500.00, 187500.00, 458, 284, 1018, 17:16:30.831, 1579101390831
36, 187500.00, 187500.00, 187500.00, -15380.15, 187500.00, 22932.22, 187500.00, 187500.00, 458, 284, 1018, 17:16:30.832, 1579101390832
37, 187500.00, 187500.00, 187500.00, -15380.26, 187500.00, 22914.94, 187500.00, 187500.00, 458, 284, 1018, 17:16:30.834, 1579101390834
38, 187500.00, 187500.00, 187500.00, -15381.62, 187500.00, 22916.73, 187500.00, 187500.00, 459, 284, 1019, 17:16:30.838, 1579101390838
39, 187500.00, 187500.00, 187500.00, -15383.52, 187500.00, 22915.83, 187500.00, 187500.00, 460, 284, 1019, 17:16:30.846, 1579101390846
40, 187500.00, 187500.00, 187500.00, -15378.94, 187500.00, 22931.71, 187500.00, 187500.00, 460, 284, 1019, 17:16:30.847, 1579101390847
41, 187500.00, 187500.00, 187500.00, -15378.02, 187500.00, 22941.49, 187500.00, 187500.00, 460, 284, 1019, 17:16:30.851, 1579101390851
42, 187500.00, 187500.00, 187500.00, -15388.77, 187500.00, 22923.81, 187500.00, 187500.00, 460, 284, 1019, 17:16:30.855, 1579101390855
43, 187500.00, 187500.00, 187500.00, -15387.57, 187500.00, 22917.67, 187500.00, 187500.00, 460, 285, 1019, 17:16:30.858, 1579101390858
44, 187500.00, 187500.00, 187500.00, -15386.85, 187500.00, 22918.99, 187500.00, 187500.00, 460, 284, 1019, 17:16:30.862, 1579101390862
45, 187500.00, 187500.00, 187500.00, -15380.41, 187500.00, 22921.29, 187500.00, 187500.00, 460, 284, 1019, 17:16:30.866, 1579101390866
46, 187500.00, 187500.00, 187500.00, -15391.46, 187500.00, 22921.78, 187500.00, 187500.00, 460, 284, 1019, 17:16:30.871, 1579101390871
47, 187500.00, 187500.00, 187500.00, -15384.35, 187500.00, 22918.90, 187500.00, 187500.00, 460, 284, 1019, 17:16:30.876, 1579101390876
48, 187500.00, 187500.00, 187500.00, -15378.04, 187500.00, 22923.12, 187500.00, 187500.00, 459, 284, 1019, 17:16:30.880, 1579101390880
49, 187500.00, 187500.00, 187500.00, -15372.23, 187500.00, 22927.97, 187500.00, 187500.00, 459, 284, 1019, 17:16:30.883, 1579101390883
50, 187500.00, 187500.00, 187500.00, -15373.17, 187500.00, 22931.64, 187500.00, 187500.00, 459, 284, 1019, 17:16:30.887, 1579101390887
51, 187500.00, 187500.00, 187500.00, -15375.14, 187500.00, 22931.15, 187500.00, 187500.00, 459, 284, 1018, 17:16:30.891, 1579101390891
52, 187500.00, 187500.00, 187500.00, -15375.79, 187500.00, 22929.83, 187500.00, 187500.00, 459, 284, 1019, 17:16:30.895, 1579101390895
53, 187500.00, 187500.00, 187500.00, -15379.07, 187500.00, 22898.00, 187500.00, 187500.00, 459, 284, 1018, 17:16:30.899, 1579101390899
54, 187500.00, 187500.00, 187500.00, -15372.17, 187500.00, 22890.62, 187500.00, 187500.00, 459, 284, 1018, 17:16:30.903, 1579101390903
55, 187500.00, 187500.00, 187500.00, -15368.43, 187500.00, 22892.12, 187500.00, 187500.00, 458, 284, 1018, 17:16:30.907, 1579101390907
56, 187500.00, 187500.00, 187500.00, -15362.44, 187500.00, 22902.60, 187500.00, 187500.00, 458, 284, 1018, 17:16:30.912, 1579101390912
57, 187500.00, 187500.00, 187500.00, -15372.81, 187500.00, 22883.80, 187500.00, 187500.00, 458, 284, 1019, 17:16:30.914, 1579101390914
58, 187500.00, 187500.00, 187500.00, -15351.40, 187500.00, 22874.80, 187500.00, 187500.00, 458, 284, 1019, 17:16:30.919, 1579101390919
59, 187500.00, 187500.00, 187500.00, -15338.97, 187500.00, 22886.20, 187500.00, 187500.00, 458, 284, 1018, 17:16:30.923, 1579101390923
60, 187500.00, 187500.00, 187500.00, -15350.98, 187500.00, 22869.03, 187500.00, 187500.00, 458, 283, 1019, 17:16:30.927, 1579101390927
61, 187500.00, 187500.00, 187500.00, -15347.74, 187500.00, 22836.78, 187500.00, 187500.00, 458, 284, 1018, 17:16:30.932, 1579101390932
62, 187500.00, 187500.00, 187500.00, -15334.35, 187500.00, 22817.08, 187500.00, 187500.00, 458, 284, 1019, 17:16:30.935, 1579101390935
63, 187500.00, 187500.00, 187500.00, -15333.27, 187500.00, 22781.52, 187500.00, 187500.00, 458, 284, 1018, 17:16:30.939, 1579101390939
64, 187500.00, 187500.00, 187500.00, -15336.92, 187500.00, 22759.22, 187500.00, 187500.00, 458, 284, 1018, 17:16:30.942, 1579101390942
65, 187500.00, 187500.00, 187500.00, -15334.55, 187500.00, 22741.89, 187500.00, 187500.00, 458, 284, 1018, 17:16:30.947, 1579101390947
66, 187500.00, 187500.00, 187500.00, -15341.66, 187500.00, 22732.33, 187500.00, 187500.00, 458, 284, 1019, 17:16:30.950, 1579101390950
67, 187500.00, 187500.00, 187500.00, -15331.82, 187500.00, 22714.54, 187500.00, 187500.00, 459, 284, 1019, 17:16:30.954, 1579101390954
68, 187500.00, 187500.00, 187500.00, -15331.06, 187500.00, 22683.29, 187500.00, 187500.00, 459, 284, 1019, 17:16:30.959, 1579101390959
69, 187500.00, 187500.00, 187500.00, -15329.47, 187500.00, 22665.74, 187500.00, 187500.00, 459, 284, 1019, 17:16:30.963, 1579101390963
70, 187500.00, 187500.00, 187500.00, -15331.49, 187500.00, 22671.57, 187500.00, 187500.00, 458, 283, 1018, 17:16:30.967, 1579101390967
71, 187500.00, 187500.00, 187500.00, -15330.64, 187500.00, 22660.27, 187500.00, 187500.00, 458, 284, 1019, 17:16:30.970, 1579101390970
72, 187500.00, 187500.00, 187500.00, -15325.99, 187500.00, 22648.89, 187500.00, 187500.00, 458, 284, 1019, 17:16:30.974, 1579101390974
73, 187500.00, 187500.00, 187500.00, -15323.26, 187500.00, 22633.13, 187500.00, 187500.00, 458, 284, 1018, 17:16:30.979, 1579101390979
74, 187500.00, 187500.00, 187500.00, -15321.92, 187500.00, 22628.21, 187500.00, 187500.00, 458, 283, 1019, 17:16:30.982, 1579101390982
75, 187500.00, 187500.00, 187500.00, -15336.36, 187500.00, 22625.80, 187500.00, 187500.00, 458, 284, 1018, 17:16:30.986, 1579101390986
76, 187500.00, 187500.00, 187500.00, -15340.36, 187500.00, 22631.43, 187500.00, 187500.00, 458, 284, 1018, 17:16:30.992, 1579101390992
77, 187500.00, 187500.00, 187500.00, -15340.16, 187500.00, 22630.60, 187500.00, 187500.00, 458, 284, 1019, 17:16:30.996, 1579101390996
78, 187500.00, 187500.00, 187500.00, -15347.53, 187500.00, 22623.18, 187500.00, 187500.00, 458, 284, 1019, 17:16:30.998, 1579101390998
79, 187500.00, 187500.00, 187500.00, -15343.49, 187500.00, 22637.98, 187500.00, 187500.00, 458, 284, 1019, 17:16:31.002, 1579101391002
80, 187500.00, 187500.00, 187500.00, -15344.96, 187500.00, 22658.99, 187500.00, 187500.00, 458, 284, 1018, 17:16:31.006, 1579101391006
81, 187500.00, 187500.00, 187500.00, -15359.54, 187500.00, 22689.39, 187500.00, 187500.00, 458, 284, 1018, 17:16:31.012, 1579101391012
82, 187500.00, 187500.00, 187500.00, -15365.97, 187500.00, 22694.80, 187500.00, 187500.00, 458, 284, 1018, 17:16:31.016, 1579101391016
83, 187500.00, 187500.00, 187500.00, -15354.06, 187500.00, 22688.70, 187500.00, 187500.00, 458, 284, 1018, 17:16:31.019, 1579101391019
84, 187500.00, 187500.00, 187500.00, -15362.84, 187500.00, 22687.33, 187500.00, 187500.00, 458, 284, 1019, 17:16:31.022, 1579101391022
85, 187500.00, 187500.00, 187500.00, -15374.71, 187500.00, 22697.10, 187500.00, 187500.00, 458, 283, 1019, 17:16:31.027, 1579101391027
86, 187500.00, 187500.00, 187500.00, -15375.00, 187500.00, 22712.52, 187500.00, 187500.00, 459, 284, 1018, 17:16:31.031, 1579101391031
87, 187500.00, 187500.00, 187500.00, -15373.73, 187500.00, 22729.18, 187500.00, 187500.00, 460, 284, 1019, 17:16:31.034, 1579101391034
88, 187500.00, 187500.00, 187500.00, -15368.90, 187500.00, 22734.12, 187500.00, 187500.00, 460, 284, 1018, 17:16:31.038, 1579101391038
89, 187500.00, 187500.00, 187500.00, -15380.62, 187500.00, 22730.00, 187500.00, 187500.00, 460, 284, 1019, 17:16:31.042, 1579101391042
90, 187500.00, 187500.00, 187500.00, -15382.83, 187500.00, 22749.27, 187500.00, 187500.00, 461, 284, 1019, 17:16:31.047, 1579101391047
91, 187500.00, 187500.00, 187500.00, -15382.25, 187500.00, 22766.75, 187500.00, 187500.00, 461, 285, 1019, 17:16:31.050, 1579101391050
92, 187500.00, 187500.00, 187500.00, -15383.95, 187500.00, 22770.37, 187500.00, 187500.00, 461, 285, 1019, 17:16:31.053, 1579101391053
93, 187500.00, 187500.00, 187500.00, -15386.29, 187500.00, 22776.36, 187500.00, 187500.00, 461, 285, 1019, 17:16:31.058, 1579101391058
94, 187500.00, 187500.00, 187500.00, -15385.08, 187500.00, 22782.91, 187500.00, 187500.00, 462, 284, 1018, 17:16:31.063, 1579101391063
95, 187500.00, 187500.00, 187500.00, -15373.06, 187500.00, 22815.32, 187500.00, 187500.00, 461, 284, 1019, 17:16:31.066, 1579101391066
96, 187500.00, 187500.00, 187500.00, -15375.56, 187500.00, 22815.05, 187500.00, 187500.00, 460, 285, 1018, 17:16:31.071, 1579101391071
97, 187500.00, 187500.00, 187500.00, -15374.18, 187500.00, 22797.24, 187500.00, 187500.00, 460, 285, 1019, 17:16:31.074, 1579101391074
98, 187500.00, 187500.00, 187500.00, -15372.99, 187500.00, 22793.21, 187500.00, 187500.00, 460, 285, 1019, 17:16:31.079, 1579101391079
99, 187500.00, 187500.00, 187500.00, -15375.29, 187500.00, 22795.00, 187500.00, 187500.00, 460, 284, 1019, 17:16:31.081, 1579101391081
100, 187500.00, 187500.00, 187500.00, -15379.65, 187500.00, 22796.19, 187500.00, 187500.00, 461, 284, 1019, 17:16:31.086, 1579101391086
101, 187500.00, 187500.00, 187500.00, -15397.02, 187500.00, 22797.44, 187500.00, 187500.00, 460, 284, 1018, 17:16:31.091, 1579101391091
102, 187500.00, 187500.00, 187500.00, -15395.34, 187500.00, 22796.74, 187500.00, 187500.00, 460, 285, 1018, 17:16:31.095, 1579101391095
103, 187500.00, 187500.00, 187500.00, -15395.23, 187500.00, 22799.49, 187500.00, 187500.00, 459, 285, 1018, 17:16:31.098, 1579101391098
104, 187500.00, 187500.00, 187500.00, -15394.12, 187500.00, 22798.82, 187500.00, 187500.00, 459, 284, 1018, 17:16:31.102, 1579101391102
105, 187500.00, 187500.00, 187500.00, -15393.27, 187500.00, 22807.79, 187500.00, 187500.00, 459, 284, 1018, 17:16:31.106, 1579101391106
106, 187500.00, 187500.00, 187500.00, -15394.05, 187500.00, 22815.63, 187500.00, 187500.00, 458, 284, 1019, 17:16:31.109, 1579101391109
107, 187500.00, 187500.00, 187500.00, -15389.71, 187500.00, 22822.38, 187500.00, 187500.00, 459, 284, 1018, 17:16:31.114, 1579101391114
108, 187500.00, 187500.00, 187500.00, -15389.00, 187500.00, 22808.32, 187500.00, 187500.00, 459, 284, 1018, 17:16:31.118, 1579101391118
109, 187500.00, 187500.00, 187500.00, -15397.54, 187500.00, 22807.29, 187500.00, 187500.00, 460, 284, 1019, 17:16:31.122, 1579101391122
110, 187500.00, 187500.00, 187500.00, -15396.98, 187500.00, 22821.31, 187500.00, 187500.00, 460, 284, 1019, 17:16:31.126, 1579101391126
111, 187500.00, 187500.00, 187500.00, -15376.01, 187500.00, 22821.42, 187500.00, 187500.00, 460, 284, 1019, 17:16:31.131, 1579101391131
112, 187500.00, 187500.00, 187500.00, -15376.41, 187500.00, 22825.20, 187500.00, 187500.00, 461, 285, 1018, 17:16:31.135, 1579101391135
113, 187500.00, 187500.00, 187500.00, -15377.96, 187500.00, 22817.40, 187500.00, 187500.00, 460, 285, 1018, 17:16:31.138, 1579101391138
114, 187500.00, 187500.00, 187500.00, -15379.50, 187500.00, 22816.46, 187500.00, 187500.00, 461, 284, 1019, 17:16:31.142, 1579101391142
115, 187500.00, 187500.00, 187500.00, -15387.59, 187500.00, 22827.75, 187500.00, 187500.00, 461, 284, 1018, 17:16:31.146, 1579101391146
116, 187500.00, 187500.00, 187500.00, -15386.52, 187500.00, 22835.41, 187500.00, 187500.00, 461, 285, 1019, 17:16:31.150, 1579101391150
117, 187500.00, 187500.00, 187500.00, -15379.05, 187500.00, 22831.17, 187500.00, 187500.00, 461, 285, 1019, 17:16:31.155, 1579101391155
118, 187500.00, 187500.00, 187500.00, -15382.31, 187500.00, 22827.25, 187500.00, 187500.00, 461, 285, 1019, 17:16:31.159, 1579101391159
119, 187500.00, 187500.00, 187500.00, -15381.49, 187500.00, 22822.47, 187500.00, 187500.00, 461, 285, 1018, 17:16:31.165, 1579101391165
120, 187500.00, 187500.00, 187500.00, -15383.36, 187500.00, 22830.14, 187500.00, 187500.00, 461, 285, 1018, 17:16:31.167, 1579101391167
121, 187500.00, 187500.00, 187500.00, -15391.99, 187500.00, 22836.06, 187500.00, 187500.00, 462, 285, 1018, 17:16:31.171, 1579101391171
122, 187500.00, 187500.00, 187500.00, -15389.82, 187500.00, 22821.89, 187500.00, 187500.00, 462, 285, 1018, 17:16:31.174, 1579101391174
123, 187500.00, 187500.00, 187500.00, -15385.33, 187500.00, 22817.31, 187500.00, 187500.00, 461, 285, 1018, 17:16:31.179, 1579101391179
124, 187500.00, 187500.00, 187500.00, -15376.86, 187500.00, 22825.36, 187500.00, 187500.00, 461, 285, 1018, 17:16:31.184, 1579101391184
125, 187500.00, 187500.00, 187500.00, -15373.57, 187500.00, 22831.37, 187500.00, 187500.00, 461, 285, 1018, 17:16:31.187, 1579101391187
126, 187500.00, 187500.00, 187500.00, -15377.04, 187500.00, 22818.27, 187500.00, 187500.00, 461, 285, 1018, 17:16:31.191, 1579101391191
127, 187500.00, 187500.00, 187500.00, -15377.02, 187500.00, 22813.55, 187500.00, 187500.00, 461, 285, 1019, 17:16:31.194, 1579101391194
128, 187500.00, 187500.00, 187500.00, -15374.56, 187500.00, 22812.41, 187500.00, 187500.00, 461, 285, 1019, 17:16:31.201, 1579101391201
129, 187500.00, 187500.00, 187500.00, -15378.47, 187500.00, 22812.79, 187500.00, 187500.00, 460, 285, 1018, 17:16:31.203, 1579101391203
130, 187500.00, 187500.00, 187500.00, -15377.13, 187500.00, 22822.76, 187500.00, 187500.00, 460, 284, 1019, 17:16:31.207, 1579101391207
131, 187500.00, 187500.00, 187500.00, -15379.18, 187500.00, 22830.47, 187500.00, 187500.00, 460, 285, 1019, 17:16:31.211, 1579101391211
132, 187500.00, 187500.00, 187500.00, -15373.71, 187500.00, 22820.37, 187500.00, 187500.00, 460, 285, 1019, 17:16:31.215, 1579101391215
133, 187500.00, 187500.00, 187500.00, -15380.82, 187500.00, 22813.26, 187500.00, 187500.00, 459, 284, 1018, 17:16:31.219, 1579101391219
134, 187500.00, 187500.00, 187500.00, -15383.97, 187500.00, 22810.74, 187500.00, 187500.00, 459, 284, 1019, 17:16:31.221, 1579101391221
135, 187500.00, 187500.00, 187500.00, -15378.47, 187500.00, 22814.96, 187500.00, 187500.00, 459, 284, 1019, 17:16:31.229, 1579101391229
136, 187500.00, 187500.00, 187500.00, -15374.45, 187500.00, 22825.47, 187500.00, 187500.00, 459, 284, 1019, 17:16:31.231, 1579101391231
137, 187500.00, 187500.00, 187500.00, -15375.38, 187500.00, 22826.00, 187500.00, 187500.00, 459, 284, 1018, 17:16:31.235, 1579101391235
138, 187500.00, 187500.00, 187500.00, -15373.84, 187500.00, 22812.84, 187500.00, 187500.00, 459, 284, 1018, 17:16:31.239, 1579101391239
139, 187500.00, 187500.00, 187500.00, -15375.52, 187500.00, 22810.51, 187500.00, 187500.00, 459, 284, 1018, 17:16:31.242, 1579101391242
140, 187500.00, 187500.00, 187500.00, -15374.16, 187500.00, 22824.35, 187500.00, 187500.00, 459, 284, 1018, 17:16:31.245, 1579101391245
141, 187500.00, 187500.00, 187500.00, -15381.17, 187500.00, 22832.55, 187500.00, 187500.00, 459, 284, 1018, 17:16:31.249, 1579101391249
142, 187500.00, 187500.00, 187500.00, -15378.42, 187500.00, 22835.39, 187500.00, 187500.00, 459, 284, 1018, 17:16:31.254, 1579101391254
143, 187500.00, 187500.00, 187500.00, -15376.23, 187500.00, 22815.74, 187500.00, 187500.00, 459, 284, 1018, 17:16:31.259, 1579101391259
144, 187500.00, 187500.00, 187500.00, -15382.74, 187500.00, 22806.82, 187500.00, 187500.00, 459, 284, 1018, 17:16:31.267, 1579101391267
145, 187500.00, 187500.00, 187500.00, -15377.75, 187500.00, 22822.99, 187500.00, 187500.00, 458, 284, 1019, 17:16:31.269, 1579101391269
146, 187500.00, 187500.00, 187500.00, -15372.57, 187500.00, 22828.98, 187500.00, 187500.00, 458, 284, 1019, 17:16:31.271, 1579101391271
147, 187500.00, 187500.00, 187500.00, -15374.27, 187500.00, 22821.58, 187500.00, 187500.00, 458, 284, 1018, 17:16:31.275, 1579101391275
148, 187500.00, 187500.00, 187500.00, -15368.88, 187500.00, 22826.38, 187500.00, 187500.00, 458, 284, 1018, 17:16:31.278, 1579101391278
149, 187500.00, 187500.00, 187500.00, -15366.04, 187500.00, 22827.39, 187500.00, 187500.00, 458, 284, 1019, 17:16:31.281, 1579101391281
150, 187500.00, 187500.00, 187500.00, -15369.35, 187500.00, 22828.89, 187500.00, 187500.00, 458, 284, 1019, 17:16:31.286, 1579101391286
151, 187500.00, 187500.00, 187500.00, -15369.42, 187500.00, 22826.85, 187500.00, 187500.00, 459, 284, 1019, 17:16:31.293, 1579101391293
152, 187500.00, 187500.00, 187500.00, -15368.14, 187500.00, 22824.97, 187500.00, 187500.00, 459, 284, 1019, 17:16:31.296, 1579101391296
153, 187500.00, 187500.00, 187500.00, -15370.56, 187500.00, 22816.28, 187500.00, 187500.00, 458, 284, 1019, 17:16:31.298, 1579101391298
154, 187500.00, 187500.00, 187500.00, -15376.39, 187500.00, 22809.33, 187500.00, 187500.00, 458, 284, 1019, 17:16:31.302, 1579101391302
155, 187500.00, 187500.00, 187500.00, -15378.56, 187500.00, 22815.19, 187500.00, 187500.00, 458, 284, 1018, 17:16:31.306, 1579101391306
156, 187500.00, 187500.00, 187500.00, -15381.71, 187500.00, 22822.49, 187500.00, 187500.00, 458, 284, 1019, 17:16:31.311, 1579101391311
157, 187500.00, 187500.00, 187500.00, -15373.44, 187500.00, 22826.83, 187500.00, 187500.00, 458, 284, 1018, 17:16:31.314, 1579101391314
158, 187500.00, 187500.00, 187500.00, -15370.53, 187500.00, 22829.24, 187500.00, 187500.00, 459, 284, 1019, 17:16:31.319, 1579101391319
159, 187500.00, 187500.00, 187500.00, -15378.31, 187500.00, 22831.46, 187500.00, 187500.00, 459, 284, 1018, 17:16:31.323, 1579101391323
160, 187500.00, 187500.00, 187500.00, -15374.04, 187500.00, 22842.14, 187500.00, 187500.00, 459, 284, 1018, 17:16:31.326, 1579101391326
161, 187500.00, 187500.00, 187500.00, -15370.22, 187500.00, 22830.18, 187500.00, 187500.00, 459, 284, 1018, 17:16:31.330, 1579101391330
162, 187500.00, 187500.00, 187500.00, -15381.13, 187500.00, 22819.61, 187500.00, 187500.00, 459, 284, 1018, 17:16:31.335, 1579101391335
163, 187500.00, 187500.00, 187500.00, -15380.12, 187500.00, 22814.18, 187500.00, 187500.00, 459, 284, 1018, 17:16:31.338, 1579101391338
164, 187500.00, 187500.00, 187500.00, -15359.87, 187500.00, 22819.45, 187500.00, 187500.00, 458, 284, 1019, 17:16:31.342, 1579101391342
165, 187500.00, 187500.00, 187500.00, -15363.27, 187500.00, 22825.13, 187500.00, 187500.00, 458, 284, 1019, 17:16:31.346, 1579101391346
166, 187500.00, 187500.00, 187500.00, -15376.08, 187500.00, 22838.10, 187500.00, 187500.00, 458, 284, 1018, 17:16:31.351, 1579101391351
167, 187500.00, 187500.00, 187500.00, -15383.12, 187500.00, 22840.04, 187500.00, 187500.00, 458, 284, 1018, 17:16:31.354, 1579101391354
168, 187500.00, 187500.00, 187500.00, -15363.47, 187500.00, 22836.75, 187500.00, 187500.00, 458, 284, 1018, 17:16:31.358, 1579101391358
169, 187500.00, 187500.00, 187500.00, -15361.39, 187500.00, 22841.13, 187500.00, 187500.00, 458, 284, 1019, 17:16:31.363, 1579101391363
170, 187500.00, 187500.00, 187500.00, -15362.91, 187500.00, 22841.20, 187500.00, 187500.00, 459, 284, 1019, 17:16:31.366, 1579101391366
171, 187500.00, 187500.00, 187500.00, -15366.96, 187500.00, 22844.40, 187500.00, 187500.00, 459, 284, 1018, 17:16:31.370, 1579101391370
172, 187500.00, 187500.00, 187500.00, -15375.90, 187500.00, 22838.70, 187500.00, 187500.00, 459, 284, 1019, 17:16:31.374, 1579101391374
173, 187500.00, 187500.00, 187500.00, -15377.98, 187500.00, 22827.81, 187500.00, 187500.00, 459, 284, 1019, 17:16:31.379, 1579101391379
174, 187500.00, 187500.00, 187500.00, -15369.73, 187500.00, 22834.41, 187500.00, 187500.00, 458, 284, 1019, 17:16:31.382, 1579101391382
175, 187500.00, 187500.00, 187500.00, -15366.26, 187500.00, 22839.82, 187500.00, 187500.00, 458, 284, 1019, 17:16:31.386, 1579101391386
176, 187500.00, 187500.00, 187500.00, -15373.84, 187500.00, 22833.04, 187500.00, 187500.00, 458, 284, 1019, 17:16:31.390, 1579101391390
177, 187500.00, 187500.00, 187500.00, -15374.11, 187500.00, 22824.95, 187500.00, 187500.00, 458, 284, 1018, 17:16:31.394, 1579101391394
178, 187500.00, 187500.00, 187500.00, -15375.54, 187500.00, 22817.91, 187500.00, 187500.00, 458, 284, 1018, 17:16:31.399, 1579101391399
179, 187500.00, 187500.00, 187500.00, -15378.60, 187500.00, 22820.91, 187500.00, 187500.00, 458, 284, 1018, 17:16:31.402, 1579101391402
180, 187500.00, 187500.00, 187500.00, -15372.93, 187500.00, 22835.79, 187500.00, 187500.00, 458, 284, 1018, 17:16:31.407, 1579101391407
181, 187500.00, 187500.00, 187500.00, -15373.24, 187500.00, 22833.65, 187500.00, 187500.00, 458, 284, 1019, 17:16:31.410, 1579101391410
182, 187500.00, 187500.00, 187500.00, -15387.41, 187500.00, 22815.74, 187500.00, 187500.00, 458, 284, 1019, 17:16:31.415, 1579101391415
183, 187500.00, 187500.00, 187500.00, -15377.87, 187500.00, 22814.38, 187500.00, 187500.00, 459, 284, 1018, 17:16:31.418, 1579101391418
184, 187500.00, 187500.00, 187500.00, -15370.06, 187500.00, 22817.00, 187500.00, 187500.00, 458, 284, 1019, 17:16:31.424, 1579101391424
185, 187500.00, 187500.00, 187500.00, -15379.50, 187500.00, 22818.81, 187500.00, 187500.00, 458, 284, 1018, 17:16:31.426, 1579101391426
186, 187500.00, 187500.00, 187500.00, -15372.01, 187500.00, 22825.51, 187500.00, 187500.00, 458, 284, 1019, 17:16:31.431, 1579101391431
187, 187500.00, 187500.00, 187500.00, -15362.20, 187500.00, 22835.08, 187500.00, 187500.00, 458, 284, 1018, 17:16:31.435, 1579101391435
188, 187500.00, 187500.00, 187500.00, -15368.52, 187500.00, 22828.19, 187500.00, 187500.00, 458, 284, 1019, 17:16:31.438, 1579101391438
189, 187500.00, 187500.00, 187500.00, -15380.82, 187500.00, 22809.80, 187500.00, 187500.00, 458, 284, 1019, 17:16:31.443, 1579101391443
190, 187500.00, 187500.00, 187500.00, -15391.50, 187500.00, 22809.35, 187500.00, 187500.00, 458, 284, 1019, 17:16:31.446, 1579101391446
191, 187500.00, 187500.00, 187500.00, -15388.64, 187500.00, 22816.12, 187500.00, 187500.00, 459, 284, 1019, 17:16:31.450, 1579101391450
192, 187500.00, 187500.00, 187500.00, -15380.64, 187500.00, 22814.96, 187500.00, 187500.00, 459, 284, 1019, 17:16:31.454, 1579101391454
193, 187500.00, 187500.00, 187500.00, -15379.05, 187500.00, 22820.19, 187500.00, 187500.00, 459, 284, 1019, 17:16:31.458, 1579101391458
194, 187500.00, 187500.00, 187500.00, -15380.77, 187500.00, 22811.94, 187500.00, 187500.00, 459, 284, 1018, 17:16:31.464, 1579101391464
195, 187500.00, 187500.00, 187500.00, -15384.64, 187500.00, 22818.11, 187500.00, 187500.00, 459, 284, 1018, 17:16:31.467, 1579101391467
196, 187500.00, 187500.00, 187500.00, -15386.40, 187500.00, 22825.24, 187500.00, 187500.00, 458, 284, 1019, 17:16:31.469, 1579101391469
197, 187500.00, 187500.00, 187500.00, -15374.31, 187500.00, 22823.30, 187500.00, 187500.00, 459, 284, 1018, 17:16:31.474, 1579101391474
198, 187500.00, 187500.00, 187500.00, -15368.50, 187500.00, 22820.21, 187500.00, 187500.00, 459, 284, 1018, 17:16:31.481, 1579101391481
199, 187500.00, 187500.00, 187500.00, -15377.33, 187500.00, 22826.32, 187500.00, 187500.00, 459, 284, 1019, 17:16:31.482, 1579101391482
200, 187500.00, 187500.00, 187500.00, -15378.49, 187500.00, 22834.07, 187500.00, 187500.00, 459, 284, 1018, 17:16:31.486, 1579101391486
201, 187500.00, 187500.00, 187500.00, -15372.79, 187500.00, 22835.64, 187500.00, 187500.00, 459, 284, 1018, 17:16:31.490, 1579101391490
202, 187500.00, 187500.00, 187500.00, -15376.48, 187500.00, 22824.17, 187500.00, 187500.00, 459, 284, 1018, 17:16:31.494, 1579101391494
203, 187500.00, 187500.00, 187500.00, -15378.04, 187500.00, 22818.72, 187500.00, 187500.00, 459, 284, 1018, 17:16:31.496, 1579101391496
204, 187500.00, 187500.00, 187500.00, -15379.99, 187500.00, 22815.23, 187500.00, 187500.00, 459, 284, 1019, 17:16:31.501, 1579101391501
205, 187500.00, 187500.00, 187500.00, -15385.46, 187500.00, 22821.73, 187500.00, 187500.00, 458, 284, 1019, 17:16:31.505, 1579101391505
206, 187500.00, 187500.00, 187500.00, -15384.88, 187500.00, 22825.13, 187500.00, 187500.00, 458, 284, 1019, 17:16:31.511, 1579101391511
207, 187500.00, 187500.00, 187500.00, -15388.64, 187500.00, 22818.63, 187500.00, 187500.00, 459, 284, 1018, 17:16:31.514, 1579101391514
208, 187500.00, 187500.00, 187500.00, -15381.98, 187500.00, 22819.03, 187500.00, 187500.00, 458, 284, 1019, 17:16:31.518, 1579101391518
209, 187500.00, 187500.00, 187500.00, -15379.41, 187500.00, 22829.31, 187500.00, 187500.00, 459, 284, 1018, 17:16:31.521, 1579101391521
210, 187500.00, 187500.00, 187500.00, -15384.03, 187500.00, 22826.34, 187500.00, 187500.00, 458, 284, 1018, 17:16:31.525, 1579101391525
211, 187500.00, 187500.00, 187500.00, -15386.96, 187500.00, 22830.61, 187500.00, 187500.00, 458, 284, 1018, 17:16:31.530, 1579101391530
212, 187500.00, 187500.00, 187500.00, -15384.12, 187500.00, 22821.20, 187500.00, 187500.00, 458, 284, 1019, 17:16:31.534, 1579101391534
213, 187500.00, 187500.00, 187500.00, -15387.50, 187500.00, 22810.49, 187500.00, 187500.00, 458, 284, 1018, 17:16:31.538, 1579101391538
214, 187500.00, 187500.00, 187500.00, -15382.58, 187500.00, 22808.88, 187500.00, 187500.00, 458, 284, 1018, 17:16:31.542, 1579101391542
215, 187500.00, 187500.00, 187500.00, -15379.01, 187500.00, 22823.46, 187500.00, 187500.00, 458, 284, 1019, 17:16:31.545, 1579101391545
216, 187500.00, 187500.00, 187500.00, -15383.23, 187500.00, 22825.78, 187500.00, 187500.00, 458, 284, 1019, 17:16:31.549, 1579101391549
217, 187500.00, 187500.00, 187500.00, -15380.41, 187500.00, 22817.29, 187500.00, 187500.00, 458, 284, 1019, 17:16:31.553, 1579101391553
218, 187500.00, 187500.00, 187500.00, -15377.37, 187500.00, 22822.18, 187500.00, 187500.00, 459, 284, 1019, 17:16:31.560, 1579101391560
219, 187500.00, 187500.00, 187500.00, -15382.45, 187500.00, 22813.51, 187500.00, 187500.00, 459, 284, 1019, 17:16:31.563, 1579101391563
220, 187500.00, 187500.00, 187500.00, -15383.97, 187500.00, 22812.44, 187500.00, 187500.00, 458, 284, 1019, 17:16:31.568, 1579101391568
221, 187500.00, 187500.00, 187500.00, -15384.08, 187500.00, 22824.28, 187500.00, 187500.00, 459, 284, 1019, 17:16:31.571, 1579101391571
222, 187500.00, 187500.00, 187500.00, -15383.03, 187500.00, 22821.89, 187500.00, 187500.00, 459, 284, 1019, 17:16:31.573, 1579101391573
223, 187500.00, 187500.00, 187500.00, -15392.77, 187500.00, 22807.79, 187500.00, 187500.00, 459, 284, 1018, 17:16:31.579, 1579101391579
224, 187500.00, 187500.00, 187500.00, -15382.60, 187500.00, 22817.29, 187500.00, 187500.00, 459, 284, 1018, 17:16:31.582, 1579101391582
225, 187500.00, 187500.00, 187500.00, -15386.45, 187500.00, 22820.33, 187500.00, 187500.00, 459, 284, 1018, 17:16:31.586, 1579101391586
226, 187500.00, 187500.00, 187500.00, -15389.62, 187500.00, 22812.93, 187500.00, 187500.00, 458, 284, 1018, 17:16:31.590, 1579101391590
227, 187500.00, 187500.00, 187500.00, -15382.34, 187500.00, 22808.86, 187500.00, 187500.00, 459, 284, 1018, 17:16:31.597, 1579101391597
228, 187500.00, 187500.00, 187500.00, -15381.22, 187500.00, 22807.03, 187500.00, 187500.00, 458, 284, 1019, 17:16:31.601, 1579101391601
229, 187500.00, 187500.00, 187500.00, -15389.31, 187500.00, 22794.11, 187500.00, 187500.00, 458, 284, 1019, 17:16:31.602, 1579101391602
230, 187500.00, 187500.00, 187500.00, -15384.33, 187500.00, 22796.90, 187500.00, 187500.00, 459, 284, 1019, 17:16:31.606, 1579101391606
231, 187500.00, 187500.00, 187500.00, -15389.00, 187500.00, 22809.53, 187500.00, 187500.00, 460, 284, 1019, 17:16:31.609, 1579101391609
232, 187500.00, 187500.00, 187500.00, -15386.72, 187500.00, 22807.36, 187500.00, 187500.00, 460, 284, 1019, 17:16:31.613, 1579101391613
233, 187500.00, 187500.00, 187500.00, -15380.48, 187500.00, 22796.90, 187500.00, 187500.00, 460, 284, 1019, 17:16:31.618, 1579101391618
234, 187500.00, 187500.00, 187500.00, -15384.24, 187500.00, 22796.63, 187500.00, 187500.00, 460, 285, 1018, 17:16:31.622, 1579101391622
235, 187500.00, 187500.00, 187500.00, -15383.14, 187500.00, 22803.65, 187500.00, 187500.00, 460, 284, 1018, 17:16:31.626, 1579101391626
236, 187500.00, 187500.00, 187500.00, -15391.57, 187500.00, 22809.24, 187500.00, 187500.00, 460, 285, 1018, 17:16:31.630, 1579101391630
237, 187500.00, 187500.00, 187500.00, -15388.08, 187500.00, 22812.17, 187500.00, 187500.00, 461, 285, 1019, 17:16:31.633, 1579101391633
238, 187500.00, 187500.00, 187500.00, -15384.68, 187500.00, 22805.48, 187500.00, 187500.00, 461, 285, 1019, 17:16:31.637, 1579101391637
239, 187500.00, 187500.00, 187500.00, -15382.85, 187500.00, 22801.42, 187500.00, 187500.00, 461, 285, 1019, 17:16:31.641, 1579101391641
240, 187500.00, 187500.00, 187500.00, -15384.62, 187500.00, 22802.51, 187500.00, 187500.00, 461, 285, 1019, 17:16:31.646, 1579101391646
241, 187500.00, 187500.00, 187500.00, -15388.88, 187500.00, 22809.57, 187500.00, 187500.00, 461, 285, 1018, 17:16:31.650, 1579101391650
242, 187500.00, 187500.00, 187500.00, -15388.28, 187500.00, 22793.48, 187500.00, 187500.00, 461, 285, 1019, 17:16:31.654, 1579101391654
243, 187500.00, 187500.00, 187500.00, -15390.87, 187500.00, 22785.17, 187500.00, 187500.00, 461, 285, 1018, 17:16:31.657, 1579101391657
244, 187500.00, 187500.00, 187500.00, -15396.13, 187500.00, 22783.87, 187500.00, 187500.00, 461, 285, 1019, 17:16:31.661, 1579101391661
245, 187500.00, 187500.00, 187500.00, -15401.22, 187500.00, 22785.90, 187500.00, 187500.00, 461, 285, 1018, 17:16:31.666, 1579101391666
246, 187500.00, 187500.00, 187500.00, -15401.38, 187500.00, 22796.95, 187500.00, 187500.00, 461, 285, 1018, 17:16:31.669, 1579101391669
247, 187500.00, 187500.00, 187500.00, -15402.61, 187500.00, 22791.80, 187500.00, 187500.00, 461, 285, 1018, 17:16:31.674, 1579101391674
248, 187500.00, 187500.00, 187500.00, -15394.23, 187500.00, 22786.87, 187500.00, 187500.00, 461, 285, 1018, 17:16:31.678, 1579101391678
249, 187500.00, 187500.00, 187500.00, -15398.21, 187500.00, 22786.57, 187500.00, 187500.00, 461, 285, 1018, 17:16:31.683, 1579101391683
250, 187500.00, 187500.00, 187500.00, -15400.04, 187500.00, 22793.84, 187500.00, 187500.00, 460, 285, 1019, 17:16:31.685, 1579101391685
251, 187500.00, 187500.00, 187500.00, -15399.50, 187500.00, 22792.74, 187500.00, 187500.00, 461, 285, 1018, 17:16:31.689, 1579101391689
252, 187500.00, 187500.00, 187500.00, -15399.37, 187500.00, 22782.73, 187500.00, 187500.00, 461, 285, 1019, 17:16:31.694, 1579101391694
253, 187500.00, 187500.00, 187500.00, -15401.94, 187500.00, 22786.20, 187500.00, 187500.00, 461, 285, 1019, 17:16:31.698, 1579101391698
254, 187500.00, 187500.00, 187500.00, -15400.02, 187500.00, 22791.96, 187500.00, 187500.00, 460, 285, 1018, 17:16:31.701, 1579101391701
255, 187500.00, 187500.00, 187500.00, -15403.64, 187500.00, 22786.96, 187500.00, 187500.00, 461, 285, 1019, 17:16:31.706, 1579101391706
0, 187500.00, 187500.00, 187500.00, -15413.63, 187500.00, 22790.80, 187500.00, 187500.00, 461, 285, 1019, 17:16:31.709, 1579101391709
1, 187500.00, 187500.00, 187500.00, -15393.96, 187500.00, 22791.11, 187500.00, 187500.00, 461, 285, 1019, 17:16:31.713, 1579101391713
2, 187500.00, 187500.00, 187500.00, -15391.17, 187500.00, 22783.94, 187500.00, 187500.00, 461, 285, 1019, 17:16:31.717, 1579101391717
3, 187500.00, 187500.00, 187500.00, -15379.41, 187500.00, 22782.91, 187500.00, 187500.00, 461, 284, 1019, 17:16:31.721, 1579101391721
4, 187500.00, 187500.00, 187500.00, -15389.38, 187500.00, 22780.72, 187500.00, 187500.00, 461, 284, 1019, 17:16:31.726, 1579101391726
5, 187500.00, 187500.00, 187500.00, -15409.67, 187500.00, 22783.20, 187500.00, 187500.00, 461, 285, 1018, 17:16:31.729, 1579101391729
6, 187500.00, 187500.00, 187500.00, -15405.83, 187500.00, 22778.97, 187500.00, 187500.00, 461, 285, 1019, 17:16:31.734, 1579101391734
7, 187500.00, 187500.00, 187500.00, -15397.83, 187500.00, 22778.53, 187500.00, 187500.00, 461, 285, 1018, 17:16:31.738, 1579101391738
8, 187500.00, 187500.00, 187500.00, -15403.17, 187500.00, 22764.13, 187500.00, 187500.00, 461, 285, 1019, 17:16:31.742, 1579101391742
9, 187500.00, 187500.00, 187500.00, -15404.80, 187500.00, 22768.09, 187500.00, 187500.00, 461, 285, 1018, 17:16:31.746, 1579101391746
10, 187500.00, 187500.00, 187500.00, -15410.79, 187500.00, 22778.88, 187500.00, 187500.00, 460, 285, 1019, 17:16:31.750, 1579101391750
11, 187500.00, 187500.00, 187500.00, -15413.05, 187500.00, 22775.22, 187500.00, 187500.00, 459, 285, 1018, 17:16:31.754, 1579101391754
12, 187500.00, 187500.00, 187500.00, -15413.70, 187500.00, 22758.28, 187500.00, 187500.00, 459, 284, 1019, 17:16:31.758, 1579101391758
13, 187500.00, 187500.00, 187500.00, -15414.46, 187500.00, 22759.19, 187500.00, 187500.00, 459, 284, 1019, 17:16:31.763, 1579101391763
14, 187500.00, 187500.00, 187500.00, -15404.58, 187500.00, 22778.39, 187500.00, 187500.00, 459, 284, 1019, 17:16:31.766, 1579101391766
15, 187500.00, 187500.00, 187500.00, -15410.12, 187500.00, 22785.14, 187500.00, 187500.00, 458, 284, 1019, 17:16:31.770, 1579101391770
16, 187500.00, 187500.00, 187500.00, -15407.33, 187500.00, 22766.50, 187500.00, 187500.00, 459, 284, 1019, 17:16:31.774, 1579101391774
17, 187500.00, 187500.00, 187500.00, -15406.92, 187500.00, 22760.98, 187500.00, 187500.00, 459, 284, 1018, 17:16:31.778, 1579101391778
18, 187500.00, 187500.00, 187500.00, -15408.26, 187500.00, 22764.89, 187500.00, 187500.00, 458, 284, 1019, 17:16:31.781, 1579101391781
19, 187500.00, 187500.00, 187500.00, -15402.77, 187500.00, 22793.44, 187500.00, 187500.00, 458, 284, 1018, 17:16:31.785, 1579101391785
20, 187500.00, 187500.00, 187500.00, -15396.69, 187500.00, 22801.21, 187500.00, 187500.00, 458, 284, 1019, 17:16:31.790, 1579101391790
21, 187500.00, 187500.00, 187500.00, -15415.66, 187500.00, 22765.72, 187500.00, 187500.00, 458, 284, 1019, 17:16:31.795, 1579101391795
22, 187500.00, 187500.00, 187500.00, -15419.22, 187500.00, 22749.63, 187500.00, 187500.00, 458, 284, 1018, 17:16:31.796, 1579101391796
23, 187500.00, 187500.00, 187500.00, -15402.41, 187500.00, 22747.79, 187500.00, 187500.00, 458, 284, 1018, 17:16:31.802, 1579101391802
24, 187500.00, 187500.00, 187500.00, -15400.82, 187500.00, 22746.90, 187500.00, 187500.00, 458, 283, 1018, 17:16:31.806, 1579101391806
25, 187500.00, 187500.00, 187500.00, -15412.47, 187500.00, 22747.12, 187500.00, 187500.00, 458, 284, 1018, 17:16:31.810, 1579101391810
26, 187500.00, 187500.00, 187500.00, -15412.22, 187500.00, 22741.16, 187500.00, 187500.00, 458, 284, 1019, 17:16:31.814, 1579101391814
27, 187500.00, 187500.00, 187500.00, -15411.19, 187500.00, 22734.56, 187500.00, 187500.00, 457, 284, 1018, 17:16:31.818, 1579101391818
28, 187500.00, 187500.00, 187500.00, -15412.60, 187500.00, 22733.09, 187500.00, 187500.00, 457, 283, 1018, 17:16:31.822, 1579101391822
29, 187500.00, 187500.00, 187500.00, -15408.38, 187500.00, 22729.62, 187500.00, 187500.00, 457, 283, 1019, 17:16:31.825, 1579101391825
30, 187500.00, 187500.00, 187500.00, -15403.50, 187500.00, 22736.93, 187500.00, 187500.00, 458, 283, 1019, 17:16:31.830, 1579101391830
31, 187500.00, 187500.00, 187500.00, -15402.03, 187500.00, 22740.91, 187500.00, 187500.00, 458, 284, 1019, 17:16:31.834, 1579101391834
32, 187500.00, 187500.00, 187500.00, -15409.83, 187500.00, 22740.08, 187500.00, 187500.00, 458, 284, 1019, 17:16:31.838, 1579101391838
33, 187500.00, 187500.00, 187500.00, -15412.44, 187500.00, 22732.68, 187500.00, 187500.00, 458, 284, 1018, 17:16:31.842, 1579101391842
34, 187500.00, 187500.00, 187500.00, -15401.51, 187500.00, 22743.93, 187500.00, 187500.00, 458, 283, 1019, 17:16:31.846, 1579101391846
35, 187500.00, 187500.00, 187500.00, -15396.57, 187500.00, 22752.53, 187500.00, 187500.00, 459, 284, 1019, 17:16:31.850, 1579101391850
36, 187500.00, 187500.00, 187500.00, -15392.55, 187500.00, 22745.92, 187500.00, 187500.00, 459, 284, 1019, 17:16:31.853, 1579101391853
37, 187500.00, 187500.00, 187500.00, -15397.58, 187500.00, 22741.67, 187500.00, 187500.00, 459, 284, 1019, 17:16:31.857, 1579101391857
38, 187500.00, 187500.00, 187500.00, -15402.23, 187500.00, 22743.57, 187500.00, 187500.00, 459, 284, 1018, 17:16:31.863, 1579101391863
39, 187500.00, 187500.00, 187500.00, -15396.24, 187500.00, 22752.62, 187500.00, 187500.00, 459, 284, 1019, 17:16:31.866, 1579101391866
40, 187500.00, 187500.00, 187500.00, -15395.23, 187500.00, 22770.77, 187500.00, 187500.00, 459, 284, 1019, 17:16:31.870, 1579101391870
41, 187500.00, 187500.00, 187500.00, -15399.48, 187500.00, 22753.92, 187500.00, 187500.00, 459, 284, 1018, 17:16:31.874, 1579101391874
42, 187500.00, 187500.00, 187500.00, -15405.65, 187500.00, 22745.60, 187500.00, 187500.00, 459, 284, 1019, 17:16:31.878, 1579101391878
43, 187500.00, 187500.00, 187500.00, -15408.38, 187500.00, 22744.89, 187500.00, 187500.00, 459, 284, 1018, 17:16:31.881, 1579101391881
44, 187500.00, 187500.00, 187500.00, -15395.25, 187500.00, 22757.16, 187500.00, 187500.00, 459, 284, 1019, 17:16:31.886, 1579101391886
45, 187500.00, 187500.00, 187500.00, -15398.09, 187500.00, 22765.90, 187500.00, 187500.00, 459, 284, 1018, 17:16:31.890, 1579101391890
46, 187500.00, 187500.00, 187500.00, -15398.32, 187500.00, 22757.27, 187500.00, 187500.00, 459, 284, 1018, 17:16:31.894, 1579101391894
47, 187500.00, 187500.00, 187500.00, -15408.89, 187500.00, 22756.62, 187500.00, 187500.00, 459, 284, 1018, 17:16:31.898, 1579101391898
48, 187500.00, 187500.00, 187500.00, -15405.18, 187500.00, 22751.64, 187500.00, 187500.00, 459, 284, 1018, 17:16:31.902, 1579101391902
49, 187500.00, 187500.00, 187500.00, -15388.80, 187500.00, 22744.69, 187500.00, 187500.00, 459, 284, 1019, 17:16:31.905, 1579101391905
50, 187500.00, 187500.00, 187500.00, -15399.55, 187500.00, 22751.26, 187500.00, 187500.00, 459, 284, 1019, 17:16:31.909, 1579101391909
51, 187500.00, 187500.00, 187500.00, -15399.32, 187500.00, 22743.75, 187500.00, 187500.00, 459, 284, 1019, 17:16:31.913, 1579101391913
52, 187500.00, 187500.00, 187500.00, -15399.86, 187500.00, 22741.58, 187500.00, 187500.00, 460, 284, 1019, 17:16:31.918, 1579101391918
53, 187500.00, 187500.00, 187500.00, -15395.03, 187500.00, 22739.26, 187500.00, 187500.00, 460, 284, 1019, 17:16:31.922, 1579101391922
54, 187500.00, 187500.00, 187500.00, -15404.06, 187500.00, 22738.00, 187500.00, 187500.00, 460, 284, 1019, 17:16:31.926, 1579101391926
55, 187500.00, 187500.00, 187500.00, -15411.42, 187500.00, 22755.93, 187500.00, 187500.00, 460, 284, 1018, 17:16:31.930, 1579101391930
56, 187500.00, 187500.00, 187500.00, -15406.92, 187500.00, 22758.23, 187500.00, 187500.00, 460, 284, 1018, 17:16:31.933, 1579101391933
57, 187500.00, 187500.00, 187500.00, -15397.42, 187500.00, 22741.78, 187500.00, 187500.00, 461, 285, 1019, 17:16:31.937, 1579101391937
58, 187500.00, 187500.00, 187500.00, -15396.37, 187500.00, 22737.09, 187500.00, 187500.00, 461, 284, 1018, 17:16:31.941, 1579101391941
59, 187500.00, 187500.00, 187500.00, -15403.82, 187500.00, 22738.92, 187500.00, 187500.00, 461, 284, 1018, 17:16:31.946, 1579101391946
60, 187500.00, 187500.00, 187500.00, -15396.89, 187500.00, 22756.40, 187500.00, 187500.00, 461, 285, 1018, 17:16:31.950, 1579101391950
61, 187500.00, 187500.00, 187500.00, -15402.68, 187500.00, 22752.26, 187500.00, 187500.00, 461, 285, 1018, 17:16:31.954, 1579101391954
62, 187500.00, 187500.00, 187500.00, -15402.27, 187500.00, 22749.69, 187500.00, 187500.00, 461, 285, 1019, 17:16:31.957, 1579101391957
63, 187500.00, 187500.00, 187500.00, -15392.48, 187500.00, 22760.87, 187500.00, 187500.00, 461, 285, 1019, 17:16:31.962, 1579101391962
64, 187500.00, 187500.00, 187500.00, -15392.75, 187500.00, 22750.90, 187500.00, 187500.00, 461, 285, 1019, 17:16:31.965, 1579101391965
65, 187500.00, 187500.00, 187500.00, -15405.25, 187500.00, 22758.70, 187500.00, 187500.00, 460, 285, 1019, 17:16:31.969, 1579101391969
66, 187500.00, 187500.00, 187500.00, -15404.55, 187500.00, 22761.74, 187500.00, 187500.00, 460, 285, 1018, 17:16:31.973, 1579101391973
67, 187500.00, 187500.00, 187500.00, -15401.16, 187500.00, 22747.91, 187500.00, 187500.00, 460, 285, 1019, 17:16:31.978, 1579101391978
68, 187500.00, 187500.00, 187500.00, -15404.87, 187500.00, 22748.51, 187500.00, 187500.00, 459, 284, 1019, 17:16:31.982, 1579101391982
69, 187500.00, 187500.00, 187500.00, -15401.40, 187500.00, 22757.05, 187500.00, 187500.00, 459, 284, 1018, 17:16:31.984, 1579101391984
70, 187500.00, 187500.00, 187500.00, -15392.10, 187500.00, 22756.64, 187500.00, 187500.00, 459, 284, 1018, 17:16:31.988, 1579101391988
71, 187500.00, 187500.00, 187500.00, -15393.33, 187500.00, 22755.97, 187500.00, 187500.00, 459, 284, 1019, 17:16:31.992, 1579101391992
72, 187500.00, 187500.00, 187500.00, -15393.40, 187500.00, 22764.02, 187500.00, 187500.00, 458, 284, 1018, 17:16:31.997, 1579101391997
73, 187500.00, 187500.00, 187500.00, -15392.60, 187500.00, 22771.38, 187500.00, 187500.00, 458, 284, 1018, 17:16:32.002, 1579101392002
74, 187500.00, 187500.00, 187500.00, -15396.02, 187500.00, 22769.65, 187500.00, 187500.00, 458, 284, 1018, 17:16:32.005, 1579101392005
75, 187500.00, 187500.00, 187500.00, -15401.07, 187500.00, 22769.56, 187500.00, 187500.00, 458, 284, 1018, 17:16:32.010, 1579101392010
76, 187500.00, 187500.00, 187500.00, -15388.62, 187500.00, 22758.81, 187500.00, 187500.00, 459, 284, 1018, 17:16:32.012, 1579101392012
77, 187500.00, 187500.00, 187500.00, -15387.77, 187500.00, 22749.45, 187500.00, 187500.00, 458, 284, 1019, 17:16:32.016, 1579101392016
78, 187500.00, 187500.00, 187500.00, -15399.37, 187500.00, 22737.36, 187500.00, 187500.00, 458, 284, 1018, 17:16:32.020, 1579101392020
79, 187500.00, 187500.00, 187500.00, -15383.01, 187500.00, 22738.88, 187500.00, 187500.00, 458, 284, 1019, 17:16:32.024, 1579101392024
80, 187500.00, 187500.00, 187500.00, -15386.07, 187500.00, 22752.06, 187500.00, 187500.00, 458, 284, 1019, 17:16:32.029, 1579101392029
81, 187500.00, 187500.00, 187500.00, -15385.46, 187500.00, 22785.14, 187500.00, 187500.00, 458, 284, 1018, 17:16:32.034, 1579101392034
82, 187500.00, 187500.00, 187500.00, -15389.33, 187500.00, 22776.74, 187500.00, 187500.00, 458, 284, 1019, 17:16:32.040, 1579101392040
83, 187500.00, 187500.00, 187500.00, -15394.07, 187500.00, 22782.82, 187500.00, 187500.00, 459, 284, 1019, 17:16:32.041, 1579101392041
84, 187500.00, 187500.00, 187500.00, -15395.14, 187500.00, 22752.42, 187500.00, 187500.00, 459, 284, 1019, 17:16:32.045, 1579101392045
85, 187500.00, 187500.00, 187500.00, -15389.56, 187500.00, 22678.88, 187500.00, 187500.00, 459, 284, 1018, 17:16:32.049, 1579101392049
86, 187500.00, 187500.00, 187500.00, -15382.87, 187500.00, 22755.60, 187500.00, 187500.00, 459, 284, 1019, 17:16:32.053, 1579101392053
87, 187500.00, 187500.00, 187500.00, -15377.04, 187500.00, 22782.22, 187500.00, 187500.00, 459, 284, 1018, 17:16:32.057, 1579101392057
88, 187500.00, 187500.00, 187500.00, -15382.96, 187500.00, 22768.13, 187500.00, 187500.00, 458, 284, 1018, 17:16:32.062, 1579101392062
89, 187500.00, 187500.00, 187500.00, -15387.75, 187500.00, 22779.58, 187500.00, 187500.00, 458, 284, 1019, 17:16:32.067, 1579101392067
90, 187500.00, 187500.00, 187500.00, -15386.31, 187500.00, 22770.57, 187500.00, 187500.00, 458, 284, 1018, 17:16:32.070, 1579101392070
91, 187500.00, 187500.00, 187500.00, -15389.58, 187500.00, 22739.75, 187500.00, 187500.00, 459, 284, 1018, 17:16:32.073, 1579101392073
92, 187500.00, 187500.00, 187500.00, -15388.04, 187500.00, 22748.98, 187500.00, 187500.00, 458, 284, 1018, 17:16:32.077, 1579101392077
93, 187500.00, 187500.00, 187500.00, -15388.95, 187500.00, 22634.38, 187500.00, 187500.00, 458, 284, 1018, 17:16:32.082, 1579101392082
94, 187500.00, 187500.00, 187500.00, -15381.44, 187500.00, 22698.73, 187500.00, 187500.00, 458, 284, 1019, 17:16:32.085, 1579101392085
95, 187500.00, 187500.00, 187500.00, -15378.83, 187500.00, 22802.20, 187500.00, 187500.00, 458, 284, 1018, 17:16:32.089, 1579101392089
96, 187500.00, 187500.00, 187500.00, -15388.97, 187500.00, 22726.11, 187500.00, 187500.00, 458, 284, 1018, 17:16:32.097, 1579101392097
97, 187500.00, 187500.00, 187500.00, -15399.95, 187500.00, 22708.84, 187500.00, 187500.00, 458, 284, 1019, 17:16:32.097, 1579101392097
98, 187500.00, 187500.00, 187500.00, -15394.41, 187500.00, 22828.64, 187500.00, 187500.00, 459, 284, 1019, 17:16:32.101, 1579101392101
99, 187500.00, 187500.00, 187500.00, -15390.45, 187500.00, 22755.04, 187500.00, 187500.00, 459, 284, 1019, 17:16:32.107, 1579101392107
100, 187500.00, 187500.00, 187500.00, -15379.68, 187500.00, 22629.84, 187500.00, 187500.00, 459, 284, 1019, 17:16:32.116, 1579101392116
101, 187500.00, 187500.00, 187500.00, -15368.88, 187500.00, 22720.84, 187500.00, 187500.00, 459, 284, 1019, 17:16:32.118, 1579101392118
102, 187500.00, 187500.00, 187500.00, -15376.08, 187500.00, 22791.09, 187500.00, 187500.00, 459, 284, 1018, 17:16:32.118, 1579101392118
103, 187500.00, 187500.00, 187500.00, -15376.19, 187500.00, 22762.66, 187500.00, 187500.00, 459, 284, 1019, 17:16:32.123, 1579101392123
104, 187500.00, 187500.00, 187500.00, -15373.95, 187500.00, 22740.04, 187500.00, 187500.00, 459, 284, 1018, 17:16:32.126, 1579101392126
105, 187500.00, 187500.00, 187500.00, -15383.74, 187500.00, 22710.02, 187500.00, 187500.00, 459, 284, 1019, 17:16:32.130, 1579101392130
106, 187500.00, 187500.00, 187500.00, -15378.29, 187500.00, 22670.84, 187500.00, 187500.00, 459, 284, 1018, 17:16:32.133, 1579101392133
107, 187500.00, 187500.00, 187500.00, -15400.53, 187500.00, 22591.31, 187500.00, 187500.00, 459, 284, 1018, 17:16:32.137, 1579101392137
108, 187500.00, 187500.00, 187500.00, -15402.68, 187500.00, 22592.61, 187500.00, 187500.00, 459, 284, 1018, 17:16:32.142, 1579101392142
109, 187500.00, 187500.00, 187500.00, -15405.65, 187500.00, 22665.29, 187500.00, 187500.00, 459, 284, 1018, 17:16:32.146, 1579101392146
110, 187500.00, 187500.00, 187500.00, -15400.82, 187500.00, 22617.35, 187500.00, 187500.00, 459, 284, 1018, 17:16:32.151, 1579101392151
111, 187500.00, 187500.00, 187500.00, -15412.73, 187500.00, 22577.92, 187500.00, 187500.00, 459, 284, 1018, 17:16:32.153, 1579101392153
112, 187500.00, 187500.00, 187500.00, -15411.50, 187500.00, 22613.10, 187500.00, 187500.00, 459, 284, 1019, 17:16:32.156, 1579101392156
113, 187500.00, 187500.00, 187500.00, -15400.40, 187500.00, 22652.31, 187500.00, 187500.00, 459, 284, 1019, 17:16:32.162, 1579101392162
114, 187500.00, 187500.00, 187500.00, -15407.48, 187500.00, 22645.07, 187500.00, 187500.00, 458, 284, 1019, 17:16:32.165, 1579101392165
115, 187500.00, 187500.00, 187500.00, -15419.22, 187500.00, 22674.77, 187500.00, 187500.00, 459, 284, 1019, 17:16:32.169, 1579101392169
116, 187500.00, 187500.00, 187500.00, -15427.31, 187500.00, 22823.86, 187500.00, 187500.00, 459, 284, 1019, 17:16:32.173, 1579101392173
117, 187500.00, 187500.00, 187500.00, -15429.81, 187500.00, 22763.26, 187500.00, 187500.00, 458, 284, 1019, 17:16:32.178, 1579101392178
118, 187500.00, 187500.00, 187500.00, -15437.99, 187500.00, 22742.05, 187500.00, 187500.00, 458, 284, 1018, 17:16:32.181, 1579101392181
119, 187500.00, 187500.00, 187500.00, -15440.99, 187500.00, 22859.60, 187500.00, 187500.00, 458, 284, 1019, 17:16:32.185, 1579101392185
120, 187500.00, 187500.00, 187500.00, -15435.13, 187500.00, 22642.67, 187500.00, 187500.00, 458, 284, 1019, 17:16:32.189, 1579101392189
121, 187500.00, 187500.00, 187500.00, -15440.16, 187500.00, 22586.19, 187500.00, 187500.00, 458, 284, 1018, 17:16:32.193, 1579101392193
122, 187500.00, 187500.00, 187500.00, -15447.20, 187500.00, 22724.84, 187500.00, 187500.00, 458, 284, 1018, 17:16:32.197, 1579101392197
123, 187500.00, 187500.00, 187500.00, -15435.26, 187500.00, 22869.48, 187500.00, 187500.00, 458, 284, 1019, 17:16:32.201, 1579101392201
124, 187500.00, 187500.00, 187500.00, -15451.98, 187500.00, 22699.40, 187500.00, 187500.00, 458, 284, 1018, 17:16:32.205, 1579101392205
125, 187500.00, 187500.00, 187500.00, -15449.95, 187500.00, 22629.91, 187500.00, 187500.00, 458, 284, 1018, 17:16:32.209, 1579101392209
126, 187500.00, 187500.00, 187500.00, -15444.36, 187500.00, 22532.70, 187500.00, 187500.00, 458, 284, 1018, 17:16:32.212, 1579101392212
127, 187500.00, 187500.00, 187500.00, -15446.53, 187500.00, 22637.58, 187500.00, 187500.00, 458, 284, 1018, 17:16:32.217, 1579101392217
128, 187500.00, 187500.00, 187500.00, -15444.29, 187500.00, 22641.33, 187500.00, 187500.00, 458, 283, 1019, 17:16:32.221, 1579101392221
129, 187500.00, 187500.00, 187500.00, -15443.13, 187500.00, 22694.46, 187500.00, 187500.00, 458, 283, 1019, 17:16:32.225, 1579101392225
130, 187500.00, 187500.00, 187500.00, -15453.41, 187500.00, 22678.41, 187500.00, 187500.00, 458, 284, 1019, 17:16:32.230, 1579101392230
131, 187500.00, 187500.00, 187500.00, -15450.35, 187500.00, 22660.29, 187500.00, 187500.00, 458, 284, 1019, 17:16:32.232, 1579101392232
132, 187500.00, 187500.00, 187500.00, -15448.16, 187500.00, 22634.96, 187500.00, 187500.00, 458, 284, 1019, 17:16:32.236, 1579101392236
133, 187500.00, 187500.00, 187500.00, -15448.56, 187500.00, 22565.11, 187500.00, 187500.00, 459, 284, 1018, 17:16:32.241, 1579101392241
134, 187500.00, 187500.00, 187500.00, -15455.58, 187500.00, 22378.54, 187500.00, 187500.00, 460, 284, 1019, 17:16:32.245, 1579101392245
135, 187500.00, 187500.00, 187500.00, -15450.67, 187500.00, 22625.04, 187500.00, 187500.00, 460, 284, 1018, 17:16:32.249, 1579101392249
136, 187500.00, 187500.00, 187500.00, -15443.45, 187500.00, 22498.55, 187500.00, 187500.00, 461, 284, 1018, 17:16:32.253, 1579101392253
137, 187500.00, 187500.00, 187500.00, -15443.18, 187500.00, 22398.86, 187500.00, 187500.00, 461, 285, 1018, 17:16:32.258, 1579101392258
138, 187500.00, 187500.00, 187500.00, -15437.12, 187500.00, 22239.45, 187500.00, 187500.00, 461, 285, 1018, 17:16:32.264, 1579101392264
139, 187500.00, 187500.00, 187500.00, -15444.03, 187500.00, 22291.73, 187500.00, 187500.00, 461, 284, 1018, 17:16:32.265, 1579101392265
140, 187500.00, 187500.00, 187500.00, -15450.91, 187500.00, 22209.21, 187500.00, 187500.00, 461, 285, 1018, 17:16:32.269, 1579101392269
141, 187500.00, 187500.00, 187500.00, -15452.50, 187500.00, 22094.38, 187500.00, 187500.00, 461, 285, 1018, 17:16:32.273, 1579101392273
142, 187500.00, 187500.00, 187500.00, -15453.26, 187500.00, 22120.87, 187500.00, 187500.00, 461, 285, 1019, 17:16:32.278, 1579101392278
143, 187500.00, 187500.00, 187500.00, -15437.86, 187500.00, 22006.16, 187500.00, 187500.00, 461, 285, 1019, 17:16:32.283, 1579101392283
144, 187500.00, 187500.00, 187500.00, -15443.94, 187500.00, 21855.58, 187500.00, 187500.00, 462, 285, 1018, 17:16:32.286, 1579101392286
145, 187500.00, 187500.00, 187500.00, -15445.90, 187500.00, 21912.20, 187500.00, 187500.00, 462, 285, 1019, 17:16:32.288, 1579101392288
146, 187500.00, 187500.00, 187500.00, -15449.68, 187500.00, 21982.18, 187500.00, 187500.00, 462, 285, 1020, 17:16:32.293, 1579101392293
147, 187500.00, 187500.00, 187500.00, -15443.56, 187500.00, 21901.87, 187500.00, 187500.00, 462, 285, 1019, 17:16:32.299, 1579101392299
148, 187500.00, 187500.00, 187500.00, -15435.82, 187500.00, 21835.84, 187500.00, 187500.00, 462, 285, 1019, 17:16:32.301, 1579101392301
149, 187500.00, 187500.00, 187500.00, -15436.49, 187500.00, 21770.78, 187500.00, 187500.00, 462, 285, 1018, 17:16:32.306, 1579101392306
150, 187500.00, 187500.00, 187500.00, -15441.05, 187500.00, 21816.71, 187500.00, 187500.00, 462, 285, 1018, 17:16:32.312, 1579101392312
151, 187500.00, 187500.00, 187500.00, -15441.23, 187500.00, 21718.18, 187500.00, 187500.00, 462, 285, 1018, 17:16:32.313, 1579101392313
152, 187500.00, 187500.00, 187500.00, -15438.04, 187500.00, 21665.12, 187500.00, 187500.00, 461, 286, 1018, 17:16:32.317, 1579101392317
153, 187500.00, 187500.00, 187500.00, -15432.05, 187500.00, 21674.20, 187500.00, 187500.00, 461, 285, 1019, 17:16:32.320, 1579101392320
154, 187500.00, 187500.00, 187500.00, -15424.69, 187500.00, 21783.88, 187500.00, 187500.00, 460, 285, 1019, 17:16:32.325, 1579101392325
155, 187500.00, 187500.00, 187500.00, -15435.20, 187500.00, 21785.26, 187500.00, 187500.00, 460, 285, 1019, 17:16:32.330, 1579101392330
156, 187500.00, 187500.00, 187500.00, -15432.40, 187500.00, 21756.63, 187500.00, 187500.00, 459, 285, 1018, 17:16:32.333, 1579101392333
157, 187500.00, 187500.00, 187500.00, -15427.75, 187500.00, 21814.65, 187500.00, 187500.00, 459, 285, 1020, 17:16:32.337, 1579101392337
158, 187500.00, 187500.00, 187500.00, -15433.59, 187500.00, 21727.86, 187500.00, 187500.00, 459, 284, 1019, 17:16:32.341, 1579101392341
159, 187500.00, 187500.00, 187500.00, -15433.01, 187500.00, 21471.29, 187500.00, 187500.00, 459, 284, 1019, 17:16:32.345, 1579101392345
160, 187500.00, 187500.00, 187500.00, -15432.58, 187500.00, 21440.60, 187500.00, 187500.00, 459, 284, 1019, 17:16:32.348, 1579101392348
161, 187500.00, 187500.00, 187500.00, -15428.34, 187500.00, 21570.13, 187500.00, 187500.00, 459, 284, 1018, 17:16:32.353, 1579101392353
162, 187500.00, 187500.00, 187500.00, -15438.48, 187500.00, 21522.03, 187500.00, 187500.00, 458, 284, 1018, 17:16:32.356, 1579101392356
163, 187500.00, 187500.00, 187500.00, -15424.54, 187500.00, 21442.16, 187500.00, 187500.00, 459, 284, 1019, 17:16:32.362, 1579101392362
164, 187500.00, 187500.00, 187500.00, -15420.33, 187500.00, 21565.72, 187500.00, 187500.00, 459, 284, 1018, 17:16:32.366, 1579101392366
165, 187500.00, 187500.00, 187500.00, -15428.13, 187500.00, 21643.57, 187500.00, 187500.00, 459, 284, 1018, 17:16:32.370, 1579101392370
166, 187500.00, 187500.00, 187500.00, -15413.58, 187500.00, 21476.52, 187500.00, 187500.00, 459, 284, 1019, 17:16:32.374, 1579101392374
167, 187500.00, 187500.00, 187500.00, -15417.92, 187500.00, 21306.93, 187500.00, 187500.00, 460, 285, 1019, 17:16:32.377, 1579101392377
168, 187500.00, 187500.00, 187500.00, -15426.37, 187500.00, 21351.37, 187500.00, 187500.00, 460, 284, 1019, 17:16:32.381, 1579101392381
169, 187500.00, 187500.00, 187500.00, -15432.09, 187500.00, 21300.63, 187500.00, 187500.00, 460, 284, 1018, 17:16:32.385, 1579101392385
170, 187500.00, 187500.00, 187500.00, -15429.97, 187500.00, 21274.35, 187500.00, 187500.00, 461, 285, 1018, 17:16:32.388, 1579101392388
171, 187500.00, 187500.00, 187500.00, -15419.55, 187500.00, 21310.96, 187500.00, 187500.00, 461, 285, 1019, 17:16:32.394, 1579101392394
172, 187500.00, 187500.00, 187500.00, -15407.08, 187500.00, 21318.80, 187500.00, 187500.00, 462, 285, 1019, 17:16:32.396, 1579101392396
173, 187500.00, 187500.00, 187500.00, -15415.15, 187500.00, 21317.48, 187500.00, 187500.00, 462, 285, 1018, 17:16:32.400, 1579101392400
174, 187500.00, 187500.00, 187500.00, -15413.81, 187500.00, 21335.16, 187500.00, 187500.00, 461, 285, 1019, 17:16:32.404, 1579101392404
175, 187500.00, 187500.00, 187500.00, -15418.48, 187500.00, 21353.69, 187500.00, 187500.00, 462, 285, 1018, 17:16:32.408, 1579101392408
176, 187500.00, 187500.00, 187500.00, -15420.58, 187500.00, 21348.96, 187500.00, 187500.00, 462, 285, 1018, 17:16:32.413, 1579101392413
177, 187500.00, 187500.00, 187500.00, -15405.60, 187500.00, 21331.81, 187500.00, 187500.00, 461, 285, 1018, 17:16:32.417, 1579101392417
178, 187500.00, 187500.00, 187500.00, -15409.61, 187500.00, 21243.30, 187500.00, 187500.00, 461, 285, 1018, 17:16:32.422, 1579101392422
179, 187500.00, 187500.00, 187500.00, -15420.40, 187500.00, 21151.81, 187500.00, 187500.00, 461, 285, 1019, 17:16:32.425, 1579101392425
180, 187500.00, 187500.00, 187500.00, -15414.28, 187500.00, 21119.51, 187500.00, 187500.00, 461, 285, 1019, 17:16:32.428, 1579101392428
181, 187500.00, 187500.00, 187500.00, -15413.49, 187500.00, 21150.09, 187500.00, 187500.00, 462, 285, 1018, 17:16:32.433, 1579101392433
182, 187500.00, 187500.00, 187500.00, -15412.11, 187500.00, 21158.63, 187500.00, 187500.00, 462, 285, 1018, 17:16:32.437, 1579101392437
183, 187500.00, 187500.00, 187500.00, -15409.02, 187500.00, 21100.00, 187500.00, 187500.00, 461, 285, 1019, 17:16:32.441, 1579101392441
184, 187500.00, 187500.00, 187500.00, -15412.51, 187500.00, 21100.58, 187500.00, 187500.00, 461, 285, 1019, 17:16:32.445, 1579101392445
185, 187500.00, 187500.00, 187500.00, -15415.44, 187500.00, 21132.39, 187500.00, 187500.00, 461, 285, 1019, 17:16:32.450, 1579101392450
186, 187500.00, 187500.00, 187500.00, -15418.90, 187500.00, 21086.77, 187500.00, 187500.00, 461, 285, 1018, 17:16:32.452, 1579101392452
187, 187500.00, 187500.00, 187500.00, -15421.41, 187500.00, 21073.29, 187500.00, 187500.00, 461, 285, 1019, 17:16:32.457, 1579101392457
188, 187500.00, 187500.00, 187500.00, -15414.23, 187500.00, 21094.26, 187500.00, 187500.00, 461, 285, 1018, 17:16:32.462, 1579101392462
189, 187500.00, 187500.00, 187500.00, -15418.77, 187500.00, 21066.54, 187500.00, 187500.00, 461, 285, 1018, 17:16:32.465, 1579101392465
190, 187500.00, 187500.00, 187500.00, -15419.24, 187500.00, 21133.33, 187500.00, 187500.00, 461, 285, 1019, 17:16:32.469, 1579101392469
191, 187500.00, 187500.00, 187500.00, -15415.53, 187500.00, 21013.19, 187500.00, 187500.00, 461, 285, 1019, 17:16:32.473, 1579101392473
192, 187500.00, 187500.00, 187500.00, -15421.63, 187500.00, 20973.18, 187500.00, 187500.00, 461, 285, 1019, 17:16:32.477, 1579101392477
193, 187500.00, 187500.00, 187500.00, -15421.79, 187500.00, 20941.68, 187500.00, 187500.00, 461, 285, 1019, 17:16:32.481, 1579101392481
194, 187500.00, 187500.00, 187500.00, -15414.83, 187500.00, 20970.63, 187500.00, 187500.00, 461, 285, 1019, 17:16:32.484, 1579101392484
195, 187500.00, 187500.00, 187500.00, -15422.12, 187500.00, 20986.70, 187500.00, 187500.00, 461, 285, 1018, 17:16:32.489, 1579101392489
196, 187500.00, 187500.00, 187500.00, -15424.67, 187500.00, 21004.29, 187500.00, 187500.00, 461, 285, 1019, 17:16:32.494, 1579101392494
197, 187500.00, 187500.00, 187500.00, -15422.90, 187500.00, 21010.24, 187500.00, 187500.00, 461, 285, 1018, 17:16:32.497, 1579101392497
198, 187500.00, 187500.00, 187500.00, -15428.51, 187500.00, 20983.62, 187500.00, 187500.00, 461, 285, 1019, 17:16:32.501, 1579101392501
199, 187500.00, 187500.00, 187500.00, -15425.36, 187500.00, 20976.66, 187500.00, 187500.00, 461, 285, 1018, 17:16:32.506, 1579101392506
200, 187500.00, 187500.00, 187500.00, -15422.64, 187500.00, 20991.04, 187500.00, 187500.00, 461, 285, 1018, 17:16:32.509, 1579101392509
201, 187500.00, 187500.00, 187500.00, -15420.47, 187500.00, 21006.15, 187500.00, 187500.00, 461, 285, 1018, 17:16:32.513, 1579101392513
202, 187500.00, 187500.00, 187500.00, -15420.45, 187500.00, 21008.72, 187500.00, 187500.00, 461, 285, 1018, 17:16:32.517, 1579101392517
203, 187500.00, 187500.00, 187500.00, -15422.95, 187500.00, 20999.55, 187500.00, 187500.00, 461, 285, 1018, 17:16:32.520, 1579101392520
204, 187500.00, 187500.00, 187500.00, -15420.71, 187500.00, 21013.16, 187500.00, 187500.00, 461, 285, 1019, 17:16:32.525, 1579101392525
205, 187500.00, 187500.00, 187500.00, -15421.14, 187500.00, 21039.41, 187500.00, 187500.00, 461, 285, 1019, 17:16:32.529, 1579101392529
206, 187500.00, 187500.00, 187500.00, -15427.55, 187500.00, 21042.80, 187500.00, 187500.00, 461, 285, 1018, 17:16:32.532, 1579101392532
207, 187500.00, 187500.00, 187500.00, -15427.08, 187500.00, 21040.95, 187500.00, 187500.00, 461, 285, 1018, 17:16:32.536, 1579101392536
208, 187500.00, 187500.00, 187500.00, -15426.19, 187500.00, 21053.24, 187500.00, 187500.00, 461, 285, 1018, 17:16:32.539, 1579101392539
209, 187500.00, 187500.00, 187500.00, -15431.60, 187500.00, 21072.46, 187500.00, 187500.00, 461, 285, 1018, 17:16:32.545, 1579101392545
210, 187500.00, 187500.00, 187500.00, -15427.44, 187500.00, 21093.59, 187500.00, 187500.00, 461, 285, 1018, 17:16:32.549, 1579101392549
211, 187500.00, 187500.00, 187500.00, -15434.44, 187500.00, 21109.63, 187500.00, 187500.00, 461, 285, 1019, 17:16:32.553, 1579101392553
212, 187500.00, 187500.00, 187500.00, -15431.49, 187500.00, 21118.15, 187500.00, 187500.00, 461, 285, 1019, 17:16:32.556, 1579101392556
213, 187500.00, 187500.00, 187500.00, -15424.22, 187500.00, 21129.62, 187500.00, 187500.00, 461, 285, 1019, 17:16:32.563, 1579101392563
214, 187500.00, 187500.00, 187500.00, -15430.91, 187500.00, 21157.11, 187500.00, 187500.00, 461, 285, 1019, 17:16:32.564, 1579101392564
215, 187500.00, 187500.00, 187500.00, -15431.26, 187500.00, 21177.83, 187500.00, 187500.00, 461, 285, 1019, 17:16:32.568, 1579101392568
216, 187500.00, 187500.00, 187500.00, -15426.21, 187500.00, 21196.67, 187500.00, 187500.00, 462, 285, 1018, 17:16:32.573, 1579101392573
217, 187500.00, 187500.00, 187500.00, -15431.33, 187500.00, 21214.00, 187500.00, 187500.00, 461, 285, 1018, 17:16:32.576, 1579101392576
218, 187500.00, 187500.00, 187500.00, -15431.15, 187500.00, 21245.06, 187500.00, 187500.00, 461, 285, 1018, 17:16:32.581, 1579101392581
219, 187500.00, 187500.00, 187500.00, -15433.88, 187500.00, 21252.44, 187500.00, 187500.00, 461, 285, 1018, 17:16:32.585, 1579101392585
220, 187500.00, 187500.00, 187500.00, -15426.39, 187500.00, 21285.70, 187500.00, 187500.00, 461, 285, 1018, 17:16:32.588, 1579101392588
221, 187500.00, 187500.00, 187500.00, -15431.29, 187500.00, 21278.70, 187500.00, 187500.00, 461, 285, 1018, 17:16:32.592, 1579101392592
222, 187500.00, 187500.00, 187500.00, -15433.86, 187500.00, 21291.42, 187500.00, 187500.00, 461, 285, 1018, 17:16:32.596, 1579101392596
223, 187500.00, 187500.00, 187500.00, -15434.64, 187500.00, 21305.88, 187500.00, 187500.00, 461, 285, 1019, 17:16:32.600, 1579101392600
224, 187500.00, 187500.00, 187500.00, -15427.93, 187500.00, 21329.60, 187500.00, 187500.00, 461, 284, 1019, 17:16:32.605, 1579101392605
225, 187500.00, 187500.00, 187500.00, -15433.19, 187500.00, 21357.02, 187500.00, 187500.00, 461, 285, 1018, 17:16:32.609, 1579101392609
226, 187500.00, 187500.00, 187500.00, -15430.50, 187500.00, 21370.32, 187500.00, 187500.00, 461, 285, 1018, 17:16:32.613, 1579101392613
227, 187500.00, 187500.00, 187500.00, -15433.14, 187500.00, 21383.55, 187500.00, 187500.00, 461, 285, 1018, 17:16:32.616, 1579101392616
228, 187500.00, 187500.00, 187500.00, -15425.50, 187500.00, 21384.76, 187500.00, 187500.00, 461, 285, 1018, 17:16:32.620, 1579101392620
229, 187500.00, 187500.00, 187500.00, -15422.37, 187500.00, 21405.77, 187500.00, 187500.00, 461, 285, 1018, 17:16:32.623, 1579101392623
230, 187500.00, 187500.00, 187500.00, -15434.80, 187500.00, 21449.96, 187500.00, 187500.00, 461, 285, 1018, 17:16:32.628, 1579101392628
231, 187500.00, 187500.00, 187500.00, -15431.78, 187500.00, 21480.32, 187500.00, 187500.00, 461, 285, 1017, 17:16:32.634, 1579101392634
232, 187500.00, 187500.00, 187500.00, -15419.04, 187500.00, 21473.41, 187500.00, 187500.00, 461, 285, 1019, 17:16:32.639, 1579101392639
233, 187500.00, 187500.00, 187500.00, -15420.62, 187500.00, 21523.14, 187500.00, 187500.00, 461, 285, 1019, 17:16:32.641, 1579101392641
234, 187500.00, 187500.00, 187500.00, -15418.12, 187500.00, 21485.44, 187500.00, 187500.00, 461, 285, 1019, 17:16:32.645, 1579101392645
235, 187500.00, 187500.00, 187500.00, -15421.56, 187500.00, 21445.69, 187500.00, 187500.00, 461, 285, 1018, 17:16:32.648, 1579101392648
236, 187500.00, 187500.00, 187500.00, -15427.84, 187500.00, 21456.96, 187500.00, 187500.00, 461, 285, 1018, 17:16:32.652, 1579101392652
237, 187500.00, 187500.00, 187500.00, -15431.11, 187500.00, 21472.76, 187500.00, 187500.00, 461, 285, 1019, 17:16:32.656, 1579101392656
238, 187500.00, 187500.00, 187500.00, -15428.00, 187500.00, 21500.95, 187500.00, 187500.00, 461, 285, 1019, 17:16:32.662, 1579101392662
239, 187500.00, 187500.00, 187500.00, -15434.84, 187500.00, 21529.51, 187500.00, 187500.00, 461, 285, 1018, 17:16:32.665, 1579101392665
240, 187500.00, 187500.00, 187500.00, -15433.32, 187500.00, 21550.68, 187500.00, 187500.00, 461, 285, 1018, 17:16:32.669, 1579101392669
241, 187500.00, 187500.00, 187500.00, -15430.59, 187500.00, 21583.49, 187500.00, 187500.00, 461, 285, 1018, 17:16:32.672, 1579101392672
242, 187500.00, 187500.00, 187500.00, -15427.22, 187500.00, 21579.74, 187500.00, 187500.00, 461, 285, 1019, 17:16:32.677, 1579101392677
243, 187500.00, 187500.00, 187500.00, -15427.98, 187500.00, 21554.10, 187500.00, 187500.00, 461, 285, 1018, 17:16:32.680, 1579101392680
244, 187500.00, 187500.00, 187500.00, -15427.67, 187500.00, 21524.39, 187500.00, 187500.00, 461, 285, 1018, 17:16:32.684, 1579101392684
245, 187500.00, 187500.00, 187500.00, -15435.98, 187500.00, 21554.61, 187500.00, 187500.00, 461, 285, 1019, 17:16:32.689, 1579101392689
246, 187500.00, 187500.00, 187500.00, -15436.63, 187500.00, 21576.94, 187500.00, 187500.00, 461, 285, 1019, 17:16:32.694, 1579101392694
247, 187500.00, 187500.00, 187500.00, -15436.99, 187500.00, 21629.49, 187500.00, 187500.00, 461, 285, 1019, 17:16:32.698, 1579101392698
248, 187500.00, 187500.00, 187500.00, -15431.40, 187500.00, 21679.43, 187500.00, 187500.00, 461, 285, 1019, 17:16:32.700, 1579101392700
249, 187500.00, 187500.00, 187500.00, -15424.94, 187500.00, 21720.31, 187500.00, 187500.00, 461, 284, 1019, 17:16:32.704, 1579101392704
250, 187500.00, 187500.00, 187500.00, -15427.49, 187500.00, 21694.67, 187500.00, 187500.00, 461, 285, 1019, 17:16:32.708, 1579101392708
251, 187500.00, 187500.00, 187500.00, -15433.66, 187500.00, 21537.38, 187500.00, 187500.00, 462, 285, 1018, 17:16:32.712, 1579101392712
252, 187500.00, 187500.00, 187500.00, -15429.79, 187500.00, 21510.83, 187500.00, 187500.00, 462, 285, 1019, 17:16:32.716, 1579101392716
253, 187500.00, 187500.00, 187500.00, -15437.19, 187500.00, 21571.53, 187500.00, 187500.00, 462, 285, 1018, 17:16:32.721, 1579101392721
254, 187500.00, 187500.00, 187500.00, -15444.52, 187500.00, 21678.24, 187500.00, 187500.00, 461, 285, 1019, 17:16:32.725, 1579101392725
255, 187500.00, 187500.00, 187500.00, -15432.36, 187500.00, 21733.03, 187500.00, 187500.00, 461, 285, 1018, 17:16:32.729, 1579101392729
0, 187500.00, 187500.00, 187500.00, -15442.95, 187500.00, 21639.66, 187500.00, 187500.00, 461, 285, 1018, 17:16:32.732, 1579101392732
1, 187500.00, 187500.00, 187500.00, -15439.80, 187500.00, 21578.28, 187500.00, 187500.00, 461, 286, 1019, 17:16:32.736, 1579101392736
2, 187500.00, 187500.00, 187500.00, -15441.28, 187500.00, 21587.85, 187500.00, 187500.00, 461, 285, 1018, 17:16:32.741, 1579101392741
3, 187500.00, 187500.00, 187500.00, -15437.72, 187500.00, 21603.03, 187500.00, 187500.00, 461, 285, 1018, 17:16:32.744, 1579101392744
4, 187500.00, 187500.00, 187500.00, -15448.34, 187500.00, 21662.33, 187500.00, 187500.00, 461, 285, 1018, 17:16:32.749, 1579101392749
5, 187500.00, 187500.00, 187500.00, -15458.38, 187500.00, 21822.92, 187500.00, 187500.00, 461, 285, 1019, 17:16:32.753, 1579101392753
6, 187500.00, 187500.00, 187500.00, -15439.42, 187500.00, 21802.83, 187500.00, 187500.00, 462, 285, 1019, 17:16:32.756, 1579101392756
7, 187500.00, 187500.00, 187500.00, -15440.83, 187500.00, 21818.21, 187500.00, 187500.00, 461, 285, 1019, 17:16:32.761, 1579101392761
8, 187500.00, 187500.00, 187500.00, -15437.32, 187500.00, 21847.44, 187500.00, 187500.00, 461, 285, 1019, 17:16:32.764, 1579101392764
9, 187500.00, 187500.00, 187500.00, -15435.15, 187500.00, 21825.38, 187500.00, 187500.00, 461, 285, 1019, 17:16:32.768, 1579101392768
10, 187500.00, 187500.00, 187500.00, -15446.19, 187500.00, 21701.20, 187500.00, 187500.00, 460, 285, 1019, 17:16:32.772, 1579101392772
11, 187500.00, 187500.00, 187500.00, -15450.42, 187500.00, 21775.47, 187500.00, 187500.00, 460, 285, 1018, 17:16:32.777, 1579101392777
12, 187500.00, 187500.00, 187500.00, -15454.64, 187500.00, 21710.90, 187500.00, 187500.00, 459, 284, 1018, 17:16:32.782, 1579101392782
13, 187500.00, 187500.00, 187500.00, -15441.50, 187500.00, 21684.14, 187500.00, 187500.00, 459, 284, 1018, 17:16:32.784, 1579101392784
14, 187500.00, 187500.00, 187500.00, -15445.79, 187500.00, 21702.78, 187500.00, 187500.00, 459, 284, 1019, 17:16:32.788, 1579101392788
15, 187500.00, 187500.00, 187500.00, -15459.99, 187500.00, 21683.65, 187500.00, 187500.00, 459, 284, 1018, 17:16:32.792, 1579101392792
16, 187500.00, 187500.00, 187500.00, -15445.86, 187500.00, 21657.52, 187500.00, 187500.00, 459, 284, 1019, 17:16:32.796, 1579101392796
17, 187500.00, 187500.00, 187500.00, -15434.55, 187500.00, 21375.82, 187500.00, 187500.00, 458, 284, 1018, 17:16:32.801, 1579101392801
18, 187500.00, 187500.00, 187500.00, -15443.09, 187500.00, 21527.28, 187500.00, 187500.00, 458, 284, 1018, 17:16:32.804, 1579101392804
19, 187500.00, 187500.00, 187500.00, -15444.99, 187500.00, 21498.20, 187500.00, 187500.00, 458, 284, 1018, 17:16:32.810, 1579101392810
20, 187500.00, 187500.00, 187500.00, -15450.78, 187500.00, 21360.87, 187500.00, 187500.00, 458, 284, 1019, 17:16:32.814, 1579101392814
21, 187500.00, 187500.00, 187500.00, -15450.91, 187500.00, 21303.87, 187500.00, 187500.00, 458, 284, 1019, 17:16:32.816, 1579101392816
22, 187500.00, 187500.00, 187500.00, -15456.10, 187500.00, 21196.92, 187500.00, 187500.00, 458, 284, 1019, 17:16:32.822, 1579101392822
23, 187500.00, 187500.00, 187500.00, -15454.04, 187500.00, 21440.44, 187500.00, 187500.00, 458, 284, 1019, 17:16:32.824, 1579101392824
24, 187500.00, 187500.00, 187500.00, -15444.45, 187500.00, 21428.08, 187500.00, 187500.00, 458, 284, 1019, 17:16:32.829, 1579101392829
25, 187500.00, 187500.00, 187500.00, -15444.56, 187500.00, 21064.10, 187500.00, 187500.00, 459, 284, 1019, 17:16:32.833, 1579101392833
26, 187500.00, 187500.00, 187500.00, -15453.41, 187500.00, 21109.99, 187500.00, 187500.00, 459, 284, 1019, 17:16:32.836, 1579101392836
27, 187500.00, 187500.00, 187500.00, -15443.51, 187500.00, 21087.02, 187500.00, 187500.00, 458, 284, 1019, 17:16:32.839, 1579101392839
28, 187500.00, 187500.00, 187500.00, -15446.40, 187500.00, 21032.01, 187500.00, 187500.00, 459, 284, 1019, 17:16:32.845, 1579101392845
29, 187500.00, 187500.00, 187500.00, -15449.57, 187500.00, 20990.61, 187500.00, 187500.00, 459, 284, 1019, 17:16:32.849, 1579101392849
30, 187500.00, 187500.00, 187500.00, -15447.65, 187500.00, 21091.62, 187500.00, 187500.00, 459, 284, 1018, 17:16:32.852, 1579101392852
31, 187500.00, 187500.00, 187500.00, -15450.46, 187500.00, 21345.54, 187500.00, 187500.00, 459, 284, 1019, 17:16:32.856, 1579101392856
32, 187500.00, 187500.00, 187500.00, -15447.11, 187500.00, 21027.02, 187500.00, 187500.00, 459, 284, 1018, 17:16:32.861, 1579101392861
33, 187500.00, 187500.00, 187500.00, -15454.69, 187500.00, 20747.31, 187500.00, 187500.00, 459, 284, 1019, 17:16:32.865, 1579101392865
34, 187500.00, 187500.00, 187500.00, -15447.45, 187500.00, 20831.91, 187500.00, 187500.00, 459, 284, 1018, 17:16:32.867, 1579101392867
35, 187500.00, 187500.00, 187500.00, -15444.41, 187500.00, 20893.22, 187500.00, 187500.00, 459, 284, 1018, 17:16:32.872, 1579101392872
36, 187500.00, 187500.00, 187500.00, -15442.24, 187500.00, 20858.40, 187500.00, 187500.00, 459, 284, 1018, 17:16:32.876, 1579101392876
37, 187500.00, 187500.00, 187500.00, -15434.91, 187500.00, 20842.51, 187500.00, 187500.00, 458, 284, 1019, 17:16:32.881, 1579101392881
38, 187500.00, 187500.00, 187500.00, -15445.99, 187500.00, 20860.81, 187500.00, 187500.00, 458, 284, 1019, 17:16:32.885, 1579101392885
39, 187500.00, 187500.00, 187500.00, -15452.05, 187500.00, 20865.20, 187500.00, 187500.00, 458, 284, 1019, 17:16:32.888, 1579101392888
40, 187500.00, 187500.00, 187500.00, -15448.14, 187500.00, 20896.15, 187500.00, 187500.00, 459, 284, 1019, 17:16:32.892, 1579101392892
41, 187500.00, 187500.00, 187500.00, -15450.40, 187500.00, 20839.54, 187500.00, 187500.00, 459, 284, 1018, 17:16:32.895, 1579101392895
42, 187500.00, 187500.00, 187500.00, -15449.10, 187500.00, 20780.13, 187500.00, 187500.00, 458, 284, 1018, 17:16:32.900, 1579101392900
43, 187500.00, 187500.00, 187500.00, -15451.16, 187500.00, 20797.54, 187500.00, 187500.00, 458, 284, 1018, 17:16:32.904, 1579101392904
44, 187500.00, 187500.00, 187500.00, -15447.65, 187500.00, 20828.07, 187500.00, 187500.00, 458, 284, 1018, 17:16:32.908, 1579101392908
45, 187500.00, 187500.00, 187500.00, -15438.73, 187500.00, 20856.26, 187500.00, 187500.00, 458, 284, 1018, 17:16:32.913, 1579101392913
46, 187500.00, 187500.00, 187500.00, -15437.43, 187500.00, 20839.13, 187500.00, 187500.00, 458, 284, 1018, 17:16:32.916, 1579101392916
47, 187500.00, 187500.00, 187500.00, -15448.99, 187500.00, 20815.60, 187500.00, 187500.00, 458, 284, 1018, 17:16:32.920, 1579101392920
48, 187500.00, 187500.00, 187500.00, -15443.96, 187500.00, 20846.29, 187500.00, 187500.00, 458, 284, 1019, 17:16:32.923, 1579101392923
49, 187500.00, 187500.00, 187500.00, -15444.85, 187500.00, 20880.98, 187500.00, 187500.00, 458, 284, 1018, 17:16:32.931, 1579101392931
50, 187500.00, 187500.00, 187500.00, -15448.47, 187500.00, 20869.22, 187500.00, 187500.00, 458, 284, 1019, 17:16:32.932, 1579101392932
51, 187500.00, 187500.00, 187500.00, -15442.62, 187500.00, 20877.51, 187500.00, 187500.00, 458, 284, 1019, 17:16:32.937, 1579101392937
52, 187500.00, 187500.00, 187500.00, -15441.32, 187500.00, 20901.96, 187500.00, 187500.00, 458, 284, 1018, 17:16:32.940, 1579101392940
53, 187500.00, 187500.00, 187500.00, -15443.98, 187500.00, 20908.13, 187500.00, 187500.00, 458, 283, 1018, 17:16:32.944, 1579101392944
54, 187500.00, 187500.00, 187500.00, -15444.27, 187500.00, 20927.98, 187500.00, 187500.00, 458, 284, 1018, 17:16:32.949, 1579101392949
55, 187500.00, 187500.00, 187500.00, -15446.31, 187500.00, 20937.08, 187500.00, 187500.00, 458, 284, 1018, 17:16:32.952, 1579101392952
56, 187500.00, 187500.00, 187500.00, -15439.47, 187500.00, 20963.57, 187500.00, 187500.00, 458, 284, 1019, 17:16:32.956, 1579101392956
57, 187500.00, 187500.00, 187500.00, -15431.96, 187500.00, 21005.39, 187500.00, 187500.00, 458, 284, 1018, 17:16:32.961, 1579101392961
58, 187500.00, 187500.00, 187500.00, -15434.15, 187500.00, 21026.75, 187500.00, 187500.00, 458, 284, 1018, 17:16:32.964, 1579101392964
59, 187500.00, 187500.00, 187500.00, -15438.84, 187500.00, 21037.71, 187500.00, 187500.00, 458, 284, 1019, 17:16:32.968, 1579101392968
60, 187500.00, 187500.00, 187500.00, -15432.72, 187500.00, 21053.06, 187500.00, 187500.00, 458, 284, 1018, 17:16:32.972, 1579101392972
61, 187500.00, 187500.00, 187500.00, -15434.53, 187500.00, 21073.76, 187500.00, 187500.00, 459, 284, 1019, 17:16:32.976, 1579101392976
62, 187500.00, 187500.00, 187500.00, -15435.47, 187500.00, 21105.10, 187500.00, 187500.00, 459, 284, 1019, 17:16:32.980, 1579101392980
63, 187500.00, 187500.00, 187500.00, -15431.29, 187500.00, 21114.84, 187500.00, 187500.00, 459, 284, 1018, 17:16:32.984, 1579101392984
64, 187500.00, 187500.00, 187500.00, -15435.49, 187500.00, 21129.37, 187500.00, 187500.00, 459, 284, 1019, 17:16:32.990, 1579101392990
65, 187500.00, 187500.00, 187500.00, -15437.54, 187500.00, 21149.98, 187500.00, 187500.00, 459, 284, 1018, 17:16:32.993, 1579101392993
66, 187500.00, 187500.00, 187500.00, -15436.70, 187500.00, 21157.02, 187500.00, 187500.00, 459, 284, 1018, 17:16:32.997, 1579101392997
67, 187500.00, 187500.00, 187500.00, -15439.18, 187500.00, 21169.40, 187500.00, 187500.00, 459, 284, 1019, 17:16:33.000, 1579101393000
68, 187500.00, 187500.00, 187500.00, -15434.19, 187500.00, 21196.20, 187500.00, 187500.00, 459, 284, 1019, 17:16:33.004, 1579101393004
69, 187500.00, 187500.00, 187500.00, -15431.96, 187500.00, 21225.73, 187500.00, 187500.00, 459, 284, 1018, 17:16:33.007, 1579101393007
70, 187500.00, 187500.00, 187500.00, -15427.62, 187500.00, 21234.47, 187500.00, 187500.00, 459, 284, 1019, 17:16:33.011, 1579101393011
71, 187500.00, 187500.00, 187500.00, -15428.42, 187500.00, 21241.38, 187500.00, 187500.00, 459, 284, 1019, 17:16:33.015, 1579101393015
72, 187500.00, 187500.00, 187500.00, -15429.32, 187500.00, 21268.00, 187500.00, 187500.00, 459, 284, 1019, 17:16:33.021, 1579101393021
73, 187500.00, 187500.00, 187500.00, -15429.95, 187500.00, 21291.62, 187500.00, 187500.00, 459, 284, 1018, 17:16:33.025, 1579101393025
74, 187500.00, 187500.00, 187500.00, -15425.54, 187500.00, 21310.94, 187500.00, 187500.00, 458, 284, 1018, 17:16:33.030, 1579101393030
75, 187500.00, 187500.00, 187500.00, -15427.31, 187500.00, 21317.24, 187500.00, 187500.00, 459, 284, 1018, 17:16:33.032, 1579101393032
76, 187500.00, 187500.00, 187500.00, -15433.05, 187500.00, 21318.45, 187500.00, 187500.00, 458, 284, 1019, 17:16:33.036, 1579101393036
77, 187500.00, 187500.00, 187500.00, -15430.21, 187500.00, 21324.26, 187500.00, 187500.00, 458, 284, 1019, 17:16:33.041, 1579101393041
78, 187500.00, 187500.00, 187500.00, -15431.24, 187500.00, 21389.79, 187500.00, 187500.00, 458, 284, 1019, 17:16:33.046, 1579101393046
79, 187500.00, 187500.00, 187500.00, -15431.38, 187500.00, 21395.92, 187500.00, 187500.00, 459, 284, 1019, 17:16:33.051, 1579101393051
80, 187500.00, 187500.00, 187500.00, -15428.89, 187500.00, 21424.95, 187500.00, 187500.00, 459, 284, 1019, 17:16:33.053, 1579101393053
81, 187500.00, 187500.00, 187500.00, -15430.21, 187500.00, 21415.34, 187500.00, 187500.00, 459, 284, 1019, 17:16:33.057, 1579101393057
82, 187500.00, 187500.00, 187500.00, -15428.98, 187500.00, 21379.31, 187500.00, 187500.00, 459, 284, 1018, 17:16:33.061, 1579101393061
83, 187500.00, 187500.00, 187500.00, -15427.71, 187500.00, 21373.41, 187500.00, 187500.00, 459, 284, 1018, 17:16:33.064, 1579101393064
84, 187500.00, 187500.00, 187500.00, -15435.20, 187500.00, 21390.82, 187500.00, 187500.00, 459, 284, 1018, 17:16:33.068, 1579101393068
85, 187500.00, 187500.00, 187500.00, -15440.52, 187500.00, 21449.02, 187500.00, 187500.00, 459, 284, 1018, 17:16:33.075, 1579101393075
86, 187500.00, 187500.00, 187500.00, -15434.93, 187500.00, 21524.53, 187500.00, 187500.00, 458, 284, 1018, 17:16:33.079, 1579101393079
87, 187500.00, 187500.00, 187500.00, -15425.99, 187500.00, 21525.27, 187500.00, 187500.00, 458, 284, 1019, 17:16:33.082, 1579101393082
88, 187500.00, 187500.00, 187500.00, -15430.03, 187500.00, 21552.33, 187500.00, 187500.00, 458, 284, 1019, 17:16:33.084, 1579101393084
89, 187500.00, 187500.00, 187500.00, -15438.37, 187500.00, 21406.96, 187500.00, 187500.00, 459, 284, 1019, 17:16:33.088, 1579101393088
90, 187500.00, 187500.00, 187500.00, -15449.55, 187500.00, 21582.60, 187500.00, 187500.00, 459, 284, 1019, 17:16:33.092, 1579101393092
91, 187500.00, 187500.00, 187500.00, -15445.10, 187500.00, 21745.97, 187500.00, 187500.00, 459, 284, 1019, 17:16:33.097, 1579101393097
92, 187500.00, 187500.00, 187500.00, -15425.25, 187500.00, 21448.35, 187500.00, 187500.00, 459, 284, 1018, 17:16:33.101, 1579101393101
93, 187500.00, 187500.00, 187500.00, -15418.81, 187500.00, 21326.83, 187500.00, 187500.00, 459, 284, 1018, 17:16:33.104, 1579101393104
94, 187500.00, 187500.00, 187500.00, -15414.75, 187500.00, 21614.31, 187500.00, 187500.00, 459, 284, 1018, 17:16:33.110, 1579101393110
95, 187500.00, 187500.00, 187500.00, -15415.42, 187500.00, 21386.24, 187500.00, 187500.00, 459, 284, 1018, 17:16:33.113, 1579101393113
96, 187500.00, 187500.00, 187500.00, -15422.37, 187500.00, 21250.67, 187500.00, 187500.00, 459, 284, 1019, 17:16:33.118, 1579101393118
97, 187500.00, 187500.00, 187500.00, -15431.17, 187500.00, 21323.21, 187500.00, 187500.00, 458, 284, 1018, 17:16:33.120, 1579101393120
98, 187500.00, 187500.00, 187500.00, -15433.90, 187500.00, 21385.10, 187500.00, 187500.00, 458, 284, 1019, 17:16:33.124, 1579101393124
99, 187500.00, 187500.00, 187500.00, -15440.12, 187500.00, 21368.80, 187500.00, 187500.00, 459, 284, 1019, 17:16:33.129, 1579101393129
100, 187500.00, 187500.00, 187500.00, -15441.63, 187500.00, 21334.47, 187500.00, 187500.00, 459, 284, 1019, 17:16:33.133, 1579101393133
101, 187500.00, 187500.00, 187500.00, -15445.10, 187500.00, 21318.27, 187500.00, 187500.00, 459, 284, 1019, 17:16:33.137, 1579101393137
102, 187500.00, 187500.00, 187500.00, -15447.71, 187500.00, 21398.84, 187500.00, 187500.00, 459, 284, 1019, 17:16:33.140, 1579101393140
103, 187500.00, 187500.00, 187500.00, -15443.85, 187500.00, 21193.79, 187500.00, 187500.00, 459, 284, 1019, 17:16:33.146, 1579101393146
104, 187500.00, 187500.00, 187500.00, -15451.40, 187500.00, 21015.51, 187500.00, 187500.00, 458, 284, 1018, 17:16:33.149, 1579101393149
105, 187500.00, 187500.00, 187500.00, -15452.86, 187500.00, 21102.35, 187500.00, 187500.00, 459, 284, 1018, 17:16:33.153, 1579101393153
106, 187500.00, 187500.00, 187500.00, -15447.85, 187500.00, 21043.32, 187500.00, 187500.00, 459, 284, 1018, 17:16:33.156, 1579101393156
107, 187500.00, 187500.00, 187500.00, -15445.81, 187500.00, 21085.65, 187500.00, 187500.00, 459, 284, 1018, 17:16:33.160, 1579101393160
108, 187500.00, 187500.00, 187500.00, -15452.25, 187500.00, 21045.35, 187500.00, 187500.00, 458, 284, 1018, 17:16:33.165, 1579101393165
109, 187500.00, 187500.00, 187500.00, -15443.87, 187500.00, 20935.72, 187500.00, 187500.00, 458, 284, 1018, 17:16:33.168, 1579101393168
110, 187500.00, 187500.00, 187500.00, -15443.83, 187500.00, 20958.58, 187500.00, 187500.00, 458, 284, 1019, 17:16:33.172, 1579101393172
111, 187500.00, 187500.00, 187500.00, -15444.70, 187500.00, 20949.73, 187500.00, 187500.00, 458, 284, 1018, 17:16:33.179, 1579101393179
112, 187500.00, 187500.00, 187500.00, -15447.98, 187500.00, 20959.74, 187500.00, 187500.00, 458, 284, 1019, 17:16:33.182, 1579101393182
113, 187500.00, 187500.00, 187500.00, -15444.54, 187500.00, 20909.36, 187500.00, 187500.00, 458, 283, 1019, 17:16:33.184, 1579101393184
114, 187500.00, 187500.00, 187500.00, -15446.71, 187500.00, 20923.56, 187500.00, 187500.00, 458, 284, 1018, 17:16:33.188, 1579101393188
115, 187500.00, 187500.00, 187500.00, -15440.72, 187500.00, 20911.96, 187500.00, 187500.00, 458, 284, 1019, 17:16:33.192, 1579101393192
116, 187500.00, 187500.00, 187500.00, -15443.09, 187500.00, 20897.00, 187500.00, 187500.00, 458, 284, 1018, 17:16:33.197, 1579101393197
117, 187500.00, 187500.00, 187500.00, -15438.55, 187500.00, 20860.86, 187500.00, 187500.00, 458, 284, 1018, 17:16:33.200, 1579101393200
118, 187500.00, 187500.00, 187500.00, -15441.93, 187500.00, 20883.01, 187500.00, 187500.00, 458, 284, 1019, 17:16:33.204, 1579101393204
119, 187500.00, 187500.00, 187500.00, -15444.97, 187500.00, 20917.79, 187500.00, 187500.00, 458, 284, 1018, 17:16:33.209, 1579101393209
120, 187500.00, 187500.00, 187500.00, -15441.48, 187500.00, 20899.53, 187500.00, 187500.00, 458, 284, 1018, 17:16:33.211, 1579101393211
121, 187500.00, 187500.00, 187500.00, -15449.12, 187500.00, 20905.16, 187500.00, 187500.00, 458, 284, 1019, 17:16:33.216, 1579101393216
122, 187500.00, 187500.00, 187500.00, -15445.73, 187500.00, 20945.95, 187500.00, 187500.00, 458, 284, 1018, 17:16:33.221, 1579101393221
123, 187500.00, 187500.00, 187500.00, -15436.20, 187500.00, 20935.92, 187500.00, 187500.00, 458, 283, 1019, 17:16:33.224, 1579101393224
124, 187500.00, 187500.00, 187500.00, -15434.75, 187500.00, 20936.23, 187500.00, 187500.00, 458, 284, 1018, 17:16:33.229, 1579101393229
125, 187500.00, 187500.00, 187500.00, -15441.01, 187500.00, 20922.75, 187500.00, 187500.00, 459, 284, 1018, 17:16:33.232, 1579101393232
126, 187500.00, 187500.00, 187500.00, -15439.27, 187500.00, 20938.20, 187500.00, 187500.00, 459, 284, 1018, 17:16:33.236, 1579101393236
127, 187500.00, 187500.00, 187500.00, -15441.61, 187500.00, 20954.29, 187500.00, 187500.00, 459, 284, 1018, 17:16:33.239, 1579101393239
128, 187500.00, 187500.00, 187500.00, -15439.47, 187500.00, 20980.26, 187500.00, 187500.00, 458, 284, 1018, 17:16:33.245, 1579101393245
129, 187500.00, 187500.00, 187500.00, -15444.92, 187500.00, 21008.94, 187500.00, 187500.00, 458, 284, 1018, 17:16:33.249, 1579101393249
130, 187500.00, 187500.00, 187500.00, -15444.14, 187500.00, 21027.13, 187500.00, 187500.00, 458, 284, 1019, 17:16:33.252, 1579101393252
131, 187500.00, 187500.00, 187500.00, -15432.36, 187500.00, 21034.31, 187500.00, 187500.00, 459, 284, 1019, 17:16:33.256, 1579101393256
132, 187500.00, 187500.00, 187500.00, -15434.64, 187500.00, 21031.76, 187500.00, 187500.00, 458, 284, 1019, 17:16:33.260, 1579101393260
133, 187500.00, 187500.00, 187500.00, -15442.39, 187500.00, 21051.74, 187500.00, 187500.00, 458, 283, 1019, 17:16:33.264, 1579101393264
134, 187500.00, 187500.00, 187500.00, -15440.00, 187500.00, 21086.61, 187500.00, 187500.00, 459, 284, 1019, 17:16:33.267, 1579101393267
135, 187500.00, 187500.00, 187500.00, -15439.58, 187500.00, 21102.19, 187500.00, 187500.00, 459, 284, 1019, 17:16:33.271, 1579101393271
136, 187500.00, 187500.00, 187500.00, -15440.70, 187500.00, 21110.04, 187500.00, 187500.00, 459, 284, 1018, 17:16:33.276, 1579101393276
137, 187500.00, 187500.00, 187500.00, -15443.87, 187500.00, 21123.54, 187500.00, 187500.00, 458, 284, 1018, 17:16:33.280, 1579101393280
138, 187500.00, 187500.00, 187500.00, -15433.90, 187500.00, 21153.06, 187500.00, 187500.00, 458, 284, 1018, 17:16:33.285, 1579101393285
139, 187500.00, 187500.00, 187500.00, -15436.72, 187500.00, 21178.34, 187500.00, 187500.00, 458, 284, 1019, 17:16:33.288, 1579101393288
140, 187500.00, 187500.00, 187500.00, -15444.99, 187500.00, 21182.61, 187500.00, 187500.00, 459, 284, 1019, 17:16:33.292, 1579101393292
141, 187500.00, 187500.00, 187500.00, -15438.06, 187500.00, 21192.56, 187500.00, 187500.00, 459, 284, 1019, 17:16:33.295, 1579101393295
142, 187500.00, 187500.00, 187500.00, -15439.56, 187500.00, 21213.17, 187500.00, 187500.00, 459, 284, 1019, 17:16:33.301, 1579101393301
143, 187500.00, 187500.00, 187500.00, -15442.55, 187500.00, 21246.23, 187500.00, 187500.00, 459, 284, 1019, 17:16:33.304, 1579101393304
144, 187500.00, 187500.00, 187500.00, -15440.90, 187500.00, 21257.09, 187500.00, 187500.00, 459, 284, 1019, 17:16:33.308, 1579101393308
145, 187500.00, 187500.00, 187500.00, -15442.37, 187500.00, 21276.27, 187500.00, 187500.00, 459, 284, 1018, 17:16:33.312, 1579101393312
146, 187500.00, 187500.00, 187500.00, -15437.92, 187500.00, 21277.34, 187500.00, 187500.00, 458, 284, 1018, 17:16:33.318, 1579101393318
147, 187500.00, 187500.00, 187500.00, -15437.30, 187500.00, 21263.86, 187500.00, 187500.00, 459, 284, 1018, 17:16:33.319, 1579101393319
148, 187500.00, 187500.00, 187500.00, -15431.17, 187500.00, 21273.34, 187500.00, 187500.00, 458, 284, 1018, 17:16:33.324, 1579101393324
149, 187500.00, 187500.00, 187500.00, -15433.86, 187500.00, 21301.66, 187500.00, 187500.00, 458, 284, 1018, 17:16:33.328, 1579101393328
150, 187500.00, 187500.00, 187500.00, -15438.66, 187500.00, 21333.02, 187500.00, 187500.00, 459, 284, 1019, 17:16:33.331, 1579101393331
151, 187500.00, 187500.00, 187500.00, -15433.97, 187500.00, 21371.11, 187500.00, 187500.00, 459, 284, 1019, 17:16:33.336, 1579101393336
152, 187500.00, 187500.00, 187500.00, -15444.09, 187500.00, 21366.72, 187500.00, 187500.00, 459, 284, 1019, 17:16:33.340, 1579101393340
153, 187500.00, 187500.00, 187500.00, -15441.05, 187500.00, 21377.16, 187500.00, 187500.00, 459, 284, 1019, 17:16:33.348, 1579101393348
154, 187500.00, 187500.00, 187500.00, -15439.96, 187500.00, 21369.21, 187500.00, 187500.00, 459, 284, 1018, 17:16:33.349, 1579101393349
155, 187500.00, 187500.00, 187500.00, -15436.36, 187500.00, 21338.40, 187500.00, 187500.00, 459, 284, 1018, 17:16:33.352, 1579101393352
156, 187500.00, 187500.00, 187500.00, -15435.64, 187500.00, 21350.72, 187500.00, 187500.00, 459, 284, 1018, 17:16:33.356, 1579101393356
157, 187500.00, 187500.00, 187500.00, -15437.10, 187500.00, 21464.40, 187500.00, 187500.00, 459, 284, 1018, 17:16:33.363, 1579101393363
158, 187500.00, 187500.00, 187500.00, -15440.29, 187500.00, 21400.34, 187500.00, 187500.00, 458, 284, 1019, 17:16:33.364, 1579101393364
159, 187500.00, 187500.00, 187500.00, -15447.38, 187500.00, 21448.24, 187500.00, 187500.00, 458, 284, 1019, 17:16:33.369, 1579101393369
160, 187500.00, 187500.00, 187500.00, -15452.30, 187500.00, 21611.88, 187500.00, 187500.00, 459, 284, 1019, 17:16:33.374, 1579101393374
161, 187500.00, 187500.00, 187500.00, -15445.77, 187500.00, 21397.84, 187500.00, 187500.00, 459, 284, 1018, 17:16:33.375, 1579101393375
162, 187500.00, 187500.00, 187500.00, -15441.57, 187500.00, 21376.16, 187500.00, 187500.00, 458, 284, 1018, 17:16:33.381, 1579101393381
163, 187500.00, 187500.00, 187500.00, -15438.13, 187500.00, 21557.38, 187500.00, 187500.00, 458, 284, 1018, 17:16:33.386, 1579101393386
164, 187500.00, 187500.00, 187500.00, -15435.80, 187500.00, 21528.84, 187500.00, 187500.00, 458, 284, 1018, 17:16:33.390, 1579101393390
165, 187500.00, 187500.00, 187500.00, -15429.61, 187500.00, 21290.88, 187500.00, 187500.00, 459, 284, 1018, 17:16:33.392, 1579101393392
166, 187500.00, 187500.00, 187500.00, -15434.42, 187500.00, 21507.52, 187500.00, 187500.00, 459, 284, 1019, 17:16:33.397, 1579101393397
167, 187500.00, 187500.00, 187500.00, -15445.14, 187500.00, 21521.11, 187500.00, 187500.00, 459, 284, 1018, 17:16:33.401, 1579101393401
168, 187500.00, 187500.00, 187500.00, -15449.46, 187500.00, 21223.29, 187500.00, 187500.00, 458, 284, 1019, 17:16:33.403, 1579101393403
169, 187500.00, 187500.00, 187500.00, -15451.72, 187500.00, 21121.15, 187500.00, 187500.00, 458, 284, 1019, 17:16:33.407, 1579101393407
170, 187500.00, 187500.00, 187500.00, -15461.39, 187500.00, 21135.81, 187500.00, 187500.00, 459, 284, 1019, 17:16:33.413, 1579101393413
171, 187500.00, 187500.00, 187500.00, -15462.76, 187500.00, 21244.39, 187500.00, 187500.00, 459, 284, 1019, 17:16:33.415, 1579101393415
172, 187500.00, 187500.00, 187500.00, -15453.46, 187500.00, 21423.16, 187500.00, 187500.00, 459, 284, 1019, 17:16:33.421, 1579101393421
173, 187500.00, 187500.00, 187500.00, -15448.47, 187500.00, 21154.09, 187500.00, 187500.00, 459, 284, 1018, 17:16:33.424, 1579101393424
174, 187500.00, 187500.00, 187500.00, -15459.92, 187500.00, 20908.94, 187500.00, 187500.00, 458, 284, 1018, 17:16:33.427, 1579101393427
175, 187500.00, 187500.00, 187500.00, -15462.82, 187500.00, 21016.34, 187500.00, 187500.00, 459, 284, 1018, 17:16:33.431, 1579101393431
176, 187500.00, 187500.00, 187500.00, -15461.06, 187500.00, 21024.90, 187500.00, 187500.00, 459, 284, 1018, 17:16:33.435, 1579101393435
177, 187500.00, 187500.00, 187500.00, -15459.78, 187500.00, 21085.76, 187500.00, 187500.00, 459, 284, 1018, 17:16:33.439, 1579101393439
178, 187500.00, 187500.00, 187500.00, -15465.78, 187500.00, 21092.38, 187500.00, 187500.00, 458, 284, 1018, 17:16:33.443, 1579101393443
179, 187500.00, 187500.00, 187500.00, -15471.09, 187500.00, 20936.90, 187500.00, 187500.00, 458, 284, 1018, 17:16:33.447, 1579101393447
180, 187500.00, 187500.00, 187500.00, -15470.36, 187500.00, 20911.60, 187500.00, 187500.00, 458, 284, 1018, 17:16:33.452, 1579101393452
181, 187500.00, 187500.00, 187500.00, -15470.85, 187500.00, 20777.51, 187500.00, 187500.00, 459, 284, 1018, 17:16:33.455, 1579101393455
182, 187500.00, 187500.00, 187500.00, -15461.80, 187500.00, 20669.60, 187500.00, 187500.00, 459, 284, 1019, 17:16:33.459, 1579101393459
183, 187500.00, 187500.00, 187500.00, -15460.99, 187500.00, 20705.07, 187500.00, 187500.00, 459, 284, 1019, 17:16:33.463, 1579101393463
184, 187500.00, 187500.00, 187500.00, -15468.99, 187500.00, 20839.18, 187500.00, 187500.00, 459, 284, 1019, 17:16:33.467, 1579101393467
185, 187500.00, 187500.00, 187500.00, -15475.39, 187500.00, 20936.52, 187500.00, 187500.00, 459, 284, 1018, 17:16:33.471, 1579101393471
186, 187500.00, 187500.00, 187500.00, -15476.73, 187500.00, 20867.65, 187500.00, 187500.00, 459, 284, 1019, 17:16:33.476, 1579101393476
187, 187500.00, 187500.00, 187500.00, -15482.52, 187500.00, 20684.35, 187500.00, 187500.00, 459, 284, 1018, 17:16:33.480, 1579101393480
188, 187500.00, 187500.00, 187500.00, -15477.17, 187500.00, 20581.78, 187500.00, 187500.00, 458, 284, 1018, 17:16:33.483, 1579101393483
189, 187500.00, 187500.00, 187500.00, -15472.26, 187500.00, 20613.29, 187500.00, 187500.00, 459, 284, 1018, 17:16:33.488, 1579101393488
190, 187500.00, 187500.00, 187500.00, -15481.76, 187500.00, 20644.47, 187500.00, 187500.00, 458, 284, 1019, 17:16:33.491, 1579101393491
191, 187500.00, 187500.00, 187500.00, -15485.56, 187500.00, 20662.98, 187500.00, 187500.00, 459, 284, 1018, 17:16:33.496, 1579101393496
192, 187500.00, 187500.00, 187500.00, -15483.05, 187500.00, 20654.31, 187500.00, 187500.00, 459, 284, 1019, 17:16:33.499, 1579101393499
193, 187500.00, 187500.00, 187500.00, -15477.89, 187500.00, 20643.78, 187500.00, 187500.00, 460, 284, 1019, 17:16:33.503, 1579101393503
194, 187500.00, 187500.00, 187500.00, -15484.15, 187500.00, 20661.01, 187500.00, 187500.00, 460, 284, 1019, 17:16:33.508, 1579101393508
195, 187500.00, 187500.00, 187500.00, -15485.27, 187500.00, 20698.47, 187500.00, 187500.00, 460, 284, 1019, 17:16:33.511, 1579101393511
196, 187500.00, 187500.00, 187500.00, -15485.29, 187500.00, 20635.69, 187500.00, 187500.00, 461, 285, 1018, 17:16:33.517, 1579101393517
197, 187500.00, 187500.00, 187500.00, -15479.63, 187500.00, 20639.35, 187500.00, 187500.00, 461, 285, 1018, 17:16:33.520, 1579101393520
198, 187500.00, 187500.00, 187500.00, -15481.73, 187500.00, 20677.69, 187500.00, 187500.00, 460, 284, 1018, 17:16:33.523, 1579101393523
199, 187500.00, 187500.00, 187500.00, -15483.08, 187500.00, 20658.51, 187500.00, 187500.00, 461, 284, 1019, 17:16:33.527, 1579101393527
200, 187500.00, 187500.00, 187500.00, -15482.78, 187500.00, 20683.92, 187500.00, 187500.00, 461, 285, 1018, 17:16:33.531, 1579101393531
201, 187500.00, 187500.00, 187500.00, -15477.22, 187500.00, 20693.67, 187500.00, 187500.00, 461, 285, 1018, 17:16:33.536, 1579101393536
202, 187500.00, 187500.00, 187500.00, -15481.11, 187500.00, 20719.91, 187500.00, 187500.00, 461, 285, 1019, 17:16:33.540, 1579101393540
203, 187500.00, 187500.00, 187500.00, -15480.10, 187500.00, 20722.57, 187500.00, 187500.00, 461, 285, 1018, 17:16:33.542, 1579101393542
204, 187500.00, 187500.00, 187500.00, -15482.07, 187500.00, 20740.34, 187500.00, 187500.00, 461, 285, 1019, 17:16:33.550, 1579101393550
205, 187500.00, 187500.00, 187500.00, -15483.21, 187500.00, 20762.42, 187500.00, 187500.00, 462, 285, 1018, 17:16:33.552, 1579101393552
206, 187500.00, 187500.00, 187500.00, -15474.42, 187500.00, 20761.33, 187500.00, 187500.00, 462, 285, 1019, 17:16:33.557, 1579101393557
207, 187500.00, 187500.00, 187500.00, -15474.29, 187500.00, 20774.36, 187500.00, 187500.00, 462, 285, 1018, 17:16:33.561, 1579101393561
208, 187500.00, 187500.00, 187500.00, -15481.13, 187500.00, 20809.43, 187500.00, 187500.00, 462, 285, 1019, 17:16:33.568, 1579101393568
209, 187500.00, 187500.00, 187500.00, -15479.83, 187500.00, 20857.26, 187500.00, 187500.00, 461, 285, 1019, 17:16:33.568, 1579101393568
210, 187500.00, 187500.00, 187500.00, -15483.90, 187500.00, 20835.80, 187500.00, 187500.00, 462, 285, 1019, 17:16:33.571, 1579101393571
211, 187500.00, 187500.00, 187500.00, -15488.28, 187500.00, 20826.24, 187500.00, 187500.00, 461, 285, 1019, 17:16:33.575, 1579101393575
212, 187500.00, 187500.00, 187500.00, -15487.72, 187500.00, 20836.43, 187500.00, 187500.00, 462, 285, 1019, 17:16:33.579, 1579101393579
213, 187500.00, 187500.00, 187500.00, -15483.43, 187500.00, 20869.26, 187500.00, 187500.00, 462, 285, 1018, 17:16:33.584, 1579101393584
214, 187500.00, 187500.00, 187500.00, -15481.29, 187500.00, 20910.37, 187500.00, 187500.00, 461, 285, 1018, 17:16:33.587, 1579101393587
215, 187500.00, 187500.00, 187500.00, -15485.49, 187500.00, 20916.96, 187500.00, 187500.00, 460, 285, 1019, 17:16:33.591, 1579101393591
216, 187500.00, 187500.00, 187500.00, -15483.19, 187500.00, 20913.77, 187500.00, 187500.00, 460, 285, 1018, 17:16:33.595, 1579101393595
217, 187500.00, 187500.00, 187500.00, -15479.72, 187500.00, 20925.05, 187500.00, 187500.00, 459, 285, 1019, 17:16:33.598, 1579101393598
218, 187500.00, 187500.00, 187500.00, -15478.34, 187500.00, 20948.63, 187500.00, 187500.00, 459, 284, 1019, 17:16:33.603, 1579101393603
219, 187500.00, 187500.00, 187500.00, -15476.95, 187500.00, 20971.97, 187500.00, 187500.00, 459, 284, 1019, 17:16:33.607, 1579101393607
220, 187500.00, 187500.00, 187500.00, -15477.15, 187500.00, 20985.65, 187500.00, 187500.00, 459, 284, 1019, 17:16:33.611, 1579101393611
221, 187500.00, 187500.00, 187500.00, -15473.40, 187500.00, 20997.72, 187500.00, 187500.00, 459, 284, 1019, 17:16:33.616, 1579101393616
222, 187500.00, 187500.00, 187500.00, -15471.88, 187500.00, 21005.63, 187500.00, 187500.00, 459, 284, 1018, 17:16:33.619, 1579101393619
223, 187500.00, 187500.00, 187500.00, -15485.22, 187500.00, 21013.95, 187500.00, 187500.00, 459, 284, 1019, 17:16:33.623, 1579101393623
224, 187500.00, 187500.00, 187500.00, -15474.58, 187500.00, 21027.63, 187500.00, 187500.00, 458, 284, 1018, 17:16:33.626, 1579101393626
225, 187500.00, 187500.00, 187500.00, -15473.91, 187500.00, 21034.31, 187500.00, 187500.00, 459, 284, 1018, 17:16:33.630, 1579101393630
226, 187500.00, 187500.00, 187500.00, -15470.83, 187500.00, 21048.35, 187500.00, 187500.00, 459, 284, 1019, 17:16:33.635, 1579101393635
227, 187500.00, 187500.00, 187500.00, -15468.73, 187500.00, 21051.39, 187500.00, 187500.00, 459, 284, 1018, 17:16:33.640, 1579101393640
228, 187500.00, 187500.00, 187500.00, -15469.58, 187500.00, 21058.56, 187500.00, 187500.00, 459, 284, 1019, 17:16:33.644, 1579101393644
229, 187500.00, 187500.00, 187500.00, -15474.83, 187500.00, 21075.08, 187500.00, 187500.00, 459, 284, 1019, 17:16:33.647, 1579101393647
230, 187500.00, 187500.00, 187500.00, -15475.88, 187500.00, 21085.00, 187500.00, 187500.00, 459, 284, 1019, 17:16:33.650, 1579101393650
231, 187500.00, 187500.00, 187500.00, -15471.12, 187500.00, 21087.60, 187500.00, 187500.00, 459, 284, 1019, 17:16:33.654, 1579101393654
232, 187500.00, 187500.00, 187500.00, -15470.38, 187500.00, 21097.50, 187500.00, 187500.00, 459, 284, 1018, 17:16:33.660, 1579101393660
233, 187500.00, 187500.00, 187500.00, -15471.05, 187500.00, 21114.35, 187500.00, 187500.00, 459, 284, 1019, 17:16:33.664, 1579101393664
234, 187500.00, 187500.00, 187500.00, -15475.77, 187500.00, 21154.29, 187500.00, 187500.00, 459, 284, 1019, 17:16:33.667, 1579101393667
235, 187500.00, 187500.00, 187500.00, -15473.89, 187500.00, 21148.28, 187500.00, 187500.00, 459, 284, 1018, 17:16:33.671, 1579101393671
236, 187500.00, 187500.00, 187500.00, -15472.91, 187500.00, 21124.32, 187500.00, 187500.00, 459, 284, 1018, 17:16:33.675, 1579101393675
237, 187500.00, 187500.00, 187500.00, -15475.61, 187500.00, 21141.82, 187500.00, 187500.00, 458, 284, 1018, 17:16:33.679, 1579101393679
238, 187500.00, 187500.00, 187500.00, -15474.58, 187500.00, 21157.20, 187500.00, 187500.00, 458, 284, 1019, 17:16:33.684, 1579101393684
239, 187500.00, 187500.00, 187500.00, -15477.40, 187500.00, 21172.69, 187500.00, 187500.00, 458, 284, 1019, 17:16:33.688, 1579101393688
240, 187500.00, 187500.00, 187500.00, -15473.78, 187500.00, 21175.51, 187500.00, 187500.00, 459, 284, 1019, 17:16:33.692, 1579101393692
241, 187500.00, 187500.00, 187500.00, -15470.69, 187500.00, 21162.63, 187500.00, 187500.00, 459, 284, 1018, 17:16:33.696, 1579101393696
242, 187500.00, 187500.00, 187500.00, -15471.00, 187500.00, 21186.46, 187500.00, 187500.00, 459, 284, 1019, 17:16:33.700, 1579101393700
243, 187500.00, 187500.00, 187500.00, -15469.04, 187500.00, 21193.03, 187500.00, 187500.00, 458, 284, 1019, 17:16:33.703, 1579101393703
244, 187500.00, 187500.00, 187500.00, -15473.26, 187500.00, 21199.33, 187500.00, 187500.00, 458, 284, 1019, 17:16:33.707, 1579101393707
245, 187500.00, 187500.00, 187500.00, -15475.81, 187500.00, 21211.87, 187500.00, 187500.00, 459, 284, 1019, 17:16:33.712, 1579101393712
246, 187500.00, 187500.00, 187500.00, -15474.51, 187500.00, 21202.86, 187500.00, 187500.00, 460, 284, 1018, 17:16:33.717, 1579101393717
247, 187500.00, 187500.00, 187500.00, -15471.09, 187500.00, 21197.30, 187500.00, 187500.00, 460, 284, 1018, 17:16:33.720, 1579101393720
248, 187500.00, 187500.00, 187500.00, -15477.06, 187500.00, 21216.81, 187500.00, 187500.00, 460, 284, 1018, 17:16:33.724, 1579101393724
249, 187500.00, 187500.00, 187500.00, -15476.88, 187500.00, 21235.07, 187500.00, 187500.00, 460, 284, 1018, 17:16:33.730, 1579101393730
250, 187500.00, 187500.00, 187500.00, -15474.96, 187500.00, 21231.65, 187500.00, 187500.00, 461, 285, 1018, 17:16:33.731, 1579101393731
251, 187500.00, 187500.00, 187500.00, -15474.92, 187500.00, 21234.09, 187500.00, 187500.00, 461, 285, 1019, 17:16:33.735, 1579101393735
252, 187500.00, 187500.00, 187500.00, -15476.26, 187500.00, 21243.14, 187500.00, 187500.00, 461, 285, 1019, 17:16:33.739, 1579101393739
253, 187500.00, 187500.00, 187500.00, -15474.47, 187500.00, 21230.94, 187500.00, 187500.00, 462, 284, 1019, 17:16:33.744, 1579101393744
254, 187500.00, 187500.00, 187500.00, -15472.35, 187500.00, 21252.51, 187500.00, 187500.00, 462, 285, 1018, 17:16:33.751, 1579101393751
255, 187500.00, 187500.00, 187500.00, -15469.46, 187500.00, 21264.78, 187500.00, 187500.00, 462, 285, 1019, 17:16:33.752, 1579101393752
0, 187500.00, 187500.00, 187500.00, -15463.56, 187500.00, 21264.24, 187500.00, 187500.00, 462, 286, 1018, 17:16:33.756, 1579101393756
1, 187500.00, 187500.00, 187500.00, -15461.55, 187500.00, 21271.35, 187500.00, 187500.00, 461, 285, 1018, 17:16:33.760, 1579101393760
2, 187500.00, 187500.00, 187500.00, -15465.51, 187500.00, 21263.15, 187500.00, 187500.00, 461, 285, 1018, 17:16:33.766, 1579101393766
3, 187500.00, 187500.00, 187500.00, -15463.12, 187500.00, 21260.62, 187500.00, 187500.00, 461, 285, 1019, 17:16:33.768, 1579101393768
4, 187500.00, 187500.00, 187500.00, -15450.44, 187500.00, 21259.93, 187500.00, 187500.00, 461, 285, 1018, 17:16:33.771, 1579101393771
5, 187500.00, 187500.00, 187500.00, -15444.90, 187500.00, 21241.82, 187500.00, 187500.00, 462, 285, 1019, 17:16:33.777, 1579101393777
6, 187500.00, 187500.00, 187500.00, -15449.28, 187500.00, 21230.47, 187500.00, 187500.00, 462, 285, 1019, 17:16:33.780, 1579101393780
7, 187500.00, 187500.00, 187500.00, -15438.08, 187500.00, 21215.65, 187500.00, 187500.00, 462, 285, 1019, 17:16:33.784, 1579101393784
8, 187500.00, 187500.00, 187500.00, -15435.20, 187500.00, 21189.88, 187500.00, 187500.00, 462, 285, 1019, 17:16:33.787, 1579101393787
9, 187500.00, 187500.00, 187500.00, -15434.84, 187500.00, 21173.25, 187500.00, 187500.00, 462, 285, 1018, 17:16:33.792, 1579101393792
10, 187500.00, 187500.00, 187500.00, -15433.83, 187500.00, 21156.66, 187500.00, 187500.00, 462, 286, 1018, 17:16:33.796, 1579101393796
11, 187500.00, 187500.00, 187500.00, -15430.50, 187500.00, 21135.99, 187500.00, 187500.00, 462, 285, 1019, 17:16:33.799, 1579101393799
12, 187500.00, 187500.00, 187500.00, -15426.66, 187500.00, 21128.46, 187500.00, 187500.00, 462, 285, 1018, 17:16:33.803, 1579101393803
13, 187500.00, 187500.00, 187500.00, -15420.74, 187500.00, 21128.07, 187500.00, 187500.00, 462, 285, 1019, 17:16:33.807, 1579101393807
14, 187500.00, 187500.00, 187500.00, -15422.93, 187500.00, 21121.59, 187500.00, 187500.00, 462, 285, 1019, 17:16:33.812, 1579101393812
15, 187500.00, 187500.00, 187500.00, -15425.45, 187500.00, 21112.03, 187500.00, 187500.00, 462, 285, 1018, 17:16:33.816, 1579101393816
16, 187500.00, 187500.00, 187500.00, -15428.87, 187500.00, 21112.25, 187500.00, 187500.00, 462, 285, 1019, 17:16:33.820, 1579101393820
17, 187500.00, 187500.00, 187500.00, -15429.34, 187500.00, 21121.71, 187500.00, 187500.00, 461, 285, 1019, 17:16:33.823, 1579101393823
18, 187500.00, 187500.00, 187500.00, -15429.30, 187500.00, 21134.87, 187500.00, 187500.00, 460, 285, 1018, 17:16:33.828, 1579101393828
19, 187500.00, 187500.00, 187500.00, -15428.09, 187500.00, 21147.37, 187500.00, 187500.00, 460, 285, 1018, 17:16:33.831, 1579101393831
20, 187500.00, 187500.00, 187500.00, -15432.25, 187500.00, 21150.99, 187500.00, 187500.00, 460, 285, 1018, 17:16:33.836, 1579101393836
21, 187500.00, 187500.00, 187500.00, -15430.57, 187500.00, 21161.24, 187500.00, 187500.00, 459, 285, 1018, 17:16:33.841, 1579101393841
22, 187500.00, 187500.00, 187500.00, -15439.44, 187500.00, 21177.25, 187500.00, 187500.00, 459, 284, 1019, 17:16:33.844, 1579101393844
23, 187500.00, 187500.00, 187500.00, -15439.40, 187500.00, 21208.68, 187500.00, 187500.00, 459, 284, 1019, 17:16:33.849, 1579101393849
24, 187500.00, 187500.00, 187500.00, -15436.74, 187500.00, 21227.18, 187500.00, 187500.00, 459, 284, 1019, 17:16:33.851, 1579101393851
25, 187500.00, 187500.00, 187500.00, -15441.05, 187500.00, 21225.35, 187500.00, 187500.00, 459, 284, 1019, 17:16:33.855, 1579101393855
26, 187500.00, 187500.00, 187500.00, -15440.81, 187500.00, 21236.59, 187500.00, 187500.00, 458, 284, 1018, 17:16:33.859, 1579101393859
27, 187500.00, 187500.00, 187500.00, -15440.85, 187500.00, 21269.16, 187500.00, 187500.00, 459, 284, 1019, 17:16:33.864, 1579101393864
28, 187500.00, 187500.00, 187500.00, -15451.18, 187500.00, 21278.53, 187500.00, 187500.00, 459, 284, 1018, 17:16:33.867, 1579101393867
29, 187500.00, 187500.00, 187500.00, -15454.76, 187500.00, 21283.26, 187500.00, 187500.00, 459, 284, 1018, 17:16:33.871, 1579101393871
30, 187500.00, 187500.00, 187500.00, -15456.99, 187500.00, 21296.92, 187500.00, 187500.00, 459, 284, 1019, 17:16:33.875, 1579101393875
31, 187500.00, 187500.00, 187500.00, -15463.99, 187500.00, 21305.86, 187500.00, 187500.00, 459, 284, 1018, 17:16:33.879, 1579101393879
32, 187500.00, 187500.00, 187500.00, -15454.69, 187500.00, 21302.42, 187500.00, 187500.00, 459, 284, 1018, 17:16:33.884, 1579101393884
33, 187500.00, 187500.00, 187500.00, -15458.80, 187500.00, 21333.85, 187500.00, 187500.00, 459, 284, 1019, 17:16:33.888, 1579101393888
34, 187500.00, 187500.00, 187500.00, -15457.71, 187500.00, 21356.06, 187500.00, 187500.00, 459, 284, 1018, 17:16:33.891, 1579101393891
35, 187500.00, 187500.00, 187500.00, -15452.79, 187500.00, 21366.84, 187500.00, 187500.00, 459, 284, 1019, 17:16:33.895, 1579101393895
36, 187500.00, 187500.00, 187500.00, -15458.47, 187500.00, 21352.80, 187500.00, 187500.00, 459, 284, 1018, 17:16:33.898, 1579101393898
37, 187500.00, 187500.00, 187500.00, -15464.95, 187500.00, 21366.01, 187500.00, 187500.00, 459, 284, 1018, 17:16:33.903, 1579101393903
38, 187500.00, 187500.00, 187500.00, -15462.31, 187500.00, 21381.68, 187500.00, 187500.00, 458, 284, 1018, 17:16:33.907, 1579101393907
39, 187500.00, 187500.00, 187500.00, -15463.63, 187500.00, 21392.43, 187500.00, 187500.00, 458, 284, 1019, 17:16:33.912, 1579101393912
40, 187500.00, 187500.00, 187500.00, -15460.81, 187500.00, 21394.11, 187500.00, 187500.00, 459, 284, 1018, 17:16:33.916, 1579101393916
41, 187500.00, 187500.00, 187500.00, -15463.90, 187500.00, 21388.45, 187500.00, 187500.00, 458, 284, 1019, 17:16:33.919, 1579101393919
42, 187500.00, 187500.00, 187500.00, -15462.18, 187500.00, 21406.58, 187500.00, 187500.00, 458, 284, 1019, 17:16:33.923, 1579101393923
43, 187500.00, 187500.00, 187500.00, -15458.89, 187500.00, 21419.52, 187500.00, 187500.00, 458, 284, 1019, 17:16:33.927, 1579101393927
44, 187500.00, 187500.00, 187500.00, -15466.07, 187500.00, 21429.04, 187500.00, 187500.00, 459, 284, 1018, 17:16:33.930, 1579101393930
45, 187500.00, 187500.00, 187500.00, -15470.00, 187500.00, 21443.93, 187500.00, 187500.00, 458, 284, 1019, 17:16:33.935, 1579101393935
46, 187500.00, 187500.00, 187500.00, -15464.25, 187500.00, 21441.22, 187500.00, 187500.00, 458, 284, 1018, 17:16:33.939, 1579101393939
47, 187500.00, 187500.00, 187500.00, -15463.92, 187500.00, 21442.65, 187500.00, 187500.00, 458, 284, 1018, 17:16:33.943, 1579101393943
