%OpenBCI Raw EEG Data
%Number of channels = 8
%Sample Rate = 250.0 Hz
%First Column = SampleIndex
%Last Column = Timestamp 
%Other Columns = EEG data in microvolts followed by Accel Data (in G) interleaved with Aux Data
0, -26824.93, -26893.37, -26818.45, -15502.16, -26873.95, 7822.60, -27033.83, 62391.99, -0.002, -0.018, 0.984, 17:02:28.729, 1578582148729
1, -7163.71, -5321.41, -4709.42, -4808.69, -65210.92, -75401.53, -27669.11, -80363.41, 0.000, 0.000, 0.000, 17:02:28.746, 1578582148746
2, -52350.98, -52346.35, -52324.38, -31052.25, -52449.39, 14458.29, -52709.50, 126305.59, 0.000, 0.000, 0.000, 17:02:29.227, 1578582149227
3, -14326.06, -10641.73, -9417.66, -9616.19, -130420.41, -150801.67, -55337.17, -160725.38, 0.000, 0.000, 0.000, 17:02:29.227, 1578582149227
4, -52283.88, -52279.03, -52257.82, -31040.65, -52374.45, 14511.85, -52635.74, 126306.84, 0.000, 0.000, 0.000, 17:02:29.227, 1578582149227
5, -14325.81, -10641.55, -9417.59, -9616.12, -130420.03, -150801.47, -55337.02, -160725.16, 0.000, 0.000, 0.000, 17:02:29.227, 1578582149227
6, -52270.69, -52263.29, -52245.05, -31088.55, -52367.01, 14416.61, -52615.63, 126305.34, 0.000, 0.000, 0.000, 17:02:29.227, 1578582149227
7, -14324.92, -10640.95, -9416.99, -9615.56, -130419.12, -150800.63, -55336.35, -160724.23, -0.002, -0.020, 0.982, 17:02:29.227, 1578582149227
8, -52275.79, -52308.71, -52246.93, -31074.42, -52362.36, 14496.69, -52618.42, 126306.64, 0.000, 0.000, 0.000, 17:02:29.228, 1578582149228
9, -14325.68, -10642.04, -9418.02, -9616.64, -130419.88, -150801.30, -55337.39, -160725.08, 0.000, 0.000, 0.000, 17:02:29.228, 1578582149228
10, -52336.63, -52398.70, -52314.43, -31071.20, -52418.19, 14395.37, -52672.13, 126305.05, 0.000, 0.000, 0.000, 17:02:29.228, 1578582149228
11, -14325.59, -10642.11, -9418.06, -9616.97, -130419.74, -150801.09, -55337.51, -160725.02, 0.000, 0.000, 0.000, 17:02:29.228, 1578582149228
12, -52249.66, -52309.03, -52230.59, -31098.63, -52339.54, 14531.61, -52579.32, 126305.52, 0.000, 0.000, 0.000, 17:02:29.228, 1578582149228
13, -14324.65, -10641.42, -9417.44, -9616.23, -130418.78, -150800.13, -55336.91, -160724.13, 0.000, 0.000, 0.000, 17:02:29.228, 1578582149228
14, -52289.85, -52323.78, -52267.72, -31074.82, -52386.00, 14373.76, -52645.87, 126306.55, 0.000, 0.000, 0.000, 17:02:29.228, 1578582149228
15, -14324.54, -10641.42, -9417.53, -9616.46, -130418.58, -150799.95, -55336.95, -160724.06, 0.000, 0.000, 0.000, 17:02:29.228, 1578582149228
16, -52321.77, -52390.48, -52296.75, -31121.94, -52400.69, 14618.42, -52736.84, 126306.44, 0.000, 0.000, 0.000, 17:02:29.228, 1578582149228
17, -14324.92, -10641.96, -9418.22, -9617.08, -130418.94, -150800.16, -55337.60, -160724.39, -0.002, -0.018, 0.980, 17:02:29.228, 1578582149228
18, -52342.42, -52457.26, -52336.09, -31070.71, -52437.28, 14460.28, -52801.97, 126306.75, 0.000, 0.000, 0.000, 17:02:29.228, 1578582149228
19, -14325.57, -10642.89, -9419.05, -9618.02, -130419.56, -150800.94, -55338.47, -160725.06, 0.000, 0.000, 0.000, 17:02:29.228, 1578582149228
20, -52280.86, -52396.00, -52276.66, -31088.68, -52379.95, 14337.84, -52734.51, 126307.65, 0.000, 0.000, 0.000, 17:02:29.228, 1578582149228
21, -14322.59, -10640.32, -9416.32, -9615.47, -130416.55, -150798.00, -55335.79, -160722.20, 0.000, 0.000, 0.000, 17:02:29.228, 1578582149228
22, -52247.56, -52347.76, -52230.10, -31104.51, -52345.13, 14391.01, -52687.38, 126308.32, 0.000, 0.000, 0.000, 17:02:29.229, 1578582149229
23, -14323.00, -10640.82, -9416.92, -9616.08, -130416.86, -150798.25, -55336.35, -160722.56, 0.000, 0.000, 0.000, 17:02:29.229, 1578582149229
24, -52297.49, -52438.04, -52277.35, -31077.55, -52409.05, 14572.62, -52786.79, 126307.60, 0.000, 0.000, 0.000, 17:02:29.229, 1578582149229
25, -14323.06, -10641.15, -9417.33, -9616.48, -130417.02, -150798.36, -55336.70, -160722.78, 0.000, 0.000, 0.000, 17:02:29.229, 1578582149229
26, -52278.20, -52424.79, -52263.50, -31084.06, -52389.07, 14466.58, -52766.95, 126309.10, 0.000, 0.000, 0.000, 17:02:29.229, 1578582149229
27, -14325.66, -10643.95, -9420.08, -9619.30, -130419.59, -150800.91, -55339.59, -160725.44, 0.002, -0.018, 0.978, 17:02:29.229, 1578582149229
28, -52318.77, -52462.38, -52305.16, -31055.83, -52422.75, 14206.43, -52800.34, 126310.17, 0.000, 0.000, 0.000, 17:02:29.229, 1578582149229
29, -14326.33, -10644.77, -9420.92, -9620.30, -130420.01, -150801.38, -55340.37, -160725.95, 0.000, 0.000, 0.000, 17:02:29.229, 1578582149229
30, -52293.65, -52371.14, -52245.12, -31038.95, -52361.78, 14557.69, -52701.81, 126309.59, 0.000, 0.000, 0.000, 17:02:29.229, 1578582149229
31, -14323.31, -10642.07, -9418.22, -9617.62, -130417.04, -150798.39, -55337.64, -160723.03, 0.000, 0.000, 0.000, 17:02:29.229, 1578582149229
32, -52329.59, -52372.30, -52283.72, -31025.47, -52397.29, 14255.99, -52700.94, 126308.88, 0.000, 0.000, 0.000, 17:02:29.229, 1578582149229
33, -14320.74, -10639.77, -9415.87, -9615.41, -130414.47, -150795.92, -55335.36, -160720.55, 0.000, 0.000, 0.000, 17:02:29.229, 1578582149229
34, -52349.44, -52450.64, -52328.47, -30976.25, -52439.27, 14424.88, -52768.76, 126308.16, 0.000, 0.000, 0.000, 17:02:29.229, 1578582149229
35, -14323.40, -10642.56, -9418.64, -9618.33, -130417.06, -150798.47, -55338.22, -160723.09, 0.000, 0.000, 0.000, 17:02:29.229, 1578582149229
36, -52415.62, -52516.96, -52397.27, -30948.92, -52499.95, 14156.86, -52831.30, 126307.06, 0.000, 0.000, 0.000, 17:02:29.229, 1578582149229
37, -14321.25, -10640.73, -9416.77, -9616.46, -130414.76, -150796.33, -55336.28, -160720.97, 0.004, -0.020, 0.972, 17:02:29.229, 1578582149229
38, -52289.51, -52370.09, -52251.34, -30936.80, -52373.11, 14439.20, -52677.76, 126309.15, 0.000, 0.000, 0.000, 17:02:29.229, 1578582149229
39, -14322.51, -10642.11, -9418.29, -9618.02, -130415.98, -150797.58, -55337.66, -160722.25, 0.000, 0.000, 0.000, 17:02:29.229, 1578582149229
40, -52348.12, -52411.29, -52306.05, -30907.23, -52443.54, 14299.75, -52715.49, 126309.34, 0.000, 0.000, 0.000, 17:02:29.230, 1578582149230
41, -14324.07, -10644.01, -9420.19, -9619.99, -130417.66, -150799.14, -55339.59, -160723.81, 0.000, 0.000, 0.000, 17:02:29.230, 1578582149230
42, -52364.77, -52423.89, -52330.77, -30879.87, -52458.71, 14285.38, -52722.71, 126309.41, 0.000, 0.000, 0.000, 17:02:29.230, 1578582149230
43, -14325.90, -10646.09, -9422.27, -9622.13, -130419.50, -150801.02, -55341.73, -160725.80, 0.000, 0.000, 0.000, 17:02:29.230, 1578582149230
44, -52365.06, -52419.73, -52330.13, -30934.57, -52449.66, 14468.08, -52713.75, 126310.66, 0.000, 0.000, 0.000, 17:02:29.230, 1578582149230
45, -14325.59, -10645.89, -9422.09, -9622.11, -130419.02, -150800.63, -55341.46, -160725.44, 0.000, 0.000, 0.000, 17:02:29.230, 1578582149230
46, -52319.60, -52341.91, -52274.96, -30888.23, -52390.32, 14103.21, -52632.01, 126309.70, 0.002, -0.024, 0.970, 17:02:29.230, 1578582149230
47, -14319.17, -10639.72, -9416.01, -9615.97, -130412.61, -150794.20, -55335.27, -160718.98, 0.000, 0.000, 0.000, 17:02:29.230, 1578582149230
48, -52283.57, -52366.83, -52234.41, -30900.08, -52370.89, 14431.98, -52658.29, 126311.49, 0.000, 0.000, 0.000, 17:02:29.230, 1578582149230
49, -14318.66, -10639.50, -9415.76, -9615.79, -130412.03, -150793.64, -55335.14, -160718.53, 0.000, 0.000, 0.000, 17:02:29.230, 1578582149230
50, -52345.35, -52507.02, -52325.90, -30859.51, -52453.60, 14256.21, -52784.65, 126309.30, 0.000, 0.000, 0.000, 17:02:29.230, 1578582149230
51, -14317.16, -10638.18, -9414.53, -9614.67, -130410.60, -150792.06, -55333.86, -160717.08, 0.000, 0.000, 0.000, 17:02:29.230, 1578582149230
52, -52326.73, -52469.04, -52306.52, -30896.61, -52424.16, 14299.66, -52739.88, 126309.44, 0.000, 0.000, 0.000, 17:02:29.230, 1578582149230
53, -14317.34, -10638.56, -9414.89, -9615.25, -130410.82, -150792.22, -55334.38, -160717.19, 0.000, 0.000, 0.000, 17:02:29.230, 1578582149230
54, -52271.70, -52406.37, -52250.75, -30913.02, -52362.87, 14392.00, -52671.62, 126310.82, 0.000, 0.000, 0.000, 17:02:29.230, 1578582149230
55, -14315.46, -10636.88, -9413.28, -9613.66, -130408.84, -150790.23, -55332.64, -160715.31, 0.000, 0.000, 0.000, 17:02:29.230, 1578582149230
56, -52323.24, -52422.19, -52304.45, -30908.33, -52418.10, 14121.52, -52733.84, 126310.58, 0.002, -0.018, 0.974, 17:02:29.231, 1578582149231
57, -14317.21, -10638.85, -9415.16, -9615.70, -130410.60, -150791.97, -55334.63, -160717.11, 0.000, 0.000, 0.000, 17:02:29.231, 1578582149231
58, -52295.14, -52396.18, -52283.14, -30888.01, -52391.77, 14270.07, -52713.95, 126310.20, 0.000, 0.000, 0.000, 17:02:29.231, 1578582149231
59, -14313.83, -10635.83, -9412.03, -9612.61, -130407.13, -150788.70, -55331.52, -160713.78, 0.000, 0.000, 0.000, 17:02:29.231, 1578582149231
60, -52243.80, -52301.67, -52224.27, -30840.04, -52333.12, 14421.48, -52613.50, 126309.81, 0.000, 0.000, 0.000, 17:02:29.231, 1578582149231
61, -14313.01, -10635.32, -9411.47, -9612.17, -130406.40, -150787.95, -55331.05, -160712.97, 0.000, 0.000, 0.000, 17:02:29.231, 1578582149231
62, -52250.22, -52294.00, -52223.64, -30904.66, -52338.22, 14277.87, -52601.27, 126311.20, 0.000, 0.000, 0.000, 17:02:29.231, 1578582149231
63, -14313.43, -10635.99, -9412.16, -9612.81, -130406.84, -150788.27, -55331.54, -160713.34, 0.000, 0.000, 0.000, 17:02:29.231, 1578582149231
64, -52269.11, -52284.44, -52225.27, -30902.87, -52357.82, 14467.61, -52594.95, 126310.02, 0.000, 0.000, 0.000, 17:02:29.231, 1578582149231
65, -14312.83, -10635.67, -9411.94, -9612.66, -130406.24, -150787.70, -55331.29, -160712.88, 0.000, 0.000, 0.000, 17:02:29.231, 1578582149231
66, -52383.50, -52460.86, -52366.67, -30858.53, -52491.84, 14030.08, -52776.80, 126310.53, 0.004, -0.016, 0.974, 17:02:29.231, 1578582149231
67, -14316.38, -10639.43, -9415.69, -9616.55, -130409.77, -150791.23, -55335.05, -160716.45, 0.000, 0.000, 0.000, 17:02:29.231, 1578582149231
68, -52335.04, -52415.22, -52319.93, -30889.93, -52437.41, 14477.56, -52724.05, 126311.07, 0.000, 0.000, 0.000, 17:02:29.231, 1578582149231
69, -14315.73, -10638.94, -9415.27, -9616.14, -130409.10, -150790.55, -55334.65, -160715.86, 0.000, 0.000, 0.000, 17:02:29.231, 1578582149231
70, -52320.34, -52399.19, -52306.79, -30894.40, -52416.18, 14155.43, -52702.93, 126310.89, 0.000, 0.000, 0.000, 17:02:29.231, 1578582149231
71, -14312.72, -10636.28, -9412.65, -9613.57, -130406.15, -150787.66, -55331.99, -160712.97, 0.000, 0.000, 0.000, 17:02:29.232, 1578582149232
72, -52265.98, -52325.36, -52246.73, -30875.98, -52353.21, 14286.56, -52622.02, 126312.34, 0.000, 0.000, 0.000, 17:02:29.232, 1578582149232
73, -14316.14, -10639.88, -9416.19, -9617.24, -130409.41, -150790.98, -55335.68, -160716.34, 0.000, 0.000, 0.000, 17:02:29.232, 1578582149232
74, -52293.94, -52351.58, -52281.36, -30856.34, -52389.71, 14393.58, -52643.36, 126312.05, 0.000, 0.000, 0.000, 17:02:29.232, 1578582149232
75, -14314.26, -10638.33, -9414.60, -9615.76, -130407.65, -150789.13, -55334.11, -160714.61, 0.000, 0.000, 0.000, 17:02:29.232, 1578582149232
76, -52286.61, -52339.04, -52272.73, -30900.66, -52373.93, 14131.26, -52626.40, 126311.29, 0.004, -0.016, 0.978, 17:02:29.232, 1578582149232
77, -14315.60, -10639.88, -9416.28, -9617.46, -130409.02, -150790.47, -55335.65, -160715.98, 0.000, 0.000, 0.000, 17:02:29.233, 1578582149233
78, -52271.23, -52294.56, -52247.52, -30881.84, -52358.89, 14540.28, -52643.14, 126311.13, 0.000, 0.000, 0.000, 17:02:29.233, 1578582149233
79, -14312.36, -10636.93, -9413.37, -9614.51, -130405.80, -150787.34, -55332.70, -160712.81, 0.000, 0.000, 0.000, 17:02:29.233, 1578582149233
80, -52227.40, -52230.39, -52186.34, -30899.27, -52330.62, 14041.28, -52579.23, 126311.72, 0.000, 0.000, 0.000, 17:02:29.233, 1578582149233
81, -14308.71, -10633.44, -9409.95, -9611.21, -130402.11, -150783.64, -55329.26, -160709.23, 0.000, 0.000, 0.000, 17:02:29.233, 1578582149233
82, -52268.19, -52376.73, -52237.95, -30881.46, -52371.03, 14326.48, -52642.63, 126312.54, 0.000, 0.000, 0.000, 17:02:29.233, 1578582149233
83, -14310.59, -10635.61, -9412.16, -9613.46, -130404.05, -150785.44, -55331.50, -160711.16, 0.000, 0.000, 0.000, 17:02:29.233, 1578582149233
84, -52264.30, -52336.94, -52214.97, -30910.45, -52359.41, 14278.14, -52604.45, 126312.68, 0.000, 0.000, 0.000, 17:02:29.233, 1578582149233
85, -14306.68, -10631.90, -9408.50, -9609.77, -130400.09, -150781.53, -55327.72, -160707.22, 0.002, -0.016, 0.980, 17:02:29.233, 1578582149233
86, -52291.05, -52339.83, -52249.46, -30920.15, -52388.69, 14212.33, -52633.80, 126312.77, 0.000, 0.000, 0.000, 17:02:29.234, 1578582149234
87, -14307.62, -10633.08, -9409.66, -9611.05, -130400.92, -150782.45, -55328.93, -160708.19, 0.000, 0.000, 0.000, 17:02:29.234, 1578582149234
88, -52280.39, -52313.16, -52249.50, -30901.64, -52379.16, 14302.17, -52636.05, 126314.77, 0.000, 0.000, 0.000, 17:02:29.234, 1578582149234
89, -14310.19, -10635.88, -9412.45, -9613.80, -130403.47, -150785.00, -55331.88, -160710.84, 0.000, 0.000, 0.000, 17:02:29.234, 1578582149234
90, -52314.86, -52347.79, -52286.63, -30902.74, -52409.27, 14322.91, -52668.44, 126313.16, 0.000, 0.000, 0.000, 17:02:29.234, 1578582149234
91, -14306.79, -10632.79, -9409.48, -9610.89, -130400.12, -150781.64, -55328.84, -160707.63, 0.000, 0.000, 0.000, 17:02:29.234, 1578582149234
92, -52275.54, -52302.59, -52245.10, -30894.33, -52373.46, 14110.14, -52617.43, 126311.83, 0.000, 0.000, 0.000, 17:02:29.234, 1578582149234
93, -14306.75, -10632.97, -9409.57, -9611.09, -130400.12, -150781.64, -55329.08, -160707.56, 0.000, 0.000, 0.000, 17:02:29.234, 1578582149234
94, -52281.96, -52340.72, -52245.52, -30870.53, -52361.82, 14287.77, -52649.75, 126312.88, 0.000, 0.000, 0.000, 17:02:29.234, 1578582149234
95, -14305.00, -10631.54, -9408.18, -9609.69, -130398.42, -150780.06, -55327.56, -160705.94, 0.002, -0.016, 0.976, 17:02:29.234, 1578582149234
96, -52266.11, -52386.14, -52249.55, -30929.00, -52359.38, 14281.74, -52676.46, 126312.14, 0.000, 0.000, 0.000, 17:02:29.234, 1578582149234
97, -14302.30, -10629.10, -9405.88, -9607.52, -130395.78, -150777.52, -55325.35, -160703.41, 0.000, 0.000, 0.000, 17:02:29.234, 1578582149234
98, -52245.17, -52317.00, -52215.46, -30903.72, -52331.36, 14315.91, -52641.91, 126313.21, 0.000, 0.000, 0.000, 17:02:29.234, 1578582149234
99, -14303.26, -10630.36, -9407.04, -9608.86, -130396.83, -150778.41, -55326.55, -160704.39, 0.000, 0.000, 0.000, 17:02:29.234, 1578582149234
100, -52309.23, -52367.81, -52294.36, -30883.18, -52408.94, 14156.57, -52711.80, 126313.08, 0.000, 0.000, 0.000, 17:02:29.234, 1578582149234
101, -14304.49, -10631.81, -9408.65, -9610.40, -130398.13, -150779.70, -55328.07, -160705.81, 0.000, 0.000, 0.000, 17:02:29.235, 1578582149235
102, -52366.61, -52425.48, -52357.11, -30921.42, -52468.41, 14331.09, -52765.25, 126311.31, 0.000, 0.000, 0.000, 17:02:29.235, 1578582149235
103, -14307.51, -10635.14, -9411.96, -9613.80, -130401.32, -150782.81, -55331.41, -160708.91, 0.000, 0.000, 0.000, 17:02:29.235, 1578582149235
104, -52388.26, -52445.21, -52379.64, -30875.25, -52494.88, 14024.38, -52780.58, 126313.03, 0.000, 0.000, 0.000, 17:02:29.235, 1578582149235
105, -14307.19, -10634.89, -9411.80, -9613.69, -130400.77, -150782.31, -55331.27, -160708.55, 0.002, -0.014, 0.974, 17:02:29.235, 1578582149235
106, -52292.17, -52337.73, -52279.07, -30892.23, -52399.80, 14492.65, -52665.00, 126312.45, 0.000, 0.000, 0.000, 17:02:29.236, 1578582149236
107, -14305.32, -10633.35, -9410.35, -9612.21, -130398.84, -150780.48, -55329.73, -160706.78, 0.000, 0.000, 0.000, 17:02:29.236, 1578582149236
108, -52264.30, -52290.52, -52247.85, -30919.48, -52362.18, 14046.73, -52609.88, 126313.68, 0.000, 0.000, 0.000, 17:02:29.236, 1578582149236
109, -14301.29, -10629.62, -9406.64, -9608.59, -130394.91, -150776.53, -55326.13, -160702.84, 0.000, 0.000, 0.000, 17:02:29.236, 1578582149236
110, -52278.47, -52374.27, -52258.33, -30885.91, -52368.82, 14396.11, -52681.05, 126314.84, 0.000, 0.000, 0.000, 17:02:29.236, 1578582149236
111, -14301.41, -10629.95, -9407.02, -9609.08, -130395.09, -150776.69, -55326.55, -160702.95, 0.000, 0.000, 0.000, 17:02:29.236, 1578582149236
112, -52306.50, -52451.05, -52311.84, -30890.65, -52425.03, 14166.96, -52760.82, 126314.91, 0.000, 0.000, 0.000, 17:02:29.236, 1578582149236
113, -14300.04, -10628.86, -9405.97, -9608.10, -130393.75, -150775.31, -55325.46, -160701.58, 0.000, 0.000, 0.000, 17:02:29.236, 1578582149236
114, -52327.87, -52464.26, -52332.79, -30891.07, -52438.51, 14389.20, -52768.49, 126313.16, 0.000, 0.000, 0.000, 17:02:29.236, 1578582149236
115, -14300.27, -10629.39, -9406.53, -9608.79, -130394.04, -150775.59, -55326.04, -160702.06, 0.008, -0.012, 0.974, 17:02:29.236, 1578582149236
116, -52298.25, -52422.39, -52307.95, -30865.68, -52403.93, 14156.16, -52721.50, 126312.85, 0.000, 0.000, 0.000, 17:02:29.236, 1578582149236
117, -14297.27, -10626.62, -9403.80, -9606.00, -130391.06, -150772.64, -55323.36, -160699.06, 0.000, 0.000, 0.000, 17:02:29.236, 1578582149236
118, -52230.39, -52355.74, -52244.94, -30846.32, -52332.23, 14238.78, -52649.73, 126312.45, 0.000, 0.000, 0.000, 17:02:29.236, 1578582149236
119, -14296.24, -10625.82, -9403.02, -9605.26, -130390.08, -150771.61, -55322.58, -160697.95, 0.000, 0.000, 0.000, 17:02:29.236, 1578582149236
120, -52249.05, -52373.33, -52265.53, -30876.95, -52353.02, 14234.89, -52661.63, 126312.92, 0.000, 0.000, 0.000, 17:02:29.236, 1578582149236
121, -14300.60, -10630.49, -9407.65, -9610.04, -130394.48, -150776.08, -55327.27, -160702.53, 0.000, 0.000, 0.000, 17:02:29.236, 1578582149236
122, -52306.37, -52414.84, -52310.41, -30893.69, -52405.70, 14200.60, -52697.95, 126313.33, 0.000, 0.000, 0.000, 17:02:29.707, 1578582149707
123, -14300.11, -10630.22, -9407.40, -9609.86, -130393.95, -150775.47, -55327.14, -160702.05, 0.000, 0.000, 0.000, 17:02:29.707, 1578582149707
124, -52270.34, -52316.43, -52222.17, -30879.34, -52338.51, 14479.08, -52611.11, 126315.07, 0.000, 0.000, 0.000, 17:02:29.707, 1578582149707
125, -14298.37, -10628.68, -9406.06, -9608.50, -130392.20, -150773.83, -55325.71, -160700.34, 0.006, -0.016, 0.974, 17:02:29.707, 1578582149707
126, -52335.07, -52416.67, -52318.30, -30839.24, -52431.29, 14120.18, -52761.22, 126314.24, 0.000, 0.000, 0.000, 17:02:29.708, 1578582149708
127, -14296.20, -10626.82, -9404.14, -9606.73, -130390.10, -150771.63, -55323.72, -160698.28, 0.000, 0.000, 0.000, 17:02:29.708, 1578582149708
128, -52293.65, -52354.11, -52263.59, -30811.30, -52378.05, 14292.91, -52694.82, 126314.04, 0.000, 0.000, 0.000, 17:02:29.708, 1578582149708
129, -14297.40, -10628.43, -9405.75, -9608.37, -130391.45, -150773.13, -55325.46, -160699.72, 0.000, 0.000, 0.000, 17:02:29.708, 1578582149708
130, -52334.80, -52373.09, -52297.85, -30837.34, -52430.17, 14344.79, -52709.26, 126313.99, 0.000, 0.000, 0.000, 17:02:29.708, 1578582149708
131, -14295.39, -10626.56, -9403.96, -9606.60, -130389.43, -150771.05, -55323.74, -160697.73, 0.000, 0.000, 0.000, 17:02:29.708, 1578582149708
132, -52253.26, -52288.53, -52209.38, -30829.85, -52360.84, 14229.52, -52617.52, 126315.02, 0.000, 0.000, 0.000, 17:02:29.708, 1578582149708
133, -14294.23, -10625.68, -9403.18, -9605.77, -130388.34, -150770.02, -55322.87, -160696.75, 0.000, 0.000, 0.000, 17:02:29.708, 1578582149708
134, -52292.71, -52415.84, -52256.88, -30800.88, -52399.06, 14418.89, -52719.76, 126315.36, 0.002, -0.020, 0.980, 17:02:29.708, 1578582149708
135, -14296.42, -10628.10, -9405.61, -9608.17, -130390.57, -150772.08, -55325.35, -160698.95, 0.000, 0.000, 0.000, 17:02:29.708, 1578582149708
136, -52395.08, -52531.18, -52364.95, -30817.85, -52492.42, 14181.67, -52839.66, 126316.30, 0.000, 0.000, 0.000, 17:02:29.709, 1578582149709
137, -14298.39, -10630.40, -9407.96, -9610.62, -130392.65, -150774.17, -55327.79, -160701.11, 0.000, 0.000, 0.000, 17:02:29.709, 1578582149709
138, -52334.42, -52485.31, -52311.51, -30795.67, -52435.31, 14382.03, -52787.24, 126316.84, 0.000, 0.000, 0.000, 17:02:29.709, 1578582149709
139, -14297.14, -10629.35, -9406.98, -9609.71, -130391.40, -150772.88, -55326.73, -160699.84, 0.000, 0.000, 0.000, 17:02:29.709, 1578582149709
140, -52278.98, -52419.78, -52251.85, -30764.74, -52384.24, 14280.75, -52715.11, 126318.31, 0.000, 0.000, 0.000, 17:02:29.709, 1578582149709
141, -14296.49, -10628.92, -9406.62, -9609.37, -130390.71, -150772.22, -55326.36, -160699.27, 0.000, 0.000, 0.000, 17:02:29.709, 1578582149709
142, -52312.56, -52439.09, -52291.37, -30813.20, -52426.64, 14321.66, -52730.38, 126317.88, 0.000, 0.000, 0.000, 17:02:29.709, 1578582149709
143, -14298.41, -10630.94, -9408.63, -9611.50, -130392.43, -150774.06, -55328.55, -160701.17, 0.000, 0.000, 0.000, 17:02:29.709, 1578582149709
144, -52282.85, -52375.34, -52251.67, -30807.74, -52378.61, 14297.70, -52661.33, 126320.23, 0.002, -0.018, 0.980, 17:02:29.709, 1578582149709
145, -14297.38, -10630.22, -9407.92, -9610.91, -130391.55, -150773.27, -55327.92, -160700.28, 0.000, 0.000, 0.000, 17:02:29.709, 1578582149709
146, -52262.40, -52352.01, -52245.75, -30806.22, -52377.06, 14419.40, -52630.53, 126318.51, 0.000, 0.000, 0.000, 17:02:29.709, 1578582149709
147, -14296.62, -10629.73, -9407.47, -9610.45, -130390.93, -150772.50, -55327.43, -160699.61, 0.000, 0.000, 0.000, 17:02:29.709, 1578582149709
148, -52288.29, -52338.06, -52259.41, -30781.95, -52381.94, 14291.30, -52630.04, 126319.94, 0.000, 0.000, 0.000, 17:02:29.710, 1578582149710
149, -14296.40, -10629.73, -9407.58, -9610.45, -130390.66, -150772.30, -55327.47, -160699.38, 0.000, 0.000, 0.000, 17:02:29.710, 1578582149710
150, -52244.63, -52255.72, -52202.92, -30783.16, -52325.05, 14329.26, -52573.85, 126323.00, 0.000, 0.000, 0.000, 17:02:29.710, 1578582149710
151, -14295.50, -10629.13, -9406.98, -9609.82, -130389.74, -150771.27, -55326.78, -160698.36, 0.000, 0.000, 0.000, 17:02:29.710, 1578582149710
152, -52367.59, -52499.95, -52362.20, -30803.29, -52464.35, 14278.07, -52820.50, 126321.86, 0.000, 0.000, 0.000, 17:02:29.710, 1578582149710
153, -14295.26, -10629.21, -9407.09, -9609.93, -130389.57, -150771.09, -55326.94, -160698.28, 0.000, 0.000, 0.000, 17:02:29.711, 1578582149711
154, -52354.51, -52492.27, -52351.96, -30767.29, -52446.40, 14240.74, -52807.63, 126319.70, 0.006, -0.014, 0.980, 17:02:29.712, 1578582149712
155, -14292.38, -10626.51, -9404.43, -9607.32, -130386.70, -150768.19, -55324.37, -160695.47, 0.000, 0.000, 0.000, 17:02:29.712, 1578582149712
156, -52246.69, -52350.31, -52221.43, -30791.00, -52327.40, 14592.02, -52673.61, 126320.32, 0.000, 0.000, 0.000, 17:02:29.712, 1578582149712
157, -14289.69, -10624.21, -9402.04, -9604.99, -130384.05, -150765.58, -55322.09, -160692.88, 0.000, 0.000, 0.000, 17:02:29.712, 1578582149712
158, -52347.14, -52399.19, -52297.47, -30792.92, -52423.98, 14257.71, -52745.64, 126320.45, 0.000, 0.000, 0.000, 17:02:29.712, 1578582149712
159, -14292.22, -10626.82, -9404.67, -9607.76, -130386.51, -150768.05, -55324.81, -160695.42, 0.000, 0.000, 0.000, 17:02:29.712, 1578582149712
160, -52317.68, -52361.06, -52273.89, -30799.12, -52397.63, 14251.07, -52701.86, 126321.23, 0.000, 0.000, 0.000, 17:02:29.713, 1578582149713
161, -14290.25, -10625.10, -9403.00, -9606.09, -130384.52, -150766.13, -55323.05, -160693.59, 0.000, 0.000, 0.000, 17:02:29.713, 1578582149713
162, -52295.21, -52309.34, -52255.49, -30821.06, -52377.49, 14377.58, -52643.99, 126321.39, 0.000, 0.000, 0.000, 17:02:29.713, 1578582149713
163, -14287.66, -10622.89, -9400.76, -9603.81, -130382.17, -150763.72, -55320.99, -160691.16, 0.000, 0.000, 0.000, 17:02:29.713, 1578582149713
164, -52273.11, -52301.71, -52251.83, -30740.55, -52357.75, 14378.63, -52624.05, 126320.30, 0.004, -0.012, 0.972, 17:02:29.713, 1578582149713
165, -14288.06, -10623.56, -9401.48, -9604.50, -130382.66, -150764.08, -55321.66, -160691.63, 0.000, 0.000, 0.000, 17:02:29.713, 1578582149713
166, -52354.22, -52473.31, -52332.88, -30796.48, -52431.91, 14234.60, -52755.21, 126320.99, 0.000, 0.000, 0.000, 17:02:29.713, 1578582149713
167, -14287.73, -10623.38, -9401.30, -9604.30, -130382.21, -150763.61, -55321.48, -160691.30, 0.000, 0.000, 0.000, 17:02:29.713, 1578582149713
168, -52324.54, -52431.31, -52291.95, -30770.71, -52396.20, 14384.24, -52707.25, 126321.02, 0.000, 0.000, 0.000, 17:02:29.713, 1578582149713
169, -14289.47, -10625.42, -9403.47, -9606.53, -130384.09, -150765.50, -55323.67, -160693.28, 0.000, 0.000, 0.000, 17:02:29.713, 1578582149713
170, -52346.64, -52454.22, -52317.56, -30825.00, -52415.40, 14283.46, -52724.50, 126321.95, 0.000, 0.000, 0.000, 17:02:29.713, 1578582149713
171, -14290.16, -10626.38, -9404.45, -9607.61, -130384.78, -150766.25, -55324.79, -160694.06, 0.000, 0.000, 0.000, 17:02:29.714, 1578582149714
172, -52317.65, -52409.21, -52283.52, -30797.80, -52385.56, 14396.74, -52685.14, 126320.81, 0.000, 0.000, 0.000, 17:02:29.714, 1578582149714
173, -14286.56, -10623.16, -9401.14, -9604.30, -130381.25, -150762.73, -55321.55, -160690.42, 0.004, -0.012, 0.970, 17:02:29.714, 1578582149714
174, -52270.56, -52356.46, -52243.29, -30801.78, -52347.80, 14255.81, -52657.40, 126320.43, 0.000, 0.000, 0.000, 17:02:29.714, 1578582149714
175, -14285.49, -10622.29, -9400.36, -9603.45, -130380.23, -150761.75, -55320.66, -160689.48, 0.000, 0.000, 0.000, 17:02:29.714, 1578582149714
176, -52256.63, -52320.98, -52223.11, -30751.24, -52339.69, 14226.66, -52616.50, 126321.23, 0.000, 0.000, 0.000, 17:02:29.714, 1578582149714
177, -14286.05, -10623.11, -9401.19, -9604.43, -130380.83, -150762.28, -55321.66, -160690.23, 0.000, 0.000, 0.000, 17:02:29.714, 1578582149714
178, -52300.35, -52331.49, -52268.17, -30787.87, -52377.45, 14371.41, -52656.28, 126321.69, 0.000, 0.000, 0.000, 17:02:29.714, 1578582149714
179, -14287.10, -10624.39, -9402.55, -9605.77, -130381.92, -150763.47, -55323.18, -160691.33, 0.000, 0.000, 0.000, 17:02:29.714, 1578582149714
180, -52334.17, -52357.39, -52312.07, -30798.65, -52411.17, 14402.61, -52686.08, 126319.38, 0.000, 0.000, 0.000, 17:02:29.714, 1578582149714
181, -14285.18, -10622.67, -9400.90, -9604.10, -130380.02, -150761.50, -55321.48, -160689.39, 0.000, 0.000, 0.000, 17:02:29.714, 1578582149714
182, -52317.70, -52319.55, -52291.14, -30773.54, -52396.02, 14376.80, -52642.56, 126320.05, 0.000, 0.000, 0.000, 17:02:29.714, 1578582149714
183, -14286.61, -10624.32, -9402.57, -9605.89, -130381.43, -150762.94, -55323.25, -160690.98, 0.004, -0.016, 0.968, 17:02:29.714, 1578582149714
184, -52278.29, -52282.45, -52259.85, -30767.35, -52363.39, 14218.77, -52600.71, 126320.61, 0.000, 0.000, 0.000, 17:02:29.714, 1578582149714
185, -14284.19, -10622.26, -9400.54, -9603.92, -130379.11, -150760.59, -55321.21, -160688.67, 0.000, 0.000, 0.000, 17:02:29.714, 1578582149714
186, -52231.89, -52229.66, -52208.53, -30786.84, -52319.87, 14321.86, -52544.84, 126320.48, 0.000, 0.000, 0.000, 17:02:29.714, 1578582149714
187, -14283.41, -10621.75, -9399.94, -9603.38, -130378.46, -150759.83, -55320.72, -160688.03, 0.000, 0.000, 0.000, 17:02:29.714, 1578582149714
188, -52215.51, -52184.15, -52171.79, -30814.83, -52301.96, 14447.92, -52542.56, 126321.20, 0.000, 0.000, 0.000, 17:02:29.715, 1578582149715
189, -14281.58, -10620.14, -9398.44, -9601.77, -130376.63, -150758.13, -55319.22, -160686.31, 0.000, 0.000, 0.000, 17:02:29.715, 1578582149715
190, -52320.13, -52455.59, -52311.13, -30772.52, -52422.59, 14095.50, -52701.48, 126322.73, 0.000, 0.000, 0.000, 17:02:29.715, 1578582149715
191, -14282.54, -10621.37, -9399.78, -9603.11, -130377.66, -150759.06, -55320.45, -160687.28, 0.000, 0.000, 0.000, 17:02:29.715, 1578582149715
192, -52265.73, -52394.34, -52257.77, -30794.24, -52371.52, 14414.37, -52629.84, 126323.36, 0.000, 0.000, 0.000, 17:02:29.715, 1578582149715
193, -14284.33, -10623.36, -9401.75, -9605.17, -130379.53, -150760.83, -55322.55, -160689.09, 0.006, -0.016, 0.980, 17:02:29.715, 1578582149715
194, -52328.32, -52457.20, -52329.19, -30795.88, -52438.35, 14187.25, -52688.20, 126322.27, 0.000, 0.000, 0.000, 17:02:29.715, 1578582149715
195, -14282.88, -10622.22, -9400.58, -9604.12, -130378.13, -150759.50, -55321.55, -160687.77, 0.000, 0.000, 0.000, 17:02:29.715, 1578582149715
196, -52340.50, -52467.86, -52343.52, -30763.67, -52444.01, 14277.69, -52692.61, 126320.34, 0.000, 0.000, 0.000, 17:02:29.715, 1578582149715
197, -14283.23, -10622.91, -9401.25, -9604.75, -130378.57, -150759.78, -55322.31, -160688.20, 0.000, 0.000, 0.000, 17:02:29.715, 1578582149715
198, -52273.66, -52354.58, -52252.99, -30797.64, -52348.30, 14379.17, -52608.85, 126321.86, 0.000, 0.000, 0.000, 17:02:29.715, 1578582149715
199, -14279.19, -10618.98, -9397.41, -9600.90, -130374.55, -150755.72, -55318.33, -160684.22, 0.000, 0.000, 0.000, 17:02:29.715, 1578582149715
200, -52261.64, -52351.74, -52237.77, -30841.18, -52334.77, 14337.41, -52661.09, 126324.34, 0.000, 0.000, 0.000, 17:02:29.716, 1578582149716
201, -14279.68, -10619.85, -9398.28, -9601.73, -130375.06, -150756.34, -55319.18, -160684.73, 0.000, 0.000, 0.000, 17:02:29.716, 1578582149716
202, -52276.17, -52420.20, -52268.97, -30792.39, -52365.57, 14291.17, -52709.57, 126324.43, 0.000, 0.000, 0.000, 17:02:29.716, 1578582149716
203, -14279.14, -10619.60, -9398.13, -9601.55, -130374.66, -150755.88, -55319.16, -160684.34, 0.004, -0.016, 0.978, 17:02:29.716, 1578582149716
204, -52315.11, -52456.79, -52309.61, -30799.47, -52397.27, 14083.72, -52742.74, 126323.72, 0.000, 0.000, 0.000, 17:02:29.716, 1578582149716
205, -14280.42, -10620.99, -9399.65, -9603.07, -130375.87, -150757.06, -55320.68, -160685.67, 0.000, 0.000, 0.000, 17:02:29.716, 1578582149716
206, -52269.26, -52368.44, -52247.54, -30793.01, -52327.71, 14447.23, -52649.09, 126323.85, 0.000, 0.000, 0.000, 17:02:29.716, 1578582149716
207, -14278.67, -10619.54, -9398.08, -9601.59, -130374.01, -150755.27, -55319.18, -160683.89, 0.000, 0.000, 0.000, 17:02:29.716, 1578582149716
208, -52317.52, -52396.40, -52312.69, -30841.76, -52388.62, 14093.87, -52690.10, 126325.71, 0.000, 0.000, 0.000, 17:02:29.716, 1578582149716
209, -14281.69, -10622.84, -9401.43, -9604.99, -130377.09, -150758.39, -55322.62, -160687.16, 0.000, 0.000, 0.000, 17:02:29.716, 1578582149716
210, -52347.98, -52426.93, -52346.02, -30817.22, -52421.68, 14363.63, -52717.82, 126324.70, 0.000, 0.000, 0.000, 17:02:29.716, 1578582149716
211, -14283.41, -10624.97, -9403.42, -9607.09, -130378.93, -150760.20, -55324.63, -160688.97, 0.000, 0.000, 0.000, 17:02:29.716, 1578582149716
212, -52363.00, -52439.38, -52360.93, -30790.22, -52429.37, 14207.98, -52725.98, 126324.37, 0.002, -0.014, 0.978, 17:02:29.716, 1578582149716
213, -14280.77, -10622.46, -9401.12, -9604.66, -130376.24, -150757.55, -55322.24, -160686.34, 0.000, 0.000, 0.000, 17:02:29.716, 1578582149716
214, -52302.34, -52367.07, -52291.21, -30819.12, -52355.76, 14246.49, -52651.75, 126322.20, 0.000, 0.000, 0.000, 17:02:29.716, 1578582149716
215, -14277.38, -10619.40, -9398.04, -9601.57, -130372.94, -150754.20, -55319.20, -160682.95, 0.000, 0.000, 0.000, 17:02:29.717, 1578582149717
216, -52274.16, -52380.51, -52248.00, -30822.41, -52338.89, 14251.61, -52691.38, 126324.61, 0.000, 0.000, 0.000, 17:02:29.717, 1578582149717
217, -14277.53, -10619.76, -9398.37, -9601.97, -130373.14, -150754.33, -55319.70, -160683.09, 0.000, 0.000, 0.000, 17:02:29.717, 1578582149717
218, -52269.80, -52366.31, -52241.30, -30782.24, -52344.43, 14179.39, -52672.75, 126326.58, 0.000, 0.000, 0.000, 17:02:29.717, 1578582149717
219, -14279.59, -10622.06, -9400.70, -9604.32, -130375.20, -150756.45, -55322.09, -160685.33, 0.000, 0.000, 0.000, 17:02:29.717, 1578582149717
220, -52313.70, -52386.92, -52273.04, -30826.41, -52394.41, 14418.33, -52687.55, 126324.61, 0.000, 0.000, 0.000, 17:02:29.717, 1578582149717
221, -14277.18, -10619.92, -9398.66, -9602.22, -130372.83, -150754.11, -55319.98, -160682.95, 0.000, 0.000, 0.000, 17:02:29.717, 1578582149717
222, -52335.89, -52402.30, -52304.60, -30844.65, -52424.27, 14049.12, -52698.62, 126324.19, 0.002, -0.010, 0.976, 17:02:29.717, 1578582149717
223, -14278.34, -10621.28, -9400.12, -9603.63, -130374.03, -150755.30, -55321.39, -160684.19, 0.000, 0.000, 0.000, 17:02:29.717, 1578582149717
224, -52256.03, -52324.18, -52226.53, -30825.80, -52340.63, 14304.40, -52611.96, 126325.62, 0.000, 0.000, 0.000, 17:02:29.717, 1578582149717
225, -14276.64, -10619.94, -9398.86, -9602.31, -130372.45, -150753.66, -55320.10, -160682.69, 0.000, 0.000, 0.000, 17:02:29.717, 1578582149717
226, -52250.04, -52311.64, -52217.90, -30829.56, -52338.75, 13984.14, -52593.14, 126324.10, 0.000, 0.000, 0.000, 17:02:29.717, 1578582149717
227, -14275.54, -10619.07, -9397.99, -9601.53, -130371.35, -150752.59, -55319.25, -160681.64, 0.000, 0.000, 0.000, 17:02:29.717, 1578582149717
228, -52222.03, -52248.21, -52177.11, -30851.51, -52300.33, 14433.59, -52530.78, 126325.95, 0.000, 0.000, 0.000, 17:02:29.717, 1578582149717
229, -14276.57, -10620.25, -9399.11, -9602.71, -130372.42, -150753.61, -55320.54, -160682.75, 0.000, 0.000, 0.000, 17:02:29.717, 1578582149717
230, -52290.00, -52411.46, -52264.48, -30826.54, -52381.80, 14262.80, -52692.16, 126324.92, 0.000, 0.000, 0.000, 17:02:29.718, 1578582149718
231, -14273.67, -10617.64, -9396.65, -9600.16, -130369.54, -150750.83, -55318.09, -160679.83, 0.000, 0.000, 0.000, 17:02:29.718, 1578582149718
232, -52304.53, -52440.81, -52285.76, -30836.96, -52406.59, 14094.88, -52714.29, 126325.23, 0.004, -0.012, 0.978, 17:02:29.718, 1578582149718
233, -14276.24, -10620.52, -9399.65, -9603.00, -130372.16, -150753.50, -55321.01, -160682.53, 0.000, 0.000, 0.000, 17:02:29.718, 1578582149718
234, -52299.55, -52434.44, -52282.25, -30814.29, -52394.27, 14191.08, -52701.93, 126325.77, 0.000, 0.000, 0.000, 17:02:29.718, 1578582149718
235, -14278.12, -10622.58, -9401.72, -9605.06, -130374.08, -150755.36, -55323.20, -160684.50, 0.000, 0.000, 0.000, 17:02:29.718, 1578582149718
236, -52318.21, -52451.25, -52302.54, -30784.41, -52405.81, 14209.70, -52714.13, 126324.75, 0.000, 0.000, 0.000, 17:02:29.718, 1578582149718
237, -14276.77, -10621.57, -9400.65, -9604.05, -130372.73, -150754.02, -55322.20, -160683.36, 0.000, 0.000, 0.000, 17:02:29.718, 1578582149718
238, -52312.76, -52427.18, -52280.91, -30830.05, -52387.32, 14102.09, -52684.29, 126324.37, 0.000, 0.000, 0.000, 17:02:29.718, 1578582149718
239, -14275.99, -10620.81, -9400.07, -9603.43, -130371.82, -150753.14, -55321.64, -160682.58, 0.000, 0.000, 0.000, 17:02:29.718, 1578582149718
240, -52223.11, -52306.14, -52170.13, -30809.24, -52310.34, 14356.86, -52577.89, 126326.84, 0.000, 0.000, 0.000, 17:02:29.718, 1578582149718
241, -14274.14, -10619.34, -9398.64, -9602.02, -130370.19, -150751.45, -55320.21, -160680.89, 0.000, 0.000, 0.000, 17:02:29.718, 1578582149718
242, -52284.57, -52413.12, -52255.49, -30768.56, -52394.95, 14088.62, -52712.34, 126326.91, 0.002, -0.014, 0.976, 17:02:29.718, 1578582149718
243, -14274.85, -10620.41, -9399.60, -9603.07, -130370.97, -150752.23, -55321.23, -160681.75, 0.000, 0.000, 0.000, 17:02:30.188, 1578582150188
244, -52318.50, -52444.95, -52290.36, -30793.91, -52422.02, 14197.42, -52739.88, 126324.81, 0.000, 0.000, 0.000, 17:02:30.189, 1578582150189
245, -14274.38, -10620.16, -9399.42, -9602.87, -130370.44, -150751.88, -55321.04, -160681.36, 0.000, 0.000, 0.000, 17:02:30.189, 1578582150189
246, -52254.20, -52376.82, -52225.61, -30819.81, -52351.67, 14040.56, -52665.78, 126325.48, 0.000, 0.000, 0.000, 17:02:30.189, 1578582150189
247, -14272.19, -10618.20, -9397.48, -9600.97, -130368.34, -150749.77, -55319.09, -160679.38, 0.000, 0.000, 0.000, 17:02:30.189, 1578582150189
248, -52250.00, -52336.41, -52213.36, -30762.30, -52342.00, 14296.04, -52632.72, 126324.84, 0.000, 0.000, 0.000, 17:02:30.189, 1578582150189
249, -14272.57, -10618.80, -9398.06, -9601.57, -130368.76, -150750.13, -55319.83, -160679.84, 0.000, 0.000, 0.000, 17:02:30.189, 1578582150189
250, -52251.76, -52337.64, -52227.75, -30799.52, -52346.09, 14187.75, -52657.63, 126326.34, 0.000, 0.000, 0.000, 17:02:30.189, 1578582150189
251, -14274.49, -10620.97, -9400.32, -9603.87, -130370.75, -150752.13, -55322.13, -160681.97, 0.002, -0.016, 0.972, 17:02:30.189, 1578582150189
252, -52259.02, -52325.99, -52229.25, -30757.16, -52348.19, 14192.42, -52641.38, 126326.22, 0.000, 0.000, 0.000, 17:02:30.189, 1578582150189
253, -14273.58, -10620.16, -9399.53, -9603.11, -130369.92, -150751.27, -55321.41, -160681.09, 0.000, 0.000, 0.000, 17:02:30.189, 1578582150189
254, -52253.06, -52282.94, -52217.45, -30766.30, -52338.06, 14118.95, -52610.95, 126326.13, 0.000, 0.000, 0.000, 17:02:30.189, 1578582150189
255, -14271.90, -10618.69, -9398.10, -9601.62, -130368.20, -150749.69, -55320.07, -160679.48, 0.000, 0.000, 0.000, 17:02:30.189, 1578582150189
0, -52232.18, -52310.95, -52208.11, -30816.37, -52323.96, 14202.34, -52580.11, 126327.48, 0.000, 0.000, 0.000, 17:02:30.190, 1578582150190
1, -14271.21, -10618.31, -9397.75, -9601.28, -130367.64, -150749.22, -55319.74, -160678.92, 0.000, 0.000, 0.000, 17:02:30.190, 1578582150190
2, -52255.70, -52311.55, -52221.30, -30774.73, -52324.38, 14261.22, -52612.07, 126327.95, 0.000, 0.000, 0.000, 17:02:30.190, 1578582150190
3, -14271.34, -10618.73, -9398.10, -9601.71, -130367.80, -150749.34, -55320.21, -160679.16, 0.000, 0.000, 0.000, 17:02:30.190, 1578582150190
4, -52307.44, -52346.18, -52276.68, -30789.50, -52377.27, 14061.15, -52700.29, 126328.84, 0.000, 0.000, 0.000, 17:02:30.190, 1578582150190
5, -14269.82, -10617.41, -9396.90, -9600.52, -130366.45, -150747.95, -55319.09, -160677.80, 0.004, -0.020, 0.972, 17:02:30.190, 1578582150190
6, -52275.63, -52270.54, -52229.41, -30722.67, -52330.21, 14249.77, -52612.25, 126328.84, 0.000, 0.000, 0.000, 17:02:30.190, 1578582150190
7, -14270.07, -10617.82, -9397.39, -9600.88, -130366.74, -150748.23, -55319.47, -160678.08, 0.000, 0.000, 0.000, 17:02:30.190, 1578582150190
8, -52269.20, -52287.66, -52244.38, -30801.26, -52363.32, 14246.71, -52615.89, 126329.84, 0.000, 0.000, 0.000, 17:02:30.191, 1578582150191
9, -14269.82, -10617.86, -9397.37, -9600.90, -130366.52, -150747.98, -55319.63, -160677.97, 0.000, 0.000, 0.000, 17:02:30.191, 1578582150191
10, -52250.84, -52269.57, -52229.01, -30773.99, -52346.51, 14257.17, -52591.55, 126330.40, 0.000, 0.000, 0.000, 17:02:30.191, 1578582150191
11, -14270.96, -10619.40, -9398.73, -9602.44, -130367.80, -150749.23, -55321.04, -160679.27, 0.000, 0.000, 0.000, 17:02:30.191, 1578582150191
12, -52289.04, -52306.70, -52269.04, -30786.29, -52406.01, 14005.33, -52622.31, 126330.24, 0.000, 0.000, 0.000, 17:02:30.191, 1578582150191
13, -14271.70, -10620.23, -9399.80, -9603.47, -130368.58, -150750.08, -55322.04, -160680.14, 0.000, 0.000, 0.000, 17:02:30.191, 1578582150191
14, -52265.69, -52251.85, -52230.53, -30787.89, -52357.82, 14305.88, -52602.57, 126330.54, 0.000, 0.000, 0.000, 17:02:30.191, 1578582150191
15, -14271.19, -10619.87, -9399.40, -9603.07, -130368.04, -150749.53, -55321.66, -160679.59, 0.002, -0.014, 0.964, 17:02:30.191, 1578582150191
16, -52272.55, -52290.61, -52234.33, -30787.89, -52358.49, 14271.39, -52641.98, 126333.35, 0.000, 0.000, 0.000, 17:02:30.191, 1578582150191
17, -14269.53, -10618.49, -9397.99, -9601.79, -130366.37, -150747.94, -55320.41, -160678.06, 0.000, 0.000, 0.000, 17:02:30.191, 1578582150191
18, -52282.20, -52292.71, -52248.00, -30777.55, -52366.29, 14069.17, -52630.69, 126333.77, 0.000, 0.000, 0.000, 17:02:30.192, 1578582150192
19, -14269.98, -10619.22, -9398.71, -9602.42, -130366.86, -150748.42, -55321.17, -160678.77, 0.000, 0.000, 0.000, 17:02:30.192, 1578582150192
20, -52260.86, -52267.50, -52235.00, -30808.03, -52355.34, 14371.39, -52609.84, 126332.21, 0.000, 0.000, 0.000, 17:02:30.192, 1578582150192
21, -14268.28, -10617.77, -9397.25, -9600.97, -130365.34, -150746.91, -55319.80, -160677.28, 0.000, 0.000, 0.000, 17:02:30.192, 1578582150192
22, -52336.47, -52382.45, -52333.39, -30810.38, -52441.91, 14082.36, -52726.85, 126331.48, 0.000, 0.000, 0.000, 17:02:30.192, 1578582150192
23, -14267.16, -10616.90, -9396.41, -9600.10, -130364.24, -150745.81, -55319.00, -160676.30, 0.000, 0.000, 0.000, 17:02:30.192, 1578582150192
24, -52262.07, -52306.50, -52258.33, -30789.79, -52360.01, 14306.19, -52644.61, 126330.40, 0.000, 0.000, 0.000, 17:02:30.192, 1578582150192
25, -14266.29, -10616.25, -9395.85, -9599.45, -130363.33, -150744.88, -55318.40, -160675.44, 0.002, -0.016, 0.966, 17:02:30.192, 1578582150192
26, -52240.59, -52284.82, -52238.80, -30795.43, -52331.78, 14252.19, -52617.41, 126331.61, 0.000, 0.000, 0.000, 17:02:30.193, 1578582150193
27, -14268.64, -10618.80, -9398.46, -9602.04, -130365.77, -150747.41, -55321.10, -160677.98, 0.000, 0.000, 0.000, 17:02:30.193, 1578582150193
28, -52271.65, -52311.84, -52269.91, -30752.51, -52354.40, 14102.83, -52639.54, 126332.99, 0.000, 0.000, 0.000, 17:02:30.193, 1578582150193
29, -14269.67, -10620.01, -9399.71, -9603.29, -130366.84, -150748.50, -55322.46, -160679.20, 0.000, 0.000, 0.000, 17:02:30.193, 1578582150193
30, -52239.63, -52232.61, -52216.73, -30812.66, -52296.66, 14257.64, -52560.01, 126334.42, 0.000, 0.000, 0.000, 17:02:30.193, 1578582150193
31, -14267.30, -10618.02, -9397.72, -9601.28, -130364.60, -150746.31, -55320.54, -160677.08, 0.000, 0.000, 0.000, 17:02:30.193, 1578582150193
32, -52293.51, -52365.84, -52278.76, -30791.52, -52367.03, 14310.93, -52698.46, 126334.98, 0.000, 0.000, 0.000, 17:02:30.194, 1578582150194
33, -14266.80, -10617.73, -9397.50, -9601.15, -130364.17, -150745.84, -55320.34, -160676.69, 0.000, 0.000, 0.000, 17:02:30.194, 1578582150194
34, -52280.08, -52374.38, -52279.16, -30778.71, -52359.68, 14140.38, -52699.96, 126334.49, 0.004, -0.016, 0.970, 17:02:30.194, 1578582150194
35, -14266.47, -10617.68, -9397.48, -9601.08, -130363.91, -150745.61, -55320.32, -160676.66, 0.000, 0.000, 0.000, 17:02:30.194, 1578582150194
36, -52265.29, -52328.29, -52244.21, -30811.90, -52331.20, 14193.92, -52649.55, 126334.78, 0.000, 0.000, 0.000, 17:02:30.194, 1578582150194
37, -14264.41, -10615.74, -9395.44, -9599.13, -130361.74, -150743.42, -55318.40, -160674.58, 0.000, 0.000, 0.000, 17:02:30.194, 1578582150194
38, -52253.30, -52305.54, -52236.47, -30791.23, -52343.94, 14287.95, -52622.26, 126334.72, 0.000, 0.000, 0.000, 17:02:30.195, 1578582150195
39, -14266.25, -10617.82, -9397.63, -9601.28, -130363.64, -150745.45, -55320.61, -160676.58, 0.000, 0.000, 0.000, 17:02:30.195, 1578582150195
40, -52261.84, -52311.08, -52235.04, -30786.44, -52352.34, 14133.54, -52633.51, 126334.80, 0.000, 0.000, 0.000, 17:02:30.195, 1578582150195
41, -14262.98, -10614.89, -9394.84, -9598.42, -130360.53, -150742.42, -55317.82, -160673.63, 0.000, 0.000, 0.000, 17:02:30.195, 1578582150195
42, -52294.00, -52390.03, -52274.16, -30816.28, -52386.72, 14329.84, -52714.71, 126331.83, 0.000, 0.000, 0.000, 17:02:30.195, 1578582150195
43, -14261.40, -10613.48, -9393.50, -9597.15, -130359.02, -150740.83, -55316.65, -160672.27, 0.000, 0.000, 0.000, 17:02:30.195, 1578582150195
44, -52278.67, -52360.84, -52247.40, -30759.38, -52364.59, 14166.27, -52681.56, 126332.99, 0.000, -0.012, 0.972, 17:02:30.195, 1578582150195
45, -14263.45, -10615.65, -9395.56, -9599.34, -130361.05, -150742.84, -55318.82, -160674.41, 0.000, 0.000, 0.000, 17:02:30.196, 1578582150196
46, -52330.35, -52412.20, -52302.23, -30808.53, -52412.16, 14323.74, -52729.57, 126330.42, 0.000, 0.000, 0.000, 17:02:30.196, 1578582150196
47, -14264.39, -10616.74, -9396.83, -9600.57, -130362.05, -150744.00, -55320.14, -160675.47, 0.000, 0.000, 0.000, 17:02:30.196, 1578582150196
48, -52319.64, -52393.96, -52287.75, -30805.02, -52396.27, 14198.16, -52707.00, 126330.42, 0.000, 0.000, 0.000, 17:02:30.196, 1578582150196
49, -14262.29, -10615.02, -9395.09, -9598.80, -130360.06, -150742.02, -55318.46, -160673.56, 0.000, 0.000, 0.000, 17:02:30.196, 1578582150196
50, -52251.40, -52309.90, -52221.52, -30782.24, -52346.24, 14325.70, -52616.83, 126331.45, 0.000, 0.000, 0.000, 17:02:30.196, 1578582150196
51, -14262.31, -10615.22, -9395.31, -9599.07, -130360.17, -150742.13, -55318.87, -160673.83, 0.000, 0.000, 0.000, 17:02:30.196, 1578582150196
52, -52246.15, -52303.44, -52218.55, -30809.53, -52337.66, 14297.09, -52607.00, 126329.48, 0.000, 0.000, 0.000, 17:02:30.197, 1578582150197
53, -14259.94, -10613.17, -9393.19, -9597.15, -130357.96, -150739.88, -55316.97, -160671.84, 0.000, 0.000, 0.000, 17:02:30.197, 1578582150197
54, -52247.38, -52272.77, -52187.19, -30784.34, -52319.89, 14241.19, -52582.25, 126331.23, 0.000, -0.014, 0.970, 17:02:30.197, 1578582150197
55, -14260.59, -10613.90, -9394.04, -9597.97, -130358.66, -150740.52, -55317.95, -160672.77, 0.000, 0.000, 0.000, 17:02:30.197, 1578582150197
56, -52317.72, -52370.98, -52276.93, -30789.84, -52404.42, 14217.56, -52681.03, 126331.50, 0.000, 0.000, 0.000, 17:02:30.197, 1578582150197
57, -14263.47, -10617.03, -9397.30, -9601.21, -130361.63, -150743.58, -55321.41, -160676.02, 0.000, 0.000, 0.000, 17:02:30.197, 1578582150197
58, -52351.34, -52401.90, -52310.25, -30768.45, -52429.73, 14223.58, -52707.73, 126330.49, 0.000, 0.000, 0.000, 17:02:30.197, 1578582150197
59, -14265.55, -10619.36, -9399.58, -9603.56, -130363.84, -150745.72, -55323.83, -160678.34, 0.000, 0.000, 0.000, 17:02:30.198, 1578582150198
60, -52403.55, -52450.04, -52361.75, -30813.42, -52473.47, 14351.03, -52752.08, 126329.09, 0.000, 0.000, 0.000, 17:02:30.198, 1578582150198
61, -14266.16, -10620.16, -9400.41, -9604.39, -130364.34, -150746.50, -55324.68, -160679.13, 0.000, 0.000, 0.000, 17:02:30.198, 1578582150198
62, -52371.84, -52415.35, -52329.50, -30789.73, -52434.31, 14167.83, -52712.32, 126330.29, 0.000, 0.000, 0.000, 17:02:30.198, 1578582150198
63, -14266.31, -10620.41, -9400.70, -9604.77, -130364.49, -150746.58, -55325.04, -160679.47, 0.000, 0.000, 0.000, 17:02:30.198, 1578582150198
64, -52296.62, -52340.00, -52253.88, -30773.84, -52355.29, 14356.99, -52631.29, 126329.75, 0.004, -0.016, 0.974, 17:02:30.198, 1578582150198
65, -14264.50, -10618.73, -9399.09, -9603.18, -130362.63, -150744.67, -55323.61, -160677.88, 0.000, 0.000, 0.000, 17:02:30.198, 1578582150198
66, -52358.49, -52398.10, -52316.02, -30805.13, -52421.50, 14408.07, -52687.53, 126327.63, 0.000, 0.000, 0.000, 17:02:30.198, 1578582150198
67, -14268.91, -10623.31, -9403.78, -9607.92, -130367.17, -150749.17, -55328.46, -160682.64, 0.000, 0.000, 0.000, 17:02:30.199, 1578582150199
68, -52426.77, -52462.20, -52384.15, -30795.05, -52481.54, 14078.76, -52747.32, 126328.45, 0.000, 0.000, 0.000, 17:02:30.199, 1578582150199
69, -14268.86, -10623.38, -9403.92, -9608.08, -130367.13, -150749.17, -55328.63, -160682.69, 0.000, 0.000, 0.000, 17:02:30.199, 1578582150199
70, -52304.69, -52339.69, -52262.13, -30795.85, -52350.96, 14385.54, -52617.01, 126331.12, 0.000, 0.000, 0.000, 17:02:30.199, 1578582150199
71, -14270.49, -10625.19, -9405.70, -9609.95, -130368.65, -150750.83, -55330.63, -160684.50, 0.000, 0.000, 0.000, 17:02:30.199, 1578582150199
72, -52341.64, -52373.71, -52298.74, -30787.83, -52392.13, 14290.18, -52646.36, 126328.59, 0.000, 0.000, 0.000, 17:02:30.199, 1578582150199
73, -14268.57, -10623.43, -9404.12, -9608.21, -130366.73, -150748.77, -55328.95, -160682.70, 0.000, 0.000, 0.000, 17:02:30.200, 1578582150200
74, -52397.65, -52424.88, -52353.77, -30804.03, -52445.48, 14215.69, -52694.50, 126327.77, -0.002, -0.016, 0.970, 17:02:30.200, 1578582150200
75, -14271.83, -10626.87, -9407.45, -9611.61, -130369.95, -150751.94, -55332.37, -160686.06, 0.000, 0.000, 0.000, 17:02:30.200, 1578582150200
76, -52327.09, -52353.59, -52284.21, -30795.38, -52375.39, 14344.12, -52616.94, 126327.72, 0.000, 0.000, 0.000, 17:02:30.201, 1578582150201
77, -14271.16, -10626.26, -9406.91, -9611.14, -130369.18, -150751.22, -55331.99, -160685.36, 0.000, 0.000, 0.000, 17:02:30.204, 1578582150204
78, -52412.49, -52434.24, -52369.04, -30768.74, -52458.87, 14270.22, -52693.86, 126326.55, 0.000, 0.000, 0.000, 17:02:30.204, 1578582150204
79, -14271.97, -10627.11, -9407.94, -9612.14, -130369.95, -150751.98, -55332.95, -160686.28, 0.000, 0.000, 0.000, 17:02:30.205, 1578582150205
80, -52296.38, -52319.53, -52254.24, -30866.82, -52347.52, 14340.90, -52572.29, 126327.48, 0.000, 0.000, 0.000, 17:02:30.205, 1578582150205
81, -14269.80, -10625.13, -9406.06, -9610.22, -130367.84, -150749.81, -55331.09, -160684.27, 0.000, 0.000, 0.000, 17:02:30.205, 1578582150205
82, -52274.47, -52295.66, -52232.20, -30796.19, -52355.79, 14045.86, -52578.23, 126327.85, 0.000, 0.000, 0.000, 17:02:30.205, 1578582150205
83, -14270.67, -10626.33, -9407.18, -9611.47, -130368.71, -150750.78, -55332.34, -160685.36, 0.000, -0.016, 0.978, 17:02:30.205, 1578582150205
84, -52309.00, -52308.69, -52260.63, -30794.62, -52392.64, 14176.37, -52617.57, 126328.91, 0.000, 0.000, 0.000, 17:02:30.205, 1578582150205
85, -14273.18, -10628.88, -9409.75, -9614.11, -130371.06, -150753.22, -55335.07, -160687.92, 0.000, 0.000, 0.000, 17:02:30.205, 1578582150205
86, -52317.21, -52313.43, -52276.46, -30825.02, -52397.47, 14447.50, -52617.23, 126327.83, 0.000, 0.000, 0.000, 17:02:30.205, 1578582150205
87, -14272.46, -10628.28, -9409.19, -9613.53, -130370.28, -150752.31, -55334.69, -160687.25, 0.000, 0.000, 0.000, 17:02:30.205, 1578582150205
88, -52351.49, -52344.66, -52310.55, -30812.93, -52423.89, 14130.93, -52644.48, 126326.80, 0.000, 0.000, 0.000, 17:02:30.205, 1578582150205
89, -14273.94, -10629.98, -9410.84, -9615.30, -130371.80, -150753.81, -55336.41, -160688.78, 0.000, 0.000, 0.000, 17:02:30.205, 1578582150205
90, -52278.85, -52267.81, -52235.22, -30831.97, -52350.45, 14303.91, -52599.31, 126327.25, 0.000, 0.000, 0.000, 17:02:30.206, 1578582150206
91, -14270.00, -10626.20, -9407.04, -9611.61, -130367.82, -150749.70, -55332.73, -160684.92, 0.000, 0.000, 0.000, 17:02:30.206, 1578582150206
92, -52312.94, -52357.75, -52272.50, -30806.45, -52382.83, 14162.53, -52680.96, 126325.71, 0.000, 0.000, 0.000, 17:02:30.206, 1578582150206
93, -14270.11, -10626.51, -9407.38, -9611.94, -130367.84, -150749.81, -55333.04, -160685.09, -0.002, -0.016, 0.974, 17:02:30.206, 1578582150206
94, -52277.29, -52314.05, -52230.37, -30821.51, -52344.39, 14321.32, -52613.28, 126327.07, 0.000, 0.000, 0.000, 17:02:30.206, 1578582150206
95, -14269.93, -10626.35, -9407.36, -9611.81, -130367.53, -150749.39, -55332.93, -160684.77, 0.000, 0.000, 0.000, 17:02:30.206, 1578582150206
96, -52323.22, -52345.48, -52275.03, -30816.35, -52396.89, 14181.96, -52652.64, 126327.27, 0.000, 0.000, 0.000, 17:02:30.206, 1578582150206
97, -14270.16, -10626.78, -9407.85, -9612.39, -130367.80, -150749.69, -55333.57, -160685.28, 0.000, 0.000, 0.000, 17:02:30.206, 1578582150206
98, -52373.33, -52430.29, -52344.25, -30839.33, -52454.02, 14285.71, -52736.55, 126325.10, 0.000, 0.000, 0.000, 17:02:30.206, 1578582150206
99, -14269.20, -10625.97, -9406.96, -9611.58, -130366.79, -150748.67, -55332.77, -160684.22, 0.000, 0.000, 0.000, 17:02:30.206, 1578582150206
100, -52310.66, -52367.18, -52282.74, -30828.08, -52384.57, 14153.01, -52665.76, 126325.64, 0.000, 0.000, 0.000, 17:02:30.206, 1578582150206
101, -14268.82, -10625.68, -9406.66, -9611.34, -130366.21, -150748.08, -55332.50, -160683.78, 0.000, 0.000, 0.000, 17:02:30.206, 1578582150206
102, -52336.23, -52390.34, -52309.03, -30824.55, -52401.32, 14317.36, -52684.00, 126325.10, 0.000, 0.000, 0.000, 17:02:30.206, 1578582150206
103, -14272.53, -10629.53, -9410.60, -9615.23, -130369.83, -150751.78, -55336.55, -160687.63, 0.002, -0.016, 0.972, 17:02:30.207, 1578582150207
104, -52307.44, -52358.60, -52279.07, -30810.98, -52365.98, 14306.14, -52647.50, 126326.45, 0.000, 0.000, 0.000, 17:02:30.207, 1578582150207
105, -14271.16, -10628.39, -9409.48, -9614.11, -130368.49, -150750.38, -55335.41, -160686.28, 0.000, 0.000, 0.000, 17:02:30.207, 1578582150207
106, -52318.91, -52367.68, -52290.03, -30829.78, -52386.34, 14089.67, -52652.01, 126326.96, 0.000, 0.000, 0.000, 17:02:30.207, 1578582150207
107, -14274.07, -10631.23, -9412.43, -9617.22, -130371.22, -150753.06, -55338.45, -160689.08, 0.000, 0.000, 0.000, 17:02:30.668, 1578582150668
108, -52356.90, -52402.37, -52328.63, -30808.86, -52430.60, 14202.25, -52682.90, 126325.53, 0.000, 0.000, 0.000, 17:02:30.669, 1578582150669
109, -14275.14, -10632.41, -9413.68, -9618.47, -130372.18, -150754.08, -55339.70, -160690.16, 0.000, 0.000, 0.000, 17:02:30.669, 1578582150669
110, -52286.96, -52314.19, -52248.54, -30863.56, -52344.66, 14252.88, -52592.69, 126325.55, 0.000, 0.000, 0.000, 17:02:30.669, 1578582150669
111, -14271.07, -10628.66, -9409.88, -9614.63, -130368.13, -150750.11, -55335.88, -160686.17, 0.000, 0.000, 0.000, 17:02:30.669, 1578582150669
112, -52365.11, -52415.13, -52329.28, -30856.56, -52406.99, 14172.88, -52717.35, 126327.14, 0.000, 0.000, 0.000, 17:02:30.669, 1578582150669
113, -14275.28, -10633.08, -9414.33, -9619.05, -130372.31, -150754.13, -55340.35, -160690.39, 0.002, -0.018, 0.976, 17:02:30.669, 1578582150669
114, -52388.48, -52483.23, -52372.55, -30873.23, -52437.62, 14255.00, -52773.47, 126327.96, 0.000, 0.000, 0.000, 17:02:30.669, 1578582150669
115, -14277.89, -10635.88, -9417.15, -9621.87, -130374.84, -150756.75, -55343.27, -160693.13, 0.000, 0.000, 0.000, 17:02:30.669, 1578582150669
116, -52467.34, -52558.20, -52451.68, -30784.97, -52509.21, 14092.35, -52845.02, 126326.83, 0.000, 0.000, 0.000, 17:02:30.670, 1578582150670
117, -14278.52, -10636.48, -9417.88, -9622.63, -130375.28, -150757.13, -55344.01, -160693.70, 0.000, 0.000, 0.000, 17:02:30.670, 1578582150670
118, -52473.56, -52560.19, -52458.13, -30820.60, -52506.93, 14304.69, -52843.57, 126323.65, 0.000, 0.000, 0.000, 17:02:30.670, 1578582150670
119, -14281.45, -10639.50, -9420.90, -9625.69, -130378.05, -150759.89, -55347.12, -160696.55, 0.000, 0.000, 0.000, 17:02:30.670, 1578582150670
120, -52501.27, -52585.65, -52487.19, -30868.72, -52528.34, 14320.74, -52864.04, 126325.77, 0.000, 0.000, 0.000, 17:02:30.670, 1578582150670
121, -14282.09, -10640.23, -9421.73, -9626.49, -130378.55, -150760.33, -55348.01, -160697.28, 0.000, 0.000, 0.000, 17:02:30.670, 1578582150670
122, -52501.45, -52585.09, -52488.29, -30856.47, -52519.87, 14019.50, -52856.78, 126324.86, 0.000, -0.008, 0.974, 17:02:30.670, 1578582150670
123, -14281.16, -10639.63, -9421.06, -9625.87, -130377.68, -150759.42, -55347.41, -160696.44, 0.000, 0.000, 0.000, 17:02:30.670, 1578582150670
124, -52442.29, -52525.28, -52429.66, -30847.44, -52454.71, 14325.30, -52790.93, 126324.48, 0.000, 0.000, 0.000, 17:02:30.670, 1578582150670
125, -14280.46, -10639.05, -9420.41, -9625.31, -130376.83, -150758.59, -55346.83, -160695.83, 0.000, 0.000, 0.000, 17:02:30.670, 1578582150670
126, -52400.64, -52480.98, -52388.33, -30830.10, -52406.10, 14168.61, -52741.58, 126324.30, 0.000, 0.000, 0.000, 17:02:30.670, 1578582150670
127, -14279.37, -10637.98, -9419.47, -9624.33, -130375.58, -150757.30, -55345.87, -160694.64, 0.000, 0.000, 0.000, 17:02:30.670, 1578582150670
128, -52462.74, -52539.27, -52450.18, -30853.68, -52459.77, 14155.16, -52796.11, 126322.51, 0.000, 0.000, 0.000, 17:02:30.670, 1578582150670
129, -14282.88, -10641.80, -9423.29, -9628.15, -130379.15, -150760.86, -55349.71, -160698.31, 0.000, 0.000, 0.000, 17:02:30.670, 1578582150670
130, -52444.90, -52518.68, -52431.76, -30830.14, -52432.95, 14429.79, -52770.05, 126322.73, 0.000, 0.000, 0.000, 17:02:30.671, 1578582150671
131, -14283.64, -10642.72, -9424.17, -9629.15, -130379.76, -150761.50, -55350.79, -160699.06, 0.000, 0.000, 0.000, 17:02:30.671, 1578582150671
132, -52501.83, -52572.93, -52490.19, -30820.75, -52483.35, 14026.01, -52822.04, 126322.29, 0.000, -0.014, 0.976, 17:02:30.671, 1578582150671
133, -14285.25, -10644.39, -9425.98, -9630.94, -130381.30, -150762.91, -55352.51, -160700.72, 0.000, 0.000, 0.000, 17:02:30.671, 1578582150671
134, -52450.56, -52521.86, -52440.59, -30822.59, -52425.28, 14311.13, -52763.32, 126323.14, 0.000, 0.000, 0.000, 17:02:30.671, 1578582150671
135, -14285.13, -10644.39, -9426.00, -9630.92, -130381.12, -150762.69, -55352.59, -160700.66, 0.000, 0.000, 0.000, 17:02:30.671, 1578582150671
136, -52419.49, -52489.40, -52409.47, -30868.36, -52391.32, 14138.95, -52724.90, 126322.55, 0.000, 0.000, 0.000, 17:02:30.671, 1578582150671
137, -14284.15, -10643.57, -9425.19, -9630.18, -130380.05, -150761.59, -55351.81, -160699.67, 0.000, 0.000, 0.000, 17:02:30.671, 1578582150671
138, -52443.96, -52511.60, -52435.02, -30890.67, -52437.59, 14024.98, -52742.18, 126323.18, 0.000, 0.000, 0.000, 17:02:30.671, 1578582150671
139, -14287.64, -10646.99, -9428.81, -9633.87, -130383.38, -150764.98, -55355.59, -160703.19, 0.000, 0.000, 0.000, 17:02:30.671, 1578582150671
140, -52469.80, -52533.68, -52460.26, -30844.36, -52454.91, 14391.37, -52758.36, 126322.09, 0.000, 0.000, 0.000, 17:02:30.671, 1578582150671
141, -14288.20, -10647.66, -9429.42, -9634.47, -130383.89, -150765.53, -55356.30, -160703.77, 0.000, 0.000, 0.000, 17:02:30.671, 1578582150671
142, -52466.07, -52527.98, -52457.57, -30848.42, -52443.65, 14315.24, -52746.79, 126320.63, 0.004, -0.008, 0.972, 17:02:30.672, 1578582150672
143, -14289.51, -10649.06, -9430.85, -9635.90, -130385.12, -150766.73, -55357.74, -160705.23, 0.000, 0.000, 0.000, 17:02:30.672, 1578582150672
144, -52532.77, -52591.04, -52524.45, -30849.12, -52502.08, 14031.08, -52806.64, 126320.27, 0.000, 0.000, 0.000, 17:02:30.672, 1578582150672
145, -14291.10, -10650.87, -9432.73, -9637.74, -130386.77, -150768.33, -55359.61, -160706.98, 0.000, 0.000, 0.000, 17:02:30.672, 1578582150672
146, -52480.00, -52538.45, -52472.37, -30881.33, -52441.82, 14184.71, -52747.05, 126321.57, 0.000, 0.000, 0.000, 17:02:30.672, 1578582150672
147, -14289.47, -10649.29, -9431.25, -9636.33, -130384.98, -150766.63, -55358.36, -160705.45, 0.000, 0.000, 0.000, 17:02:30.672, 1578582150672
148, -52429.08, -52485.76, -52420.63, -30838.70, -52411.17, 14438.44, -52688.22, 126319.78, 0.000, 0.000, 0.000, 17:02:30.672, 1578582150672
149, -14291.82, -10651.72, -9433.69, -9638.72, -130387.22, -150768.77, -55360.89, -160707.92, 0.000, 0.000, 0.000, 17:02:30.672, 1578582150672
150, -52507.64, -52559.88, -52499.75, -30883.47, -52503.75, 14002.79, -52760.48, 126321.57, 0.000, 0.000, 0.000, 17:02:30.672, 1578582150672
151, -14294.75, -10654.67, -9436.59, -9641.69, -130389.99, -150771.55, -55363.93, -160710.89, 0.000, 0.000, 0.000, 17:02:30.672, 1578582150672
152, -52522.24, -52571.95, -52513.97, -30855.71, -52510.35, 14152.95, -52768.15, 126320.68, 0.002, -0.006, 0.976, 17:02:30.672, 1578582150672
153, -14296.56, -10656.66, -9438.54, -9643.79, -130391.80, -150773.28, -55366.05, -160712.86, 0.000, 0.000, 0.000, 17:02:30.673, 1578582150673
154, -52487.59, -52535.67, -52480.02, -30883.65, -52476.55, 14305.32, -52725.75, 126322.06, 0.000, 0.000, 0.000, 17:02:30.673, 1578582150673
155, -14297.02, -10657.16, -9439.12, -9644.46, -130392.18, -150773.70, -55366.68, -160713.42, 0.000, 0.000, 0.000, 17:02:30.673, 1578582150673
156, -52496.00, -52542.40, -52489.29, -30881.24, -52487.59, 14170.89, -52727.23, 126321.23, 0.000, 0.000, 0.000, 17:02:30.673, 1578582150673
157, -14295.79, -10656.10, -9438.16, -9643.39, -130390.82, -150772.39, -55365.76, -160712.28, 0.000, 0.000, 0.000, 17:02:30.673, 1578582150673
158, -52505.25, -52548.57, -52499.20, -30860.76, -52487.17, 14264.79, -52728.32, 126318.82, 0.000, 0.000, 0.000, 17:02:30.673, 1578582150673
159, -14297.07, -10657.42, -9439.45, -9644.71, -130392.05, -150773.53, -55367.21, -160713.55, 0.000, 0.000, 0.000, 17:02:30.673, 1578582150673
160, -52531.92, -52571.66, -52525.41, -30850.70, -52506.04, 14132.16, -52748.26, 126319.52, 0.000, 0.000, 0.000, 17:02:30.673, 1578582150673
161, -14299.62, -10660.04, -9442.09, -9647.42, -130394.41, -150775.97, -55369.94, -160716.25, 0.002, -0.010, 0.982, 17:02:30.673, 1578582150673
162, -52526.87, -52564.37, -52520.45, -30908.57, -52492.45, 14142.78, -52735.18, 126319.00, 0.000, 0.000, 0.000, 17:02:30.674, 1578582150674
163, -14298.19, -10658.74, -9440.75, -9646.16, -130392.79, -150774.33, -55368.58, -160714.67, 0.000, 0.000, 0.000, 17:02:30.674, 1578582150674
164, -52509.16, -52545.91, -52503.04, -30877.93, -52467.32, 14272.33, -52709.75, 126318.64, 0.000, 0.000, 0.000, 17:02:30.674, 1578582150674
165, -14301.16, -10661.71, -9443.83, -9649.18, -130395.60, -150777.16, -55371.50, -160717.70, 0.000, 0.000, 0.000, 17:02:30.674, 1578582150674
166, -52565.73, -52597.99, -52559.84, -30828.53, -52516.61, 14189.09, -52759.52, 126319.05, 0.000, 0.000, 0.000, 17:02:30.674, 1578582150674
167, -14305.00, -10665.69, -9447.75, -9653.05, -130399.18, -150780.75, -55375.48, -160721.47, 0.000, 0.000, 0.000, 17:02:30.674, 1578582150674
168, -52623.38, -52651.14, -52617.01, -30860.83, -52565.64, 14233.68, -52808.48, 126317.82, 0.000, 0.000, 0.000, 17:02:30.674, 1578582150674
169, -14307.37, -10668.15, -9450.21, -9655.57, -130401.32, -150782.84, -55377.92, -160723.70, 0.000, 0.000, 0.000, 17:02:30.674, 1578582150674
170, -52694.26, -52719.34, -52688.29, -30871.47, -52629.71, 14131.08, -52872.60, 126316.81, 0.000, 0.000, 0.000, 17:02:30.674, 1578582150674
171, -14309.09, -10669.92, -9451.93, -9657.41, -130402.80, -150784.23, -55379.62, -160725.17, 0.004, -0.014, 0.982, 17:02:30.674, 1578582150674
172, -52620.16, -52643.72, -52613.77, -30852.80, -52547.14, 14136.76, -52790.73, 126317.30, 0.000, 0.000, 0.000, 17:02:30.675, 1578582150675
173, -14305.67, -10666.48, -9448.64, -9654.08, -130399.16, -150780.66, -55376.11, -160721.58, 0.000, 0.000, 0.000, 17:02:30.675, 1578582150675
174, -52574.95, -52596.76, -52569.69, -30861.03, -52494.03, 14350.20, -52737.62, 126316.99, 0.000, 0.000, 0.000, 17:02:30.675, 1578582150675
175, -14310.12, -10671.13, -9453.33, -9658.59, -130403.49, -150784.86, -55380.82, -160725.94, 0.000, 0.000, 0.000, 17:02:30.675, 1578582150675
176, -52619.25, -52638.67, -52614.53, -30870.78, -52530.33, 14151.31, -52775.68, 126319.49, 0.000, 0.000, 0.000, 17:02:30.675, 1578582150675
177, -14312.16, -10673.23, -9455.41, -9660.60, -130405.15, -150786.61, -55382.77, -160727.72, 0.000, 0.000, 0.000, 17:02:30.675, 1578582150675
178, -52632.88, -52650.67, -52628.54, -30857.52, -52536.12, 14255.41, -52782.32, 126318.48, 0.000, 0.000, 0.000, 17:02:30.675, 1578582150675
179, -14312.42, -10673.61, -9455.79, -9661.07, -130405.21, -150786.55, -55383.11, -160727.81, 0.000, 0.000, 0.000, 17:02:30.675, 1578582150675
180, -52624.59, -52641.33, -52621.50, -30875.92, -52521.37, 14242.75, -52766.97, 126316.05, 0.000, 0.000, 0.000, 17:02:30.675, 1578582150675
181, -14310.61, -10671.84, -9454.12, -9659.37, -130403.11, -150784.39, -55381.30, -160725.64, 0.000, -0.014, 0.984, 17:02:30.675, 1578582150675
182, -52617.93, -52632.68, -52616.38, -30829.92, -52508.22, 14040.92, -52753.31, 126316.27, 0.000, 0.000, 0.000, 17:02:30.675, 1578582150675
183, -14313.05, -10674.41, -9456.58, -9661.92, -130405.28, -150786.58, -55383.69, -160727.97, 0.000, 0.000, 0.000, 17:02:30.675, 1578582150675
184, -52618.84, -52632.21, -52618.20, -30877.88, -52501.09, 14248.72, -52747.19, 126317.26, 0.000, 0.000, 0.000, 17:02:30.675, 1578582150675
185, -14314.12, -10675.51, -9457.67, -9663.08, -130406.04, -150787.34, -55384.78, -160728.80, 0.000, 0.000, 0.000, 17:02:30.675, 1578582150675
186, -52557.24, -52570.90, -52557.93, -30882.53, -52433.39, 14158.60, -52679.04, 126317.19, 0.000, 0.000, 0.000, 17:02:30.675, 1578582150675
187, -14311.08, -10672.64, -9454.85, -9660.25, -130402.76, -150784.08, -55381.86, -160725.69, 0.000, 0.000, 0.000, 17:02:30.675, 1578582150675
188, -52494.41, -52507.02, -52496.29, -30885.64, -52399.57, 14380.51, -52694.55, 126316.77, 0.000, 0.000, 0.000, 17:02:30.676, 1578582150676
189, -14311.73, -10673.32, -9455.66, -9661.00, -130403.20, -150784.55, -55382.41, -160726.09, 0.000, 0.000, 0.000, 17:02:30.676, 1578582150676
190, -52569.71, -52579.17, -52572.17, -30866.10, -52482.88, 13947.78, -52852.55, 126317.59, 0.000, 0.000, 0.000, 17:02:30.676, 1578582150676
191, -14312.20, -10673.92, -9456.24, -9661.63, -130403.34, -150784.69, -55382.91, -160726.30, 0.002, -0.012, 0.984, 17:02:30.676, 1578582150676
192, -52469.02, -52478.56, -52472.86, -30902.47, -52386.39, 14271.77, -52743.68, 126318.27, 0.000, 0.000, 0.000, 17:02:30.676, 1578582150676
193, -14310.35, -10672.09, -9454.38, -9659.87, -130401.10, -150782.45, -55380.91, -160724.17, 0.000, 0.000, 0.000, 17:02:30.676, 1578582150676
194, -52396.40, -52405.99, -52399.84, -30876.70, -52375.05, 14197.38, -52663.88, 126319.16, 0.000, 0.000, 0.000, 17:02:30.676, 1578582150676
195, -14310.46, -10672.33, -9454.63, -9660.02, -130400.97, -150782.34, -55381.05, -160724.08, 0.000, 0.000, 0.000, 17:02:30.676, 1578582150676
196, -52473.85, -52480.40, -52478.72, -30856.40, -52467.72, 14176.79, -52734.89, 126317.48, 0.000, 0.000, 0.000, 17:02:30.676, 1578582150676
197, -14313.72, -10675.75, -9457.89, -9663.40, -130403.94, -150785.31, -55384.25, -160727.05, 0.000, 0.000, 0.000, 17:02:30.676, 1578582150676
198, -52453.78, -52458.49, -52459.63, -30854.35, -52442.04, 14180.10, -52708.16, 126317.59, 0.000, 0.000, 0.000, 17:02:30.676, 1578582150676
199, -14310.21, -10672.24, -9454.41, -9659.95, -130400.01, -150781.38, -55380.58, -160723.16, 0.000, 0.000, 0.000, 17:02:30.677, 1578582150677
200, -52369.64, -52373.53, -52375.63, -30873.10, -52382.12, 14279.48, -52639.16, 126315.78, 0.004, -0.014, 0.984, 17:02:30.677, 1578582150677
201, -14307.40, -10669.60, -9451.70, -9657.34, -130396.95, -150778.30, -55377.72, -160720.19, 0.000, 0.000, 0.000, 17:02:30.677, 1578582150677
202, -52343.63, -52362.11, -52347.65, -30867.42, -52396.51, 14276.26, -52681.45, 126317.08, 0.000, 0.000, 0.000, 17:02:30.677, 1578582150677
203, -14309.76, -10672.15, -9454.14, -9659.84, -130399.02, -150780.44, -55380.11, -160722.50, 0.000, 0.000, 0.000, 17:02:30.677, 1578582150677
204, -52416.70, -52455.92, -52428.00, -30818.67, -52470.50, 14113.94, -52763.01, 126317.46, 0.000, 0.000, 0.000, 17:02:30.677, 1578582150677
205, -14309.45, -10671.97, -9453.98, -9659.64, -130398.35, -150779.81, -55379.82, -160721.83, 0.000, 0.000, 0.000, 17:02:30.677, 1578582150677
206, -52308.58, -52347.07, -52320.18, -30880.07, -52379.16, 14100.55, -52646.13, 126319.27, 0.000, 0.000, 0.000, 17:02:30.677, 1578582150677
207, -14309.34, -10671.91, -9454.05, -9659.55, -130397.97, -150779.44, -55379.69, -160721.52, 0.000, 0.000, 0.000, 17:02:30.677, 1578582150677
208, -52316.69, -52333.05, -52307.91, -30820.33, -52396.80, 14286.16, -52626.75, 126319.09, 0.000, 0.000, 0.000, 17:02:30.677, 1578582150677
209, -14311.69, -10674.32, -9456.35, -9661.88, -130400.01, -150781.39, -55381.99, -160723.59, 0.000, 0.000, 0.000, 17:02:30.677, 1578582150677
210, -52379.93, -52396.87, -52374.81, -30815.92, -52461.73, 14319.22, -52685.88, 126317.39, -0.002, -0.016, 0.978, 17:02:30.677, 1578582150677
211, -14312.98, -10675.91, -9457.74, -9663.35, -130400.95, -150782.36, -55383.11, -160724.50, 0.000, 0.000, 0.000, 17:02:30.678, 1578582150678
212, -52437.62, -52451.36, -52433.91, -30808.53, -52512.32, 14233.19, -52737.42, 126316.09, 0.000, 0.000, 0.000, 17:02:30.678, 1578582150678
213, -14315.62, -10678.52, -9460.51, -9666.06, -130403.31, -150784.66, -55385.61, -160726.94, 0.000, 0.000, 0.000, 17:02:30.678, 1578582150678
214, -52419.53, -52431.69, -52418.10, -30826.77, -52489.92, 14187.59, -52712.63, 126317.75, 0.000, 0.000, 0.000, 17:02:30.678, 1578582150678
215, -14315.31, -10678.23, -9460.22, -9665.59, -130402.58, -150783.91, -55385.12, -160726.22, 0.000, 0.000, 0.000, 17:02:30.678, 1578582150678
216, -52329.12, -52342.11, -52329.70, -30818.38, -52428.72, 14325.97, -52640.01, 126318.06, 0.000, 0.000, 0.000, 17:02:30.678, 1578582150678
217, -14315.46, -10678.55, -9460.51, -9665.90, -130402.33, -150783.67, -55385.25, -160726.16, 0.000, 0.000, 0.000, 17:02:30.678, 1578582150678
218, -52363.03, -52376.35, -52359.38, -30818.12, -52465.96, 14160.97, -52729.37, 126320.32, 0.000, 0.000, 0.000, 17:02:30.678, 1578582150678
219, -14318.01, -10681.23, -9463.06, -9668.60, -130404.63, -150786.05, -55387.93, -160728.55, 0.000, 0.000, 0.000, 17:02:30.678, 1578582150678
220, -52408.36, -52507.04, -52414.32, -30835.41, -52508.65, 14243.54, -52814.84, 126321.37, 0.000, -0.020, 0.982, 17:02:30.679, 1578582150679
221, -14318.28, -10681.63, -9463.44, -9668.83, -130404.48, -150785.89, -55388.02, -160728.53, 0.000, 0.000, 0.000, 17:02:30.679, 1578582150679
222, -52376.48, -52466.36, -52377.60, -30850.86, -52464.41, 14296.49, -52765.05, 126320.79, 0.000, 0.000, 0.000, 17:02:30.679, 1578582150679
223, -14319.33, -10682.75, -9464.58, -9669.90, -130405.15, -150786.66, -55388.85, -160729.36, 0.000, 0.000, 0.000, 17:02:30.679, 1578582150679
224, -52397.85, -52477.89, -52405.88, -30819.75, -52482.61, 14311.80, -52772.64, 126321.80, 0.000, 0.000, 0.000, 17:02:30.679, 1578582150679
225, -14320.96, -10684.40, -9466.25, -9671.53, -130406.31, -150787.80, -55390.28, -160730.56, 0.000, 0.000, 0.000, 17:02:30.679, 1578582150679
226, -52404.64, -52484.24, -52414.28, -30830.97, -52483.19, 14228.32, -52773.54, 126321.15, 0.000, 0.000, 0.000, 17:02:30.679, 1578582150679
227, -14320.99, -10684.42, -9466.21, -9671.53, -130406.06, -150787.36, -55390.19, -160730.27, 0.000, 0.000, 0.000, 17:02:31.149, 1578582151149
228, -52381.27, -52455.70, -52388.17, -30866.93, -52450.38, 14202.50, -52739.32, 126319.36, 0.000, 0.000, 0.000, 17:02:31.150, 1578582151150
229, -14317.63, -10681.12, -9462.92, -9668.27, -130402.29, -150783.67, -55386.73, -160726.61, 0.000, 0.000, 0.000, 17:02:31.150, 1578582151150
230, -52298.97, -52333.70, -52278.00, -30859.94, -52372.01, 14311.82, -52631.29, 126320.50, 0.000, -0.016, 0.982, 17:02:31.150, 1578582151150
231, -14315.17, -10678.72, -9460.55, -9665.83, -130399.55, -150780.92, -55384.22, -160723.91, 0.000, 0.000, 0.000, 17:02:31.150, 1578582151150
232, -52341.52, -52347.49, -52322.01, -30833.63, -52434.24, 14249.37, -52723.14, 126320.50, 0.000, 0.000, 0.000, 17:02:31.150, 1578582151150
233, -14318.33, -10681.90, -9463.77, -9669.05, -130402.33, -150783.72, -55387.13, -160726.81, 0.000, 0.000, 0.000, 17:02:31.150, 1578582151150
234, -52367.63, -52365.84, -52343.25, -30857.32, -52457.62, 14318.97, -52737.98, 126322.09, 0.000, 0.000, 0.000, 17:02:31.150, 1578582151150
235, -14322.24, -10685.94, -9467.62, -9673.03, -130405.95, -150787.44, -55390.95, -160730.47, 0.000, 0.000, 0.000, 17:02:31.150, 1578582151150
236, -52430.82, -52428.83, -52409.63, -30840.56, -52516.43, 14186.25, -52797.59, 126323.80, 0.000, 0.000, 0.000, 17:02:31.150, 1578582151150
237, -14324.52, -10688.45, -9469.92, -9675.40, -130407.85, -150789.48, -55393.16, -160732.59, 0.000, 0.000, 0.000, 17:02:31.150, 1578582151150
238, -52411.96, -52407.86, -52392.18, -30843.60, -52493.25, 14303.06, -52771.57, 126321.55, 0.000, 0.000, 0.000, 17:02:31.150, 1578582151150
239, -14321.86, -10685.79, -9467.42, -9672.81, -130404.97, -150786.45, -55390.37, -160729.69, 0.000, -0.016, 0.978, 17:02:31.150, 1578582151150
240, -52302.63, -52299.93, -52284.15, -30862.55, -52392.49, 14358.72, -52655.66, 126321.93, 0.000, 0.000, 0.000, 17:02:31.150, 1578582151150
241, -14321.01, -10685.07, -9466.59, -9672.00, -130403.85, -150785.25, -55389.52, -160728.70, 0.000, 0.000, 0.000, 17:02:31.151, 1578582151151
242, -52327.51, -52320.76, -52308.80, -30877.64, -52415.75, 14285.60, -52672.00, 126322.45, 0.000, 0.000, 0.000, 17:02:31.151, 1578582151151
243, -14322.33, -10686.39, -9467.84, -9673.34, -130404.79, -150786.34, -55390.77, -160729.84, 0.000, 0.000, 0.000, 17:02:31.151, 1578582151151
244, -52330.62, -52319.62, -52280.21, -30807.90, -52415.15, 14210.08, -52676.64, 126322.24, 0.000, 0.000, 0.000, 17:02:31.151, 1578582151151
245, -14316.20, -10680.20, -9461.60, -9667.26, -130398.27, -150779.91, -55384.43, -160723.39, 0.000, 0.000, 0.000, 17:02:31.151, 1578582151151
246, -52315.26, -52375.14, -52268.30, -30847.37, -52387.75, 14241.55, -52695.93, 126323.36, 0.000, 0.000, 0.000, 17:02:31.151, 1578582151151
247, -14314.53, -10678.63, -9459.97, -9665.52, -130396.30, -150777.91, -55382.68, -160721.63, 0.000, 0.000, 0.000, 17:02:31.151, 1578582151151
248, -52340.18, -52460.32, -52319.55, -30879.96, -52424.74, 14359.14, -52747.32, 126323.47, 0.000, 0.000, 0.000, 17:02:31.151, 1578582151151
249, -14315.73, -10679.80, -9461.18, -9666.68, -130397.30, -150778.89, -55383.84, -160722.63, 0.000, -0.012, 0.978, 17:02:31.151, 1578582151151
250, -52381.07, -52496.18, -52367.72, -30871.67, -52462.36, 14346.71, -52779.06, 126322.73, 0.000, 0.000, 0.000, 17:02:31.151, 1578582151151
251, -14318.04, -10682.21, -9463.62, -9669.14, -130399.47, -150781.11, -55386.17, -160725.05, 0.000, 0.000, 0.000, 17:02:31.151, 1578582151151
252, -52385.20, -52498.70, -52373.85, -30853.56, -52459.95, 14309.43, -52777.70, 126322.94, 0.000, 0.000, 0.000, 17:02:31.151, 1578582151151
253, -14318.55, -10682.79, -9464.09, -9669.72, -130399.60, -150781.38, -55386.53, -160725.47, 0.000, 0.000, 0.000, 17:02:31.151, 1578582151151
254, -52417.23, -52529.37, -52407.06, -30845.23, -52485.20, 14265.40, -52803.27, 126322.55, 0.000, 0.000, 0.000, 17:02:31.151, 1578582151151
255, -14322.62, -10686.86, -9468.27, -9673.88, -130403.38, -150785.17, -55390.57, -160729.41, 0.000, 0.000, 0.000, 17:02:31.152, 1578582151152
0, -52425.39, -52534.62, -52415.55, -30877.88, -52498.39, 14309.03, -52804.32, 126324.34, 0.000, 0.000, 0.000, 17:02:31.152, 1578582151152
1, -14323.09, -10687.31, -9468.76, -9674.44, -130403.67, -150785.42, -55391.04, -160729.73, 0.000, 0.000, 0.000, 17:02:31.152, 1578582151152
2, -52387.08, -52495.39, -52376.53, -30850.12, -52474.09, 14313.43, -52759.14, 126324.61, 0.000, 0.000, 0.000, 17:02:31.152, 1578582151152
3, -14321.59, -10685.97, -9467.37, -9672.92, -130401.86, -150783.66, -55389.63, -160728.13, 0.000, -0.010, 0.968, 17:02:31.152, 1578582151152
4, -52330.77, -52405.45, -52296.80, -30866.62, -52418.10, 14328.81, -52681.85, 126324.97, 0.000, 0.000, 0.000, 17:02:31.152, 1578582151152
5, -14321.70, -10686.06, -9467.51, -9673.05, -130401.68, -150783.48, -55389.63, -160728.17, 0.000, 0.000, 0.000, 17:02:31.152, 1578582151152
6, -52411.57, -52476.73, -52382.54, -30846.79, -52513.12, 14331.18, -52794.77, 126324.86, 0.000, 0.000, 0.000, 17:02:31.152, 1578582151152
7, -14324.00, -10688.27, -9469.72, -9675.20, -130403.65, -150785.47, -55391.82, -160730.25, 0.000, 0.000, 0.000, 17:02:31.152, 1578582151152
8, -52398.90, -52463.72, -52371.70, -30877.86, -52492.76, 14325.95, -52777.21, 126323.31, 0.000, 0.000, 0.000, 17:02:31.152, 1578582151152
9, -14322.71, -10686.97, -9468.33, -9673.99, -130402.09, -150783.91, -55390.48, -160728.89, 0.000, 0.000, 0.000, 17:02:31.152, 1578582151152
10, -52379.14, -52435.43, -52348.95, -30848.42, -52461.73, 14356.79, -52744.55, 126323.31, 0.000, 0.000, 0.000, 17:02:31.152, 1578582151152
11, -14323.94, -10688.31, -9469.58, -9675.29, -130403.07, -150784.75, -55391.78, -160729.91, 0.000, 0.000, 0.000, 17:02:31.152, 1578582151152
12, -52436.81, -52473.36, -52406.43, -30860.76, -52509.07, 14370.36, -52777.36, 126324.50, 0.000, 0.000, 0.000, 17:02:31.152, 1578582151152
13, -14329.95, -10694.28, -9475.60, -9681.26, -130408.74, -150790.50, -55397.70, -160735.86, 0.000, -0.014, 0.978, 17:02:31.152, 1578582151152
14, -52486.16, -52522.98, -52460.23, -30835.19, -52554.63, 14288.69, -52823.92, 126325.98, 0.000, 0.000, 0.000, 17:02:31.153, 1578582151153
15, -14331.29, -10695.69, -9476.85, -9682.60, -130409.91, -150791.56, -55399.07, -160737.17, 0.000, 0.000, 0.000, 17:02:31.153, 1578582151153
16, -52532.79, -52566.43, -52506.73, -30862.53, -52592.58, 14423.45, -52864.45, 126321.86, 0.000, 0.000, 0.000, 17:02:31.153, 1578582151153
17, -14331.38, -10695.67, -9476.96, -9682.73, -130409.70, -150791.56, -55399.02, -160737.22, 0.000, 0.000, 0.000, 17:02:31.153, 1578582151153
18, -52519.69, -52550.36, -52493.99, -30857.54, -52571.77, 14242.26, -52842.47, 126322.22, 0.000, 0.000, 0.000, 17:02:31.153, 1578582151153
19, -14331.27, -10695.51, -9476.76, -9682.53, -130409.26, -150791.13, -55398.86, -160737.02, 0.000, 0.000, 0.000, 17:02:31.153, 1578582151153
20, -52492.06, -52520.68, -52466.52, -30867.67, -52536.19, 14427.63, -52808.48, 126323.72, 0.000, 0.000, 0.000, 17:02:31.153, 1578582151153
21, -14334.26, -10698.51, -9479.69, -9685.44, -130411.92, -150793.78, -55401.77, -160739.95, 0.000, 0.000, 0.000, 17:02:31.153, 1578582151153
22, -52489.11, -52516.81, -52464.35, -30867.33, -52526.26, 14364.21, -52797.86, 126323.09, 0.000, 0.000, 0.000, 17:02:31.153, 1578582151153
23, -14331.02, -10695.38, -9476.58, -9682.42, -130408.66, -150790.55, -55398.66, -160736.80, 0.000, -0.016, 0.980, 17:02:31.153, 1578582151153
24, -52414.66, -52441.53, -52390.12, -30863.38, -52459.43, 14286.90, -52716.12, 126323.30, 0.000, 0.000, 0.000, 17:02:31.153, 1578582151153
25, -14333.01, -10697.34, -9478.50, -9684.32, -130410.45, -150792.28, -55400.63, -160738.72, 0.000, 0.000, 0.000, 17:02:31.153, 1578582151153
26, -52528.90, -52551.86, -52506.17, -30854.28, -52568.44, 14298.61, -52825.39, 126322.58, 0.000, 0.000, 0.000, 17:02:31.153, 1578582151153
27, -14339.78, -10703.96, -9485.16, -9690.96, -130416.92, -150798.78, -55407.25, -160745.50, 0.000, 0.000, 0.000, 17:02:31.153, 1578582151153
28, -52619.09, -52638.49, -52595.98, -30871.27, -52650.54, 14353.04, -52907.72, 126322.60, 0.000, 0.000, 0.000, 17:02:31.154, 1578582151154
29, -14341.57, -10705.70, -9486.93, -9692.74, -130418.49, -150800.48, -55408.96, -160747.38, 0.000, 0.000, 0.000, 17:02:31.154, 1578582151154
30, -52519.47, -52538.94, -52497.29, -30868.63, -52543.36, 14469.49, -52801.84, 126322.42, 0.000, 0.000, 0.000, 17:02:31.154, 1578582151154
31, -14338.17, -10702.17, -9483.44, -9689.19, -130414.71, -150796.78, -55405.43, -160743.77, 0.000, 0.000, 0.000, 17:02:31.154, 1578582151154
32, -52493.32, -52509.68, -52470.38, -30853.65, -52508.70, 14420.85, -52767.82, 126322.24, -0.002, -0.016, 0.972, 17:02:31.154, 1578582151154
33, -14338.60, -10702.62, -9483.87, -9689.59, -130414.89, -150797.00, -55405.79, -160744.33, 0.000, 0.000, 0.000, 17:02:31.154, 1578582151154
34, -52564.11, -52579.21, -52542.69, -30855.67, -52572.66, 14260.28, -52831.77, 126319.02, 0.000, 0.000, 0.000, 17:02:31.154, 1578582151154
35, -14339.63, -10703.65, -9484.81, -9690.67, -130415.79, -150797.83, -55406.84, -160745.42, 0.000, 0.000, 0.000, 17:02:31.154, 1578582151154
36, -52514.33, -52528.03, -52493.85, -30844.42, -52522.82, 14272.53, -52775.06, 126320.74, 0.000, 0.000, 0.000, 17:02:31.154, 1578582151154
37, -14340.66, -10704.47, -9485.70, -9691.54, -130416.52, -150798.63, -55407.74, -160746.36, 0.000, 0.000, 0.000, 17:02:31.154, 1578582151154
38, -52485.98, -52497.25, -52465.78, -30849.61, -52497.16, 14334.62, -52740.55, 126321.95, 0.000, 0.000, 0.000, 17:02:31.154, 1578582151154
39, -14341.66, -10705.55, -9486.53, -9692.48, -130417.33, -150799.39, -55408.68, -160747.38, 0.000, 0.000, 0.000, 17:02:31.154, 1578582151154
40, -52434.82, -52444.88, -52414.05, -30877.62, -52448.93, 14383.59, -52681.03, 126323.23, 0.000, 0.000, 0.000, 17:02:31.155, 1578582151155
41, -14343.65, -10707.40, -9488.49, -9694.42, -130419.09, -150801.17, -55410.73, -160749.41, 0.000, 0.000, 0.000, 17:02:31.155, 1578582151155
42, -52492.46, -52500.34, -52472.89, -30887.65, -52521.95, 14373.87, -52732.90, 126323.56, 0.000, -0.018, 0.972, 17:02:31.155, 1578582151155
43, -14346.74, -10710.40, -9491.36, -9697.35, -130421.84, -150804.02, -55413.48, -160752.36, 0.000, 0.000, 0.000, 17:02:31.155, 1578582151155
44, -52530.96, -52535.67, -52512.02, -30902.34, -52553.17, 14241.26, -52763.79, 126324.39, 0.000, 0.000, 0.000, 17:02:31.155, 1578582151155
45, -14350.27, -10713.93, -9494.91, -9700.92, -130425.20, -150807.53, -55417.01, -160756.05, 0.000, 0.000, 0.000, 17:02:31.155, 1578582151155
46, -52505.39, -52508.56, -52487.41, -30903.41, -52520.65, 14404.18, -52730.71, 126324.91, 0.000, 0.000, 0.000, 17:02:31.155, 1578582151155
47, -14350.36, -10713.86, -9494.93, -9700.88, -130425.02, -150807.34, -55416.99, -160756.06, 0.000, 0.000, 0.000, 17:02:31.155, 1578582151155
48, -52530.64, -52511.11, -52506.08, -30908.35, -52530.64, 14399.22, -52770.86, 126323.80, 0.000, 0.000, 0.000, 17:02:31.155, 1578582151155
49, -14351.81, -10715.29, -9496.38, -9702.36, -130426.38, -150808.58, -55418.38, -160757.63, 0.000, 0.000, 0.000, 17:02:31.155, 1578582151155
50, -52565.29, -52544.03, -52548.46, -30899.05, -52562.58, 14320.47, -52843.21, 126324.50, 0.000, 0.000, 0.000, 17:02:31.155, 1578582151155
51, -14352.28, -10715.72, -9496.70, -9702.74, -130426.65, -150808.88, -55418.71, -160758.03, 0.000, 0.000, 0.000, 17:02:31.155, 1578582151155
52, -52569.96, -52546.94, -52554.65, -30885.30, -52560.77, 14320.83, -52841.40, 126322.73, 0.000, -0.018, 0.976, 17:02:31.155, 1578582151155
53, -14355.59, -10718.87, -9499.78, -9705.73, -130429.60, -150811.86, -55421.82, -160761.19, 0.000, 0.000, 0.000, 17:02:31.155, 1578582151155
54, -52645.53, -52619.09, -52631.38, -30856.43, -52629.35, 14326.01, -52910.60, 126323.02, 0.000, 0.000, 0.000, 17:02:31.155, 1578582151155
55, -14359.92, -10723.18, -9504.05, -9710.00, -130433.63, -150816.00, -55425.98, -160765.50, 0.000, 0.000, 0.000, 17:02:31.156, 1578582151156
56, -52599.53, -52572.71, -52586.37, -30924.55, -52580.67, 14361.00, -52856.66, 126324.19, 0.000, 0.000, 0.000, 17:02:31.156, 1578582151156
57, -14353.55, -10716.63, -9497.57, -9703.61, -130426.88, -150809.36, -55419.41, -160759.02, 0.000, 0.000, 0.000, 17:02:31.156, 1578582151156
58, -52451.92, -52426.64, -52438.80, -30905.22, -52463.88, 14308.42, -52701.70, 126324.01, 0.000, 0.000, 0.000, 17:02:31.156, 1578582151156
59, -14356.01, -10719.20, -9500.00, -9705.91, -130429.22, -150811.64, -55421.71, -160761.41, 0.000, 0.000, 0.000, 17:02:31.156, 1578582151156
60, -52576.29, -52547.83, -52564.91, -30841.41, -52589.45, 14440.68, -52820.16, 126323.20, 0.000, 0.000, 0.000, 17:02:31.156, 1578582151156
61, -14359.99, -10723.05, -9503.78, -9709.66, -130432.69, -150815.06, -55425.35, -160765.00, 0.000, 0.000, 0.000, 17:02:31.156, 1578582151156
62, -52547.63, -52517.37, -52536.68, -30872.12, -52560.62, 14370.76, -52784.22, 126324.01, 0.000, -0.022, 0.978, 17:02:31.156, 1578582151156
63, -14359.14, -10722.06, -9502.80, -9708.70, -130431.52, -150814.02, -55424.23, -160763.95, 0.000, 0.000, 0.000, 17:02:31.156, 1578582151156
64, -52531.38, -52499.15, -52522.15, -30868.52, -52546.47, 14479.35, -52760.82, 126323.95, 0.000, 0.000, 0.000, 17:02:31.156, 1578582151156
65, -14362.20, -10724.90, -9505.73, -9711.52, -130434.09, -150816.61, -55427.07, -160766.77, 0.000, 0.000, 0.000, 17:02:31.156, 1578582151156
66, -52535.54, -52501.83, -52526.66, -30886.51, -52543.36, 14326.98, -52757.94, 126326.20, 0.000, 0.000, 0.000, 17:02:31.156, 1578582151156
67, -14365.33, -10728.12, -9508.83, -9714.58, -130436.87, -150819.38, -55430.02, -160769.56, 0.000, 0.000, 0.000, 17:02:31.156, 1578582151156
68, -52611.89, -52574.14, -52603.55, -30886.40, -52612.47, 14296.02, -52827.00, 126326.06, 0.000, 0.000, 0.000, 17:02:31.156, 1578582151156
69, -14368.82, -10731.50, -9512.14, -9717.91, -130439.81, -150822.38, -55433.13, -160772.69, 0.000, 0.000, 0.000, 17:02:31.157, 1578582151157
70, -52605.81, -52567.12, -52599.42, -30880.68, -52599.62, 14361.29, -52813.71, 126324.91, 0.000, 0.000, 0.000, 17:02:31.157, 1578582151157
71, -14366.67, -10729.28, -9509.82, -9715.59, -130437.18, -150819.83, -55430.67, -160770.22, 0.000, -0.022, 0.978, 17:02:31.157, 1578582151157
72, -52550.60, -52512.05, -52544.23, -30910.49, -52537.41, 14412.67, -52752.04, 126323.65, 0.000, 0.000, 0.000, 17:02:31.157, 1578582151157
73, -14367.03, -10729.60, -9510.11, -9715.95, -130437.06, -150819.67, -55430.80, -160770.28, 0.000, 0.000, 0.000, 17:02:31.157, 1578582151157
74, -52503.04, -52461.26, -52487.46, -30867.82, -52491.06, 14454.83, -52698.86, 126326.13, 0.000, 0.000, 0.000, 17:02:31.157, 1578582151157
75, -14369.11, -10731.63, -9512.05, -9717.82, -130438.59, -150821.19, -55432.55, -160771.94, 0.000, 0.000, 0.000, 17:02:31.157, 1578582151157
76, -52546.34, -52572.80, -52525.23, -30887.18, -52553.93, 14490.19, -52818.71, 126326.27, 0.000, 0.000, 0.000, 17:02:31.157, 1578582151157
77, -14368.53, -10730.94, -9511.29, -9716.84, -130437.40, -150819.98, -55431.48, -160770.69, 0.000, 0.000, 0.000, 17:02:31.157, 1578582151157
78, -52544.23, -52574.23, -52525.03, -30883.56, -52544.61, 14364.46, -52816.12, 126325.57, 0.000, 0.000, 0.000, 17:02:31.157, 1578582151157
79, -14370.70, -10732.99, -9513.26, -9718.83, -130438.92, -150821.72, -55433.31, -160772.42, 0.000, 0.000, 0.000, 17:02:31.157, 1578582151157
80, -52577.11, -52606.13, -52560.15, -30856.54, -52572.24, 14282.23, -52841.94, 126325.17, 0.000, 0.000, 0.000, 17:02:31.158, 1578582151158
81, -14372.04, -10734.29, -9514.58, -9720.10, -130439.79, -150822.56, -55434.36, -160773.41, 0.000, -0.014, 0.980, 17:02:31.158, 1578582151158
82, -52618.04, -52645.15, -52602.71, -30852.09, -52607.36, 14423.92, -52877.54, 126324.55, 0.000, 0.000, 0.000, 17:02:31.158, 1578582151158
83, -14378.23, -10740.44, -9520.61, -9726.25, -130445.47, -150828.22, -55440.35, -160779.13, 0.000, 0.000, 0.000, 17:02:31.158, 1578582151158
84, -52647.52, -52671.68, -52632.57, -30880.48, -52629.48, 14421.37, -52899.07, 126326.13, 0.000, 0.000, 0.000, 17:02:31.158, 1578582151158
85, -14377.89, -10740.01, -9520.10, -9725.67, -130444.58, -150827.22, -55439.59, -160778.27, 0.000, 0.000, 0.000, 17:02:31.158, 1578582151158
86, -52565.24, -52589.23, -52551.81, -30881.24, -52540.68, 14443.05, -52810.22, 126325.64, 0.000, 0.000, 0.000, 17:02:31.158, 1578582151158
87, -14374.94, -10737.08, -9517.17, -9722.61, -130440.95, -150823.73, -55436.17, -160774.70, 0.000, 0.000, 0.000, 17:02:31.158, 1578582151158
88, -52476.89, -52502.57, -52466.23, -30872.16, -52460.30, 14390.23, -52717.10, 126325.87, 0.000, 0.000, 0.000, 17:02:31.158, 1578582151158
89, -14372.73, -10734.85, -9514.82, -9720.21, -130438.12, -150820.98, -55433.60, -160771.98, 0.000, 0.000, 0.000, 17:02:31.159, 1578582151159
90, -52453.46, -52479.17, -52444.54, -30878.96, -52467.05, 14453.24, -52688.36, 126325.57, 0.000, 0.000, 0.000, 17:02:31.159, 1578582151159
91, -14377.31, -10739.36, -9519.25, -9724.57, -130442.16, -150824.92, -55437.80, -160776.00, 0.000, -0.020, 0.974, 17:02:31.629, 1578582151629
92, -52531.89, -52555.54, -52526.04, -30875.02, -52541.19, 14449.13, -52759.86, 126325.38, 0.000, 0.000, 0.000, 17:02:31.629, 1578582151629
93, -14378.76, -10740.82, -9520.52, -9725.87, -130442.95, -150825.75, -55438.85, -160776.88, 0.000, 0.000, 0.000, 17:02:31.629, 1578582151629
94, -52477.58, -52501.39, -52473.20, -30899.74, -52495.62, 14377.78, -52720.79, 126326.13, 0.000, 0.000, 0.000, 17:02:31.630, 1578582151630
95, -14376.15, -10738.18, -9517.80, -9723.12, -130439.70, -150822.53, -55435.86, -160773.64, 0.000, 0.000, 0.000, 17:02:31.630, 1578582151630
96, -52362.91, -52381.91, -52355.50, -30884.81, -52417.63, 14377.02, -52661.56, 126326.27, 0.000, 0.000, 0.000, 17:02:31.630, 1578582151630
97, -14372.10, -10734.09, -9513.55, -9718.99, -130435.14, -150817.92, -55431.36, -160769.00, 0.000, 0.000, 0.000, 17:02:31.630, 1578582151630
98, -52350.18, -52437.35, -52342.33, -30875.11, -52439.61, 14513.52, -52727.70, 126329.30, 0.000, 0.000, 0.000, 17:02:31.630, 1578582151630
99, -14376.87, -10738.92, -9518.20, -9723.66, -130439.30, -150822.09, -55435.83, -160773.20, 0.000, 0.000, 0.000, 17:02:31.630, 1578582151630
100, -52381.49, -52496.98, -52385.43, -30834.19, -52482.92, 14482.97, -52787.31, 126329.24, 0.000, 0.000, 0.000, 17:02:31.630, 1578582151630
101, -14376.37, -10738.38, -9517.75, -9723.01, -130438.23, -150821.09, -55434.98, -160772.22, 0.002, -0.016, 0.976, 17:02:31.630, 1578582151630
102, -52398.21, -52499.06, -52391.84, -30849.81, -52490.52, 14376.82, -52785.23, 126328.66, 0.000, 0.000, 0.000, 17:02:31.630, 1578582151630
103, -14376.89, -10738.72, -9517.95, -9723.30, -130438.05, -150820.88, -55435.07, -160772.09, 0.000, 0.000, 0.000, 17:02:31.630, 1578582151630
104, -52369.49, -52458.27, -52354.78, -30899.50, -52470.79, 14420.43, -52737.75, 126329.55, 0.000, 0.000, 0.000, 17:02:31.630, 1578582151630
105, -14377.25, -10739.16, -9518.31, -9723.63, -130437.91, -150820.73, -55435.12, -160771.98, 0.000, 0.000, 0.000, 17:02:31.631, 1578582151631
106, -52386.36, -52458.25, -52373.62, -30831.17, -52494.12, 14501.23, -52730.94, 126328.45, 0.000, 0.000, 0.000, 17:02:31.631, 1578582151631
107, -14379.84, -10741.85, -9520.84, -9726.23, -130439.97, -150822.80, -55437.42, -160774.06, 0.000, 0.000, 0.000, 17:02:31.631, 1578582151631
108, -52430.64, -52503.62, -52423.38, -30845.18, -52537.84, 14466.63, -52771.59, 126328.66, 0.000, 0.000, 0.000, 17:02:31.631, 1578582151631
109, -14382.43, -10744.39, -9523.32, -9728.69, -130441.96, -150824.77, -55439.70, -160776.16, 0.000, 0.000, 0.000, 17:02:31.631, 1578582151631
110, -52434.44, -52504.83, -52428.94, -30848.40, -52535.11, 14466.92, -52769.34, 126328.86, 0.002, -0.016, 0.978, 17:02:31.631, 1578582151631
111, -14381.29, -10743.19, -9522.13, -9727.41, -130440.20, -150823.00, -55438.25, -160774.55, 0.000, 0.000, 0.000, 17:02:31.631, 1578582151631
112, -52400.67, -52471.07, -52397.45, -30872.77, -52498.57, 14541.98, -52729.84, 126327.02, 0.000, 0.000, 0.000, 17:02:31.631, 1578582151631
113, -14382.34, -10744.24, -9523.03, -9728.44, -130440.69, -150823.48, -55438.96, -160775.02, 0.000, 0.000, 0.000, 17:02:31.631, 1578582151631
114, -52387.30, -52442.91, -52379.59, -30838.37, -52486.72, 14385.85, -52712.25, 126328.70, 0.000, 0.000, 0.000, 17:02:31.631, 1578582151631
115, -14381.78, -10743.61, -9522.38, -9727.72, -130439.50, -150822.25, -55438.09, -160773.98, 0.000, 0.000, 0.000, 17:02:31.631, 1578582151631
116, -52394.16, -52443.70, -52394.12, -30882.60, -52491.48, 14467.41, -52756.06, 126328.32, 0.000, 0.000, 0.000, 17:02:31.631, 1578582151631
117, -14383.06, -10744.84, -9523.45, -9728.89, -130440.10, -150822.84, -55438.88, -160774.53, 0.000, 0.000, 0.000, 17:02:31.631, 1578582151631
118, -52367.27, -52416.27, -52369.20, -30850.21, -52459.30, 14451.79, -52723.29, 126329.15, 0.000, 0.000, 0.000, 17:02:31.631, 1578582151631
119, -14382.83, -10744.62, -9523.12, -9728.55, -130439.28, -150822.13, -55438.32, -160773.92, 0.000, 0.000, 0.000, 17:02:31.631, 1578582151631
120, -52313.00, -52311.95, -52260.66, -30885.10, -52380.75, 14468.51, -52618.04, 126328.81, 0.000, -0.018, 0.982, 17:02:31.632, 1578582151632
121, -14376.66, -10738.49, -9516.88, -9722.36, -130432.69, -150815.39, -55431.90, -160767.33, 0.000, 0.000, 0.000, 17:02:31.632, 1578582151632
122, -52331.55, -52351.70, -52291.77, -30893.98, -52421.19, 14489.56, -52693.86, 126330.47, 0.000, 0.000, 0.000, 17:02:31.632, 1578582151632
123, -14379.82, -10741.60, -9519.88, -9725.40, -130435.05, -150817.98, -55434.61, -160769.83, 0.000, 0.000, 0.000, 17:02:31.632, 1578582151632
124, -52405.32, -52432.99, -52383.37, -30871.74, -52501.59, 14484.40, -52790.26, 126328.52, 0.000, 0.000, 0.000, 17:02:31.632, 1578582151632
125, -14379.12, -10741.00, -9519.21, -9724.73, -130433.89, -150816.72, -55433.69, -160768.72, 0.000, 0.000, 0.000, 17:02:31.632, 1578582151632
126, -52367.90, -52392.49, -52346.69, -30868.09, -52470.20, 14441.69, -52745.27, 126329.57, 0.000, 0.000, 0.000, 17:02:31.632, 1578582151632
127, -14382.99, -10744.75, -9522.92, -9728.42, -130437.22, -150819.94, -55437.31, -160772.09, 0.000, 0.000, 0.000, 17:02:31.632, 1578582151632
128, -52445.95, -52474.54, -52418.64, -30907.43, -52533.46, 14489.14, -52835.21, 126329.87, 0.000, 0.000, 0.000, 17:02:31.632, 1578582151632
129, -14382.74, -10744.51, -9522.58, -9728.10, -130436.38, -150819.17, -55436.73, -160771.31, 0.000, 0.000, 0.000, 17:02:31.632, 1578582151632
130, -52438.78, -52498.77, -52425.07, -30921.31, -52530.91, 14509.81, -52855.73, 126329.64, 0.000, -0.014, 0.974, 17:02:31.632, 1578582151632
131, -14385.56, -10747.23, -9525.26, -9730.94, -130438.49, -150821.36, -55439.19, -160773.64, 0.000, 0.000, 0.000, 17:02:31.632, 1578582151632
132, -52468.82, -52527.74, -52456.64, -30902.04, -52554.71, 14519.56, -52879.44, 126329.91, 0.000, 0.000, 0.000, 17:02:31.632, 1578582151632
133, -14388.47, -10750.07, -9527.97, -9733.65, -130440.75, -150823.64, -55441.78, -160775.95, 0.000, 0.000, 0.000, 17:02:31.632, 1578582151632
134, -52454.16, -52510.88, -52441.75, -30914.38, -52530.78, 14426.13, -52856.87, 126330.87, 0.000, 0.000, 0.000, 17:02:31.632, 1578582151632
135, -14385.98, -10747.39, -9525.26, -9730.97, -130437.60, -150820.48, -55438.80, -160772.84, 0.000, 0.000, 0.000, 17:02:31.632, 1578582151632
136, -52430.84, -52486.34, -52418.73, -30935.82, -52499.91, 14499.04, -52826.31, 126327.25, 0.000, 0.000, 0.000, 17:02:31.633, 1578582151633
137, -14383.50, -10744.97, -9522.69, -9728.24, -130434.47, -150817.20, -55435.97, -160769.75, 0.000, 0.000, 0.000, 17:02:31.633, 1578582151633
138, -52360.59, -52400.54, -52344.18, -30939.19, -52433.82, 14485.03, -52733.42, 126327.25, 0.000, 0.000, 0.000, 17:02:31.633, 1578582151633
139, -14380.60, -10742.09, -9519.63, -9725.29, -130430.94, -150813.72, -55432.77, -160766.19, 0.000, 0.000, 0.000, 17:02:31.633, 1578582151633
140, -52358.09, -52382.70, -52322.50, -30933.52, -52413.54, 14542.56, -52728.77, 126328.99, 0.000, -0.014, 0.980, 17:02:31.633, 1578582151633
141, -14380.93, -10742.45, -9519.85, -9725.53, -130430.74, -150813.52, -55432.82, -160766.14, 0.000, 0.000, 0.000, 17:02:31.633, 1578582151633
142, -52447.83, -52592.49, -52454.22, -30942.97, -52527.13, 14496.16, -52936.86, 126328.34, 0.000, 0.000, 0.000, 17:02:31.633, 1578582151633
143, -14383.12, -10744.46, -9521.93, -9727.57, -130432.21, -150815.06, -55434.58, -160767.73, 0.000, 0.000, 0.000, 17:02:31.633, 1578582151633
144, -52440.05, -52580.22, -52446.62, -30944.67, -52512.45, 14457.71, -52918.98, 126328.77, 0.000, 0.000, 0.000, 17:02:31.633, 1578582151633
145, -14383.10, -10744.48, -9521.91, -9727.52, -130431.66, -150814.56, -55434.43, -160767.17, 0.000, 0.000, 0.000, 17:02:31.633, 1578582151633
146, -52484.38, -52603.27, -52488.64, -30967.27, -52559.52, 14488.49, -52936.75, 126327.90, 0.000, 0.000, 0.000, 17:02:31.633, 1578582151633
147, -14386.36, -10747.68, -9524.95, -9730.59, -130434.25, -150817.19, -55437.20, -160769.81, 0.000, 0.000, 0.000, 17:02:31.633, 1578582151633
148, -52499.39, -52619.07, -52509.27, -30964.54, -52572.84, 14501.41, -52946.81, 126327.32, 0.000, 0.000, 0.000, 17:02:31.633, 1578582151633
149, -14387.62, -10748.84, -9526.09, -9731.59, -130434.90, -150817.86, -55438.07, -160770.53, 0.000, -0.012, 0.980, 17:02:31.633, 1578582151633
150, -52510.91, -52628.10, -52521.61, -30970.98, -52578.45, 14404.56, -52950.79, 126329.15, 0.000, 0.000, 0.000, 17:02:31.633, 1578582151633
151, -14390.81, -10751.99, -9528.97, -9734.59, -130437.40, -150820.33, -55440.84, -160773.13, 0.000, 0.000, 0.000, 17:02:31.634, 1578582151634
152, -52517.72, -52633.80, -52529.19, -30963.27, -52578.59, 14608.52, -52951.62, 126327.95, 0.000, 0.000, 0.000, 17:02:31.634, 1578582151634
153, -14390.70, -10751.88, -9528.77, -9734.41, -130436.69, -150819.59, -55440.39, -160772.36, 0.000, 0.000, 0.000, 17:02:31.634, 1578582151634
154, -52439.16, -52551.83, -52448.41, -30968.83, -52495.53, 14430.89, -52863.73, 126329.09, 0.000, 0.000, 0.000, 17:02:31.634, 1578582151634
155, -14388.04, -10749.24, -9526.11, -9731.75, -130433.38, -150816.33, -55437.44, -160769.39, 0.000, 0.000, 0.000, 17:02:31.635, 1578582151635
156, -52459.16, -52551.79, -52451.38, -30994.22, -52517.79, 14467.84, -52857.67, 126328.32, 0.000, 0.000, 0.000, 17:02:31.635, 1578582151635
157, -14389.94, -10750.96, -9527.74, -9733.49, -130434.59, -150817.52, -55438.80, -160770.58, 0.000, 0.000, 0.000, 17:02:31.635, 1578582151635
158, -52433.14, -52526.84, -52429.03, -30982.09, -52488.15, 14531.36, -52827.95, 126327.25, 0.000, 0.000, 0.000, 17:02:31.635, 1578582151635
159, -14388.55, -10749.56, -9526.25, -9731.86, -130432.52, -150815.50, -55437.02, -160768.50, 0.000, -0.016, 0.974, 17:02:31.635, 1578582151635
160, -52405.29, -52477.47, -52397.43, -30964.50, -52462.67, 14462.76, -52771.86, 126327.23, 0.000, 0.000, 0.000, 17:02:31.635, 1578582151635
161, -14389.11, -10750.23, -9526.67, -9732.42, -130432.46, -150815.47, -55437.22, -160768.61, 0.000, 0.000, 0.000, 17:02:31.635, 1578582151635
162, -52481.36, -52552.59, -52480.33, -30979.29, -52538.58, 14496.33, -52843.55, 126325.71, 0.000, 0.000, 0.000, 17:02:31.635, 1578582151635
163, -14393.12, -10754.07, -9530.60, -9736.26, -130435.99, -150818.95, -55441.02, -160772.09, 0.000, 0.000, 0.000, 17:02:31.635, 1578582151635
164, -52472.73, -52543.36, -52472.42, -30958.97, -52523.25, 14571.03, -52828.82, 126326.78, 0.000, 0.000, 0.000, 17:02:31.635, 1578582151635
165, -14392.15, -10753.18, -9529.46, -9735.32, -130434.41, -150817.36, -55439.68, -160770.53, 0.000, 0.000, 0.000, 17:02:31.635, 1578582151635
166, -52396.29, -52462.40, -52393.27, -30949.95, -52455.39, 14472.73, -52742.14, 126325.73, 0.000, 0.000, 0.000, 17:02:31.635, 1578582151635
167, -14390.41, -10751.32, -9527.52, -9733.38, -130431.95, -150814.84, -55437.53, -160768.22, 0.000, 0.000, 0.000, 17:02:31.635, 1578582151635
168, -52392.49, -52437.88, -52371.75, -30994.65, -52462.11, 14472.67, -52711.36, 126326.00, 0.000, 0.000, 0.000, 17:02:31.635, 1578582151635
169, -14390.01, -10751.03, -9527.14, -9733.00, -130431.09, -150814.08, -55436.97, -160767.36, 0.002, -0.014, 0.976, 17:02:31.636, 1578582151636
170, -52380.53, -52425.97, -52339.74, -30959.15, -52474.54, 14505.32, -52716.61, 126325.75, 0.000, 0.000, 0.000, 17:02:31.636, 1578582151636
171, -14391.13, -10752.13, -9528.03, -9734.05, -130431.41, -150814.55, -55437.75, -160767.84, 0.000, 0.000, 0.000, 17:02:31.636, 1578582151636
172, -52412.74, -52477.94, -52374.02, -30951.80, -52505.50, 14538.76, -52776.94, 126326.20, 0.000, 0.000, 0.000, 17:02:31.636, 1578582151636
173, -14390.61, -10751.50, -9527.43, -9733.45, -130430.31, -150813.42, -55436.91, -160766.89, 0.000, 0.000, 0.000, 17:02:31.636, 1578582151636
174, -52414.26, -52453.30, -52383.23, -30954.71, -52500.40, 14553.69, -52747.54, 126326.13, 0.000, 0.000, 0.000, 17:02:31.636, 1578582151636
175, -14390.30, -10751.23, -9526.89, -9732.96, -130429.51, -150812.59, -55436.30, -160766.08, 0.000, 0.000, 0.000, 17:02:31.636, 1578582151636
176, -52358.96, -52402.39, -52332.81, -30943.40, -52454.29, 14467.46, -52689.34, 126326.29, 0.000, 0.000, 0.000, 17:02:31.636, 1578582151636
177, -14392.18, -10753.04, -9528.68, -9734.72, -130430.72, -150813.83, -55437.87, -160767.39, 0.000, 0.000, 0.000, 17:02:31.636, 1578582151636
178, -52408.07, -52448.88, -52382.32, -30933.99, -52501.65, 14569.60, -52731.41, 126326.89, 0.000, 0.000, 0.000, 17:02:31.636, 1578582151636
179, -14394.30, -10755.08, -9530.65, -9736.84, -130432.17, -150815.33, -55439.70, -160769.03, 0.000, -0.014, 0.976, 17:02:31.637, 1578582151637
180, -52391.84, -52411.11, -52361.46, -30946.75, -52484.46, 14556.66, -52726.87, 126327.25, 0.000, 0.000, 0.000, 17:02:31.637, 1578582151637
181, -14394.19, -10754.92, -9530.38, -9736.60, -130431.55, -150814.56, -55439.23, -160768.31, 0.000, 0.000, 0.000, 17:02:31.637, 1578582151637
182, -52392.13, -52411.11, -52368.46, -30953.70, -52486.21, 14483.55, -52747.84, 126326.91, 0.000, 0.000, 0.000, 17:02:31.637, 1578582151637
183, -14394.43, -10755.17, -9530.40, -9736.67, -130431.14, -150814.30, -55439.21, -160768.11, 0.000, 0.000, 0.000, 17:02:31.637, 1578582151637
184, -52383.48, -52401.67, -52362.20, -30934.77, -52471.61, 14477.67, -52732.21, 126327.00, 0.000, 0.000, 0.000, 17:02:31.637, 1578582151637
185, -14395.86, -10756.55, -9531.79, -9738.10, -130432.04, -150815.16, -55440.44, -160769.09, 0.000, 0.000, 0.000, 17:02:31.637, 1578582151637
186, -52391.35, -52419.31, -52365.33, -30971.78, -52477.29, 14599.91, -52743.30, 126325.26, 0.000, 0.000, 0.000, 17:02:31.637, 1578582151637
187, -14395.26, -10755.99, -9531.10, -9737.49, -130430.83, -150813.98, -55439.43, -160768.02, 0.000, 0.000, 0.000, 17:02:31.637, 1578582151637
188, -52444.01, -52515.60, -52424.94, -30941.09, -52548.68, 14521.75, -52825.30, 126324.75, -0.002, -0.016, 0.980, 17:02:31.637, 1578582151637
189, -14396.87, -10757.49, -9532.62, -9738.97, -130431.84, -150814.97, -55440.73, -160769.09, 0.000, 0.000, 0.000, 17:02:31.637, 1578582151637
190, -52379.52, -52450.89, -52362.09, -30969.71, -52490.66, 14515.00, -52754.25, 126326.22, 0.000, 0.000, 0.000, 17:02:31.637, 1578582151637
191, -14397.54, -10758.23, -9533.29, -9739.55, -130431.99, -150815.16, -55441.15, -160769.23, 0.000, 0.000, 0.000, 17:02:31.638, 1578582151638
192, -52338.24, -52401.07, -52317.07, -30953.46, -52441.66, 14497.81, -52697.43, 126326.78, 0.000, 0.000, 0.000, 17:02:31.638, 1578582151638
193, -14395.22, -10755.86, -9530.85, -9737.20, -130429.06, -150812.31, -55438.58, -160766.48, 0.000, 0.000, 0.000, 17:02:31.638, 1578582151638
194, -52344.81, -52367.66, -52315.30, -30944.04, -52429.57, 14490.43, -52672.84, 126325.17, 0.000, 0.000, 0.000, 17:02:31.638, 1578582151638
195, -14394.61, -10755.23, -9530.09, -9736.64, -130427.95, -150811.03, -55437.69, -160765.41, 0.000, 0.000, 0.000, 17:02:31.638, 1578582151638
196, -52350.18, -52368.13, -52322.08, -30954.68, -52436.70, 14472.98, -52701.21, 126326.73, 0.000, 0.000, 0.000, 17:02:31.638, 1578582151638
197, -14393.29, -10753.92, -9528.59, -9735.12, -130426.02, -150809.16, -55436.06, -160763.59, 0.000, 0.000, 0.000, 17:02:31.638, 1578582151638
198, -52397.20, -52480.51, -52379.68, -30932.33, -52477.78, 14520.12, -52778.30, 126326.04, -0.002, -0.020, 0.980, 17:02:31.638, 1578582151638
199, -14392.53, -10752.98, -9527.61, -9734.14, -130424.50, -150807.73, -55434.98, -160762.17, 0.000, 0.000, 0.000, 17:02:31.638, 1578582151638
200, -52389.09, -52461.89, -52369.35, -30967.54, -52462.63, 14462.88, -52743.90, 126324.92, 0.000, 0.000, 0.000, 17:02:31.638, 1578582151638
201, -14391.68, -10752.19, -9526.72, -9733.33, -130423.20, -150806.33, -55433.89, -160760.92, 0.000, 0.000, 0.000, 17:02:31.638, 1578582151638
202, -52435.63, -52495.26, -52413.36, -30956.85, -52508.96, 14438.49, -52773.16, 126324.86, 0.000, 0.000, 0.000, 17:02:31.638, 1578582151638
203, -14393.14, -10753.63, -9528.21, -9734.68, -130424.15, -150807.27, -55435.10, -160761.83, 0.000, 0.000, 0.000, 17:02:31.638, 1578582151638
204, -52374.49, -52434.53, -52354.49, -30931.24, -52452.08, 14486.14, -52705.95, 126324.34, 0.000, 0.000, 0.000, 17:02:31.638, 1578582151638
205, -14393.00, -10753.47, -9527.90, -9734.45, -130423.38, -150806.64, -55434.65, -160761.27, 0.000, 0.000, 0.000, 17:02:31.639, 1578582151639
206, -52380.24, -52437.59, -52361.35, -30948.52, -52465.71, 14505.01, -52705.25, 126324.84, 0.000, 0.000, 0.000, 17:02:31.639, 1578582151639
207, -14394.81, -10755.28, -9529.53, -9736.17, -130424.62, -150807.81, -55436.10, -160762.56, 0.000, 0.000, 0.000, 17:02:31.639, 1578582151639
208, -52363.90, -52402.79, -52340.03, -30955.71, -52456.77, 14577.65, -52690.73, 126324.79, 0.002, -0.018, 0.976, 17:02:31.639, 1578582151639
209, -14394.48, -10754.81, -9529.04, -9735.73, -130423.72, -150807.03, -55435.61, -160761.88, 0.000, 0.000, 0.000, 17:02:31.639, 1578582151639
210, -52331.87, -52369.02, -52316.18, -30928.15, -52444.88, 14456.06, -52688.89, 126325.44, 0.000, 0.000, 0.000, 17:02:31.639, 1578582151639
211, -14393.18, -10753.49, -9527.61, -9734.41, -130421.95, -150805.22, -55434.00, -160759.97, 0.000, 0.000, 0.000, 17:02:32.111, 1578582152111
212, -52351.94, -52410.75, -52309.85, -30912.53, -52443.34, 14446.36, -52715.54, 126325.51, 0.000, 0.000, 0.000, 17:02:32.111, 1578582152111
213, -14393.00, -10753.33, -9527.34, -9734.21, -130421.22, -150804.52, -55433.55, -160759.38, 0.000, 0.000, 0.000, 17:02:32.111, 1578582152111
214, -52391.37, -52460.37, -52348.54, -30976.52, -52467.95, 14479.10, -52733.84, 126325.38, 0.000, 0.000, 0.000, 17:02:32.111, 1578582152111
215, -14391.97, -10752.24, -9526.13, -9733.02, -130419.59, -150802.83, -55432.26, -160757.72, 0.000, 0.000, 0.000, 17:02:32.112, 1578582152112
216, -52388.71, -52457.71, -52366.45, -31011.70, -52475.81, 14517.73, -52726.40, 126324.75, 0.000, 0.000, 0.000, 17:02:32.112, 1578582152112
217, -14391.53, -10751.93, -9525.67, -9732.53, -130418.70, -150802.03, -55431.61, -160757.03, 0.000, 0.000, 0.000, 17:02:32.112, 1578582152112
218, -52363.83, -52432.12, -52344.05, -30978.06, -52467.97, 14345.64, -52696.45, 126327.02, 0.006, -0.018, 0.974, 17:02:32.112, 1578582152112
219, -14395.66, -10756.13, -9529.78, -9736.73, -130422.42, -150805.72, -55435.63, -160760.84, 0.000, 0.000, 0.000, 17:02:32.112, 1578582152112
220, -52396.76, -52462.87, -52377.29, -30992.39, -52502.75, 14514.73, -52722.55, 126325.23, 0.000, 0.000, 0.000, 17:02:32.112, 1578582152112
221, -14394.03, -10754.30, -9527.86, -9734.90, -130420.08, -150803.38, -55433.53, -160758.50, 0.000, 0.000, 0.000, 17:02:32.112, 1578582152112
222, -52344.70, -52387.19, -52311.24, -31052.72, -52432.14, 14493.05, -52647.74, 126324.27, 0.000, 0.000, 0.000, 17:02:32.112, 1578582152112
223, -14391.48, -10751.86, -9525.40, -9732.44, -130417.06, -150800.36, -55430.94, -160755.58, 0.000, 0.000, 0.000, 17:02:32.112, 1578582152112
224, -52384.20, -52382.21, -52329.23, -31045.12, -52449.33, 14498.91, -52708.07, 126324.59, 0.000, 0.000, 0.000, 17:02:32.112, 1578582152112
225, -14393.43, -10753.76, -9527.21, -9734.30, -130418.42, -150801.88, -55432.50, -160757.08, 0.000, 0.000, 0.000, 17:02:32.112, 1578582152112
226, -52442.29, -52519.36, -52412.00, -31065.01, -52518.95, 14381.65, -52827.72, 126325.93, 0.000, 0.000, 0.000, 17:02:32.112, 1578582152112
227, -14393.27, -10753.63, -9526.98, -9734.21, -130417.89, -150801.27, -55432.19, -160756.56, 0.000, 0.000, 0.000, 17:02:32.112, 1578582152112
228, -52416.02, -52473.29, -52384.11, -31071.14, -52480.71, 14464.86, -52775.26, 126324.97, 0.004, -0.018, 0.978, 17:02:32.113, 1578582152113
229, -14393.38, -10753.67, -9526.85, -9734.12, -130417.40, -150800.75, -55431.96, -160756.06, 0.000, 0.000, 0.000, 17:02:32.113, 1578582152113
230, -52384.86, -52443.98, -52360.37, -31099.99, -52458.34, 14530.51, -52740.82, 126326.09, 0.000, 0.000, 0.000, 17:02:32.113, 1578582152113
231, -14395.13, -10755.41, -9528.48, -9735.73, -130418.55, -150802.03, -55433.46, -160757.36, 0.000, 0.000, 0.000, 17:02:32.113, 1578582152113
232, -52367.50, -52421.34, -52342.66, -31069.91, -52446.13, 14467.61, -52715.40, 126327.38, 0.000, 0.000, 0.000, 17:02:32.113, 1578582152113
233, -14395.71, -10755.99, -9529.00, -9736.35, -130418.67, -150802.14, -55433.91, -160757.56, 0.000, 0.000, 0.000, 17:02:32.113, 1578582152113
234, -52343.61, -52367.74, -52312.73, -31049.81, -52438.40, 14484.62, -52706.95, 126328.97, 0.000, 0.000, 0.000, 17:02:32.113, 1578582152113
235, -14396.49, -10756.82, -9529.67, -9737.13, -130418.83, -150802.36, -55434.29, -160757.83, 0.000, 0.000, 0.000, 17:02:32.113, 1578582152113
236, -52425.68, -52426.55, -52390.32, -31062.29, -52522.11, 14534.69, -52770.68, 126325.39, 0.000, 0.000, 0.000, 17:02:32.113, 1578582152113
237, -14395.33, -10755.64, -9528.41, -9735.82, -130417.17, -150800.70, -55432.86, -160756.22, -0.002, -0.016, 0.982, 17:02:32.113, 1578582152113
238, -52430.29, -52473.27, -52393.61, -31113.09, -52525.05, 14408.29, -52785.97, 126327.45, 0.000, 0.000, 0.000, 17:02:32.113, 1578582152113
239, -14395.60, -10755.77, -9528.57, -9736.06, -130416.86, -150800.23, -55432.77, -160755.89, 0.000, 0.000, 0.000, 17:02:32.114, 1578582152114
240, -52358.40, -52390.25, -52328.94, -31077.19, -52450.54, 14471.19, -52737.98, 126327.02, 0.000, 0.000, 0.000, 17:02:32.114, 1578582152114
241, -14392.82, -10753.02, -9525.64, -9733.25, -130413.51, -150797.09, -55429.73, -160752.58, 0.000, 0.000, 0.000, 17:02:32.114, 1578582152114
242, -52367.01, -52397.36, -52353.26, -31049.30, -52477.80, 14499.82, -52758.18, 126325.13, 0.000, 0.000, 0.000, 17:02:32.114, 1578582152114
243, -14392.58, -10752.80, -9525.33, -9733.02, -130412.81, -150796.38, -55429.24, -160752.00, 0.000, 0.000, 0.000, 17:02:32.114, 1578582152114
244, -52387.61, -52385.13, -52340.86, -31041.99, -52474.81, 14409.92, -52747.77, 126325.44, 0.000, 0.000, 0.000, 17:02:32.114, 1578582152114
245, -14392.44, -10752.71, -9525.06, -9732.84, -130412.21, -150795.75, -55428.84, -160751.30, 0.000, 0.000, 0.000, 17:02:32.114, 1578582152114
246, -52410.79, -52495.98, -52392.82, -31033.05, -52513.28, 14413.61, -52851.84, 126326.40, 0.000, 0.000, 0.000, 17:02:32.114, 1578582152114
247, -14394.41, -10754.74, -9526.92, -9734.72, -130413.66, -150797.20, -55430.60, -160752.80, 0.004, -0.016, 0.980, 17:02:32.114, 1578582152114
248, -52409.16, -52484.33, -52383.55, -31021.98, -52500.02, 14517.59, -52835.10, 126327.48, 0.000, 0.000, 0.000, 17:02:32.114, 1578582152114
249, -14396.40, -10756.71, -9528.86, -9736.64, -130415.16, -150798.70, -55432.32, -160754.41, 0.000, 0.000, 0.000, 17:02:32.114, 1578582152114
250, -52463.77, -52526.20, -52428.27, -31016.93, -52549.75, 14396.36, -52872.45, 126325.71, 0.000, 0.000, 0.000, 17:02:32.114, 1578582152114
251, -14395.39, -10755.68, -9527.77, -9735.70, -130413.62, -150797.11, -55431.16, -160752.88, 0.000, 0.000, 0.000, 17:02:32.114, 1578582152114
252, -52390.39, -52449.68, -52355.43, -31036.20, -52469.36, 14428.56, -52789.30, 126325.33, 0.000, 0.000, 0.000, 17:02:32.115, 1578582152115
253, -14394.14, -10754.41, -9526.51, -9734.32, -130411.85, -150795.33, -55429.66, -160751.11, 0.000, 0.000, 0.000, 17:02:32.115, 1578582152115
254, -52370.16, -52410.97, -52334.82, -31010.74, -52438.44, 14495.64, -52744.50, 126325.73, 0.000, 0.000, 0.000, 17:02:32.115, 1578582152115
255, -14393.94, -10754.21, -9526.18, -9733.98, -130411.12, -150794.66, -55429.06, -160750.44, 0.000, 0.000, 0.000, 17:02:32.115, 1578582152115
0, -52368.50, -52397.14, -52333.08, -31009.85, -52440.16, 14428.39, -52724.81, 126324.10, 0.000, 0.000, 0.000, 17:02:32.115, 1578582152115
1, -14393.81, -10754.03, -9525.89, -9733.83, -130410.49, -150793.89, -55428.73, -160749.83, 0.000, -0.014, 0.980, 17:02:32.115, 1578582152115
2, -52360.32, -52383.82, -52333.12, -31021.25, -52434.13, 14406.50, -52706.84, 126324.97, 0.000, 0.000, 0.000, 17:02:32.115, 1578582152115
3, -14394.84, -10755.14, -9526.76, -9734.74, -130410.94, -150794.34, -55429.44, -160750.23, 0.000, 0.000, 0.000, 17:02:32.115, 1578582152115
4, -52374.92, -52396.33, -52348.57, -31008.06, -52459.52, 14393.56, -52713.23, 126324.30, 0.000, 0.000, 0.000, 17:02:32.115, 1578582152115
5, -14398.17, -10758.59, -9530.05, -9738.14, -130413.87, -150797.41, -55432.75, -160753.30, 0.000, 0.000, 0.000, 17:02:32.115, 1578582152115
6, -52435.00, -52452.90, -52409.61, -31000.39, -52529.01, 14501.63, -52766.03, 126325.04, 0.000, 0.000, 0.000, 17:02:32.115, 1578582152115
7, -14399.91, -10760.31, -9531.83, -9739.79, -130415.20, -150798.75, -55434.22, -160754.72, 0.000, 0.000, 0.000, 17:02:32.115, 1578582152115
8, -52385.56, -52387.57, -52350.31, -30987.23, -52460.82, 14498.75, -52728.16, 126325.15, 0.000, 0.000, 0.000, 17:02:32.115, 1578582152115
9, -14397.90, -10758.32, -9529.69, -9737.76, -130412.55, -150796.16, -55431.95, -160752.17, 0.000, 0.000, 0.000, 17:02:32.115, 1578582152115
10, -52364.77, -52430.82, -52342.08, -30946.32, -52446.24, 14517.68, -52791.46, 126323.70, 0.000, 0.000, 0.000, 17:02:32.116, 1578582152116
11, -14393.32, -10753.69, -9524.99, -9733.07, -130407.47, -150791.05, -55427.07, -160747.03, 0.002, -0.012, 0.982, 17:02:32.116, 1578582152116
12, -52379.93, -52390.50, -52333.32, -30919.55, -52466.34, 14394.10, -52743.57, 126323.90, 0.000, 0.000, 0.000, 17:02:32.116, 1578582152116
13, -14395.15, -10755.59, -9526.83, -9734.85, -130408.72, -150792.34, -55428.68, -160748.39, 0.000, 0.000, 0.000, 17:02:32.116, 1578582152116
14, -52396.20, -52410.32, -52374.89, -30962.78, -52500.94, 14388.58, -52758.95, 126323.78, 0.000, 0.000, 0.000, 17:02:32.116, 1578582152116
15, -14394.41, -10754.88, -9526.02, -9734.07, -130407.52, -150791.17, -55427.86, -160747.28, 0.000, 0.000, 0.000, 17:02:32.116, 1578582152116
16, -52300.11, -52312.18, -52278.34, -30996.50, -52403.62, 14561.07, -52648.97, 126324.27, 0.000, 0.000, 0.000, 17:02:32.116, 1578582152116
17, -14393.47, -10753.98, -9525.06, -9733.04, -130406.13, -150789.75, -55426.65, -160745.94, 0.000, 0.000, 0.000, 17:02:32.116, 1578582152116
18, -52335.13, -52442.87, -52285.29, -30955.47, -52415.11, 14610.89, -52685.23, 126324.43, 0.000, 0.000, 0.000, 17:02:32.116, 1578582152116
19, -14392.11, -10752.73, -9523.59, -9731.66, -130404.25, -150787.86, -55425.08, -160744.05, 0.000, 0.000, 0.000, 17:02:32.116, 1578582152116
20, -52376.91, -52479.91, -52329.59, -30945.50, -52458.25, 14411.71, -52708.72, 126323.05, 0.002, -0.014, 0.984, 17:02:32.116, 1578582152116
21, -14391.08, -10751.57, -9522.40, -9730.59, -130402.69, -150786.41, -55423.74, -160742.52, 0.000, 0.000, 0.000, 17:02:32.116, 1578582152116
22, -52357.95, -52406.37, -52295.91, -30944.78, -52430.11, 14410.62, -52675.84, 126323.34, 0.000, 0.000, 0.000, 17:02:32.116, 1578582152116
23, -14390.97, -10751.48, -9522.20, -9730.32, -130402.11, -150785.89, -55423.41, -160742.05, 0.000, 0.000, 0.000, 17:02:32.116, 1578582152116
24, -52385.83, -52430.98, -52347.14, -30953.41, -52484.06, 14545.35, -52758.81, 126321.88, 0.000, 0.000, 0.000, 17:02:32.117, 1578582152117
25, -14390.32, -10750.79, -9521.51, -9729.76, -130401.08, -150784.77, -55422.67, -160741.02, 0.000, 0.000, 0.000, 17:02:32.117, 1578582152117
26, -52346.18, -52389.65, -52319.38, -30917.56, -52449.37, 14525.01, -52710.39, 126323.43, 0.000, 0.000, 0.000, 17:02:32.117, 1578582152117
27, -14392.94, -10753.36, -9523.92, -9732.26, -130403.20, -150786.88, -55425.04, -160743.22, 0.000, 0.000, 0.000, 17:02:32.117, 1578582152117
28, -52377.38, -52398.77, -52338.04, -30952.65, -52473.89, 14475.10, -52714.75, 126324.52, 0.000, 0.000, 0.000, 17:02:32.117, 1578582152117
29, -14394.50, -10754.94, -9525.51, -9733.78, -130404.34, -150788.02, -55426.38, -160744.31, 0.000, 0.000, 0.000, 17:02:32.117, 1578582152117
30, -52365.08, -52374.61, -52323.64, -30972.88, -52458.36, 14402.19, -52686.46, 126324.79, 0.000, -0.006, 0.980, 17:02:32.117, 1578582152117
31, -14392.89, -10753.36, -9523.83, -9732.13, -130402.22, -150785.94, -55424.70, -160742.20, 0.000, 0.000, 0.000, 17:02:32.117, 1578582152117
32, -52366.38, -52430.20, -52328.85, -30963.76, -52458.34, 14498.06, -52740.70, 126325.10, 0.000, 0.000, 0.000, 17:02:32.117, 1578582152117
33, -14390.19, -10750.65, -9520.97, -9729.40, -130399.07, -150782.81, -55421.75, -160739.17, 0.000, 0.000, 0.000, 17:02:32.117, 1578582152117
34, -52314.77, -52401.52, -52280.39, -30936.24, -52397.92, 14449.75, -52711.58, 126326.40, 0.000, 0.000, 0.000, 17:02:32.117, 1578582152117
35, -14389.94, -10750.56, -9520.73, -9729.18, -130398.35, -150782.20, -55421.30, -160738.66, 0.000, 0.000, 0.000, 17:02:32.117, 1578582152117
36, -52318.35, -52414.48, -52292.98, -30965.17, -52426.11, 14473.96, -52720.59, 126326.22, 0.000, 0.000, 0.000, 17:02:32.117, 1578582152117
37, -14389.65, -10750.25, -9520.37, -9728.80, -130397.57, -150781.39, -55420.77, -160737.80, 0.000, 0.000, 0.000, 17:02:32.117, 1578582152117
38, -52321.66, -52403.55, -52295.95, -30964.16, -52425.81, 14465.13, -52704.81, 126326.47, 0.000, 0.000, 0.000, 17:02:32.117, 1578582152117
39, -14391.97, -10752.51, -9522.51, -9731.03, -130399.42, -150783.19, -55422.94, -160739.64, 0.000, 0.000, 0.000, 17:02:32.118, 1578582152118
40, -52390.50, -52434.98, -52346.27, -30968.14, -52466.61, 14414.77, -52731.32, 126326.34, 0.002, -0.010, 0.978, 17:02:32.118, 1578582152118
41, -14392.24, -10752.91, -9522.92, -9731.48, -130399.31, -150783.09, -55423.07, -160739.56, 0.000, 0.000, 0.000, 17:02:32.118, 1578582152118
42, -52387.84, -52378.23, -52335.42, -30944.18, -52447.54, 14463.97, -52705.81, 126325.66, 0.000, 0.000, 0.000, 17:02:32.118, 1578582152118
43, -14390.57, -10751.17, -9521.13, -9729.74, -130397.16, -150781.00, -55421.19, -160737.52, 0.000, 0.000, 0.000, 17:02:32.118, 1578582152118
44, -52360.93, -52343.56, -52320.36, -30936.24, -52443.23, 14573.07, -52691.89, 126324.97, 0.000, 0.000, 0.000, 17:02:32.118, 1578582152118
45, -14387.06, -10747.61, -9517.48, -9726.23, -130393.08, -150776.95, -55417.44, -160733.42, 0.000, 0.000, 0.000, 17:02:32.118, 1578582152118
46, -52356.03, -52399.71, -52332.27, -30909.56, -52481.22, 14515.80, -52720.14, 126324.32, 0.000, 0.000, 0.000, 17:02:32.118, 1578582152118
47, -14387.44, -10748.15, -9517.84, -9726.70, -130393.12, -150776.86, -55417.68, -160733.47, 0.000, 0.000, 0.000, 17:02:32.118, 1578582152118
48, -52355.96, -52403.04, -52335.25, -30911.97, -52476.48, 14378.32, -52716.50, 126325.48, 0.000, 0.000, 0.000, 17:02:32.118, 1578582152118
49, -14390.39, -10751.14, -9520.77, -9729.67, -130395.71, -150779.41, -55420.52, -160736.19, 0.000, 0.000, 0.000, 17:02:32.118, 1578582152118
50, -52419.44, -52442.78, -52377.71, -30930.03, -52511.98, 14490.84, -52752.60, 126323.72, 0.004, -0.014, 0.972, 17:02:32.118, 1578582152118
51, -14389.05, -10749.80, -9519.32, -9728.37, -130393.97, -150777.69, -55419.02, -160734.41, 0.000, 0.000, 0.000, 17:02:32.118, 1578582152118
52, -52313.70, -52322.21, -52262.18, -30919.05, -52392.35, 14602.04, -52630.87, 126323.49, 0.000, 0.000, 0.000, 17:02:32.118, 1578582152118
53, -14385.69, -10746.45, -9515.94, -9724.93, -130390.17, -150773.91, -55415.47, -160730.66, 0.000, 0.000, 0.000, 17:02:32.119, 1578582152119
54, -52350.02, -52410.35, -52308.04, -30908.48, -52441.37, 14421.68, -52731.25, 126326.47, 0.000, 0.000, 0.000, 17:02:32.119, 1578582152119
55, -14387.46, -10748.33, -9517.69, -9726.70, -130391.53, -150775.41, -55417.17, -160732.16, 0.000, 0.000, 0.000, 17:02:32.119, 1578582152119
56, -52374.76, -52406.95, -52328.32, -30929.09, -52458.31, 14536.43, -52724.21, 126325.93, 0.000, 0.000, 0.000, 17:02:32.119, 1578582152119
57, -14386.70, -10747.61, -9516.90, -9726.00, -130390.39, -150774.27, -55416.25, -160730.98, 0.000, 0.000, 0.000, 17:02:32.119, 1578582152119
58, -52441.80, -52455.18, -52414.14, -30889.24, -52530.24, 14596.52, -52767.68, 126324.03, 0.000, 0.000, 0.000, 17:02:32.119, 1578582152119
59, -14387.48, -10748.55, -9517.64, -9726.81, -130390.82, -150774.69, -55416.97, -160731.52, 0.000, -0.018, 0.970, 17:02:32.119, 1578582152119
60, -52389.58, -52405.03, -52365.13, -30876.97, -52488.20, 14436.92, -52710.17, 126324.01, 0.000, 0.000, 0.000, 17:02:32.120, 1578582152120
61, -14386.30, -10747.21, -9516.39, -9725.65, -130389.12, -150773.08, -55415.63, -160729.95, 0.000, 0.000, 0.000, 17:02:32.120, 1578582152120
62, -52335.51, -52334.80, -52295.95, -30917.94, -52410.39, 14609.17, -52638.04, 126325.26, 0.000, 0.000, 0.000, 17:02:32.120, 1578582152120
63, -14385.76, -10746.74, -9515.74, -9725.11, -130388.23, -150772.09, -55414.87, -160729.06, 0.000, 0.000, 0.000, 17:02:32.120, 1578582152120
64, -52410.41, -52510.32, -52392.20, -30892.46, -52492.31, 14427.83, -52790.04, 126325.95, 0.000, 0.000, 0.000, 17:02:32.120, 1578582152120
65, -14385.22, -10746.25, -9515.18, -9724.53, -130387.29, -150771.16, -55414.35, -160728.27, 0.000, 0.000, 0.000, 17:02:32.120, 1578582152120
66, -52338.24, -52434.80, -52317.79, -30916.93, -52413.50, 14554.00, -52707.85, 126324.86, 0.000, 0.000, 0.000, 17:02:32.120, 1578582152120
67, -14384.24, -10745.33, -9514.20, -9723.63, -130385.92, -150769.80, -55413.21, -160726.92, 0.000, 0.000, 0.000, 17:02:32.120, 1578582152120
68, -52369.09, -52432.14, -52350.04, -30881.21, -52446.78, 14412.83, -52736.73, 126324.66, 0.000, 0.000, 0.000, 17:02:32.121, 1578582152121
69, -14383.53, -10744.64, -9513.46, -9722.99, -130384.72, -150768.69, -55412.36, -160725.78, 0.000, -0.016, 0.974, 17:02:32.121, 1578582152121
70, -52360.66, -52427.13, -52349.62, -30903.90, -52451.52, 14593.12, -52730.33, 126324.97, 0.000, 0.000, 0.000, 17:02:32.121, 1578582152121
71, -14386.25, -10747.48, -9516.23, -9725.78, -130387.06, -150771.09, -55415.00, -160728.22, 0.000, 0.000, 0.000, 17:02:32.121, 1578582152121
72, -52374.85, -52430.51, -52359.94, -30858.17, -52474.41, 14540.79, -52731.74, 126324.32, 0.000, 0.000, 0.000, 17:02:32.121, 1578582152121
73, -14384.89, -10746.12, -9514.82, -9724.35, -130385.23, -150769.39, -55413.57, -160726.53, 0.000, 0.000, 0.000, 17:02:32.121, 1578582152121
74, -52341.64, -52361.02, -52325.23, -30859.60, -52426.39, 14404.87, -52744.19, 126325.57, 0.000, 0.000, 0.000, 17:02:32.121, 1578582152121
75, -14382.90, -10744.13, -9512.77, -9722.36, -130382.99, -150767.05, -55411.49, -160724.23, 0.000, 0.000, 0.000, 17:02:32.121, 1578582152121
76, -52330.50, -52371.72, -52297.71, -30896.90, -52396.36, 14584.27, -52677.54, 126324.75, 0.000, 0.000, 0.000, 17:02:32.593, 1578582152593
