%OpenBCI Raw EEG Data
%Number of channels = 8
%Sample Rate = 250.0 Hz
%First Column = SampleIndex
%Last Column = Timestamp 
%Other Columns = EEG data in microvolts followed by Accel Data (in G) interleaved with Aux Data
0, -93750.01, -93750.01, -93750.01, -93750.01, -93750.01, -93750.01, -93750.01, -72946.52, -0.002, -0.016, 0.488, 16:31:59.267, 1578580319267
1, -35154.66, -13775.18, -112358.70, -71510.29, -30818.85, -25037.33, -96990.16, -77743.27, 0.000, 0.000, 0.000, 16:31:59.267, 1578580319267
2, -187500.02, -187500.02, -187500.02, -187500.02, -187500.02, -187500.02, -187500.02, -145819.31, 0.000, 0.000, 0.000, 16:31:59.267, 1578580319267
3, -35313.90, -13883.63, -112739.89, -71789.11, -30971.83, -25180.40, -97327.72, -78040.22, 0.000, 0.000, 0.000, 16:31:59.267, 1578580319267
4, -187500.02, -187500.02, -187500.02, -187500.02, -187500.02, -187500.02, -187500.02, -145719.41, 0.000, 0.000, 0.000, 16:31:59.267, 1578580319267
5, -35475.61, -13995.12, -113123.63, -72071.32, -31131.33, -25326.43, -97669.07, -78341.16, 0.000, 0.000, 0.000, 16:31:59.267, 1578580319267
6, -187500.02, -187500.02, -187500.02, -187500.02, -187500.02, -187500.02, -187500.02, -145622.69, 0.000, -0.018, 0.730, 16:31:59.268, 1578580319268
7, -35637.64, -14104.17, -113505.10, -72355.99, -31287.59, -25468.25, -98008.57, -78640.05, 0.000, 0.000, 0.000, 16:31:59.268, 1578580319268
8, -187500.02, -187500.02, -187500.02, -187500.02, -187500.02, -187500.02, -187500.02, -145524.42, 0.000, 0.000, 0.000, 16:31:59.268, 1578580319268
9, -35796.88, -14210.68, -113881.48, -72637.98, -31442.13, -25607.59, -98342.13, -78937.98, 0.000, 0.000, 0.000, 16:31:59.268, 1578580319268
10, -187500.02, -187500.02, -187500.02, -187500.02, -187500.02, -187500.02, -187500.02, -145425.98, 0.000, 0.000, 0.000, 16:31:59.268, 1578580319268
11, -35957.07, -14319.29, -114261.58, -72920.02, -31599.67, -25747.94, -98678.37, -79236.53, 0.000, 0.000, 0.000, 16:31:59.268, 1578580319268
12, -187500.02, -187500.02, -187500.02, -187500.02, -187500.02, -187500.02, -187500.02, -145328.20, 0.000, 0.000, 0.000, 16:31:59.268, 1578580319268
13, -36119.14, -14429.88, -114642.49, -73205.45, -31757.00, -25891.28, -99018.31, -79537.18, 0.000, 0.000, 0.000, 16:31:59.268, 1578580319268
14, -187500.02, -187500.02, -187500.02, -187500.02, -187500.02, -187500.02, -187500.02, -145229.41, 0.000, 0.000, 0.000, 16:31:59.268, 1578580319268
15, -36280.34, -14540.08, -115019.77, -73487.33, -31912.10, -26033.75, -99354.33, -79832.83, 0.000, 0.000, 0.000, 16:31:59.268, 1578580319268
16, -187500.02, -187500.02, -187500.02, -187500.02, -187500.02, -187500.02, -187500.02, -145132.63, 0.000, -0.020, 0.852, 16:31:59.268, 1578580319268
17, -36438.37, -14648.66, -115394.41, -73767.44, -32065.03, -26171.97, -99689.34, -80128.97, 0.000, 0.000, 0.000, 16:31:59.268, 1578580319268
18, -187500.02, -187500.02, -187500.02, -187500.02, -187500.02, -187500.02, -187500.02, -145034.36, 0.000, 0.000, 0.000, 16:31:59.268, 1578580319268
19, -36598.03, -14761.65, -115773.56, -74052.02, -32220.02, -26313.21, -100026.20, -80424.41, 0.000, 0.000, 0.000, 16:31:59.268, 1578580319268
20, -187500.02, -187500.02, -187500.02, -187500.02, -187500.02, -187500.02, -187500.02, -144937.02, 0.000, 0.000, 0.000, 16:31:59.269, 1578580319269
21, -36760.91, -14875.35, -116154.10, -74336.83, -32377.46, -26457.47, -100366.98, -80725.85, 0.000, 0.000, 0.000, 16:31:59.269, 1578580319269
22, -187500.02, -187500.02, -187500.02, -187500.02, -187500.02, -187500.02, -187500.02, -144838.70, 0.000, 0.000, 0.000, 16:31:59.269, 1578580319269
23, -36923.92, -14985.59, -116532.73, -74617.54, -32532.65, -26600.97, -100705.24, -81025.54, 0.000, 0.000, 0.000, 16:31:59.269, 1578580319269
24, -187500.02, -187500.02, -187500.02, -187500.02, -187500.02, -187500.02, -187500.02, -144740.59, 0.000, 0.000, 0.000, 16:31:59.269, 1578580319269
25, -37083.09, -15094.38, -116911.29, -74897.50, -32686.25, -26742.86, -101039.67, -81325.57, 0.000, 0.000, 0.000, 16:31:59.269, 1578580319269
26, -187500.02, -187500.02, -187500.02, -187500.02, -187500.02, -187500.02, -187500.02, -144643.75, 0.002, -0.026, 0.918, 16:31:59.269, 1578580319269
27, -37242.63, -15204.89, -117290.55, -75178.66, -32841.33, -26887.52, -101374.91, -81627.49, 0.000, 0.000, 0.000, 16:31:59.269, 1578580319269
28, -187500.02, -187500.02, -187500.02, -187500.02, -187500.02, -187500.02, -187500.02, -144548.91, 0.000, 0.000, 0.000, 16:31:59.269, 1578580319269
29, -37403.54, -15316.64, -117671.70, -75461.52, -32997.28, -27031.86, -101712.50, -81929.35, 0.000, 0.000, 0.000, 16:31:59.270, 1578580319270
30, -187500.02, -187500.02, -187500.02, -187500.02, -187500.02, -187500.02, -187500.02, -144452.95, 0.000, 0.000, 0.000, 16:31:59.270, 1578580319270
31, -37564.79, -15428.18, -118049.93, -75741.81, -33151.57, -27171.96, -102049.27, -82226.34, 0.000, 0.000, 0.000, 16:31:59.270, 1578580319270
32, -187500.02, -187500.02, -187500.02, -187500.02, -187500.02, -187500.02, -187500.02, -144358.00, 0.000, 0.000, 0.000, 16:31:59.270, 1578580319270
33, -37721.43, -15536.83, -118428.66, -76020.72, -33304.01, -27309.09, -102383.03, -82521.43, 0.000, 0.000, 0.000, 16:31:59.270, 1578580319270
34, -187500.02, -187500.02, -187500.02, -187500.02, -187500.02, -187500.02, -187500.02, -144263.30, 0.000, 0.000, 0.000, 16:31:59.270, 1578580319270
35, -37880.98, -15646.24, -118806.34, -76301.39, -33457.61, -27452.75, -102720.08, -82817.57, 0.000, 0.000, 0.000, 16:31:59.270, 1578580319270
36, -187500.02, -187500.02, -187500.02, -187500.02, -187500.02, -187500.02, -187500.02, -144168.20, 0.000, -0.024, 0.948, 16:31:59.270, 1578580319270
37, -38041.93, -15758.05, -119184.48, -76582.13, -33612.48, -27594.39, -103059.15, -83116.10, 0.000, 0.000, 0.000, 16:31:59.271, 1578580319271
38, -187500.02, -187500.02, -187500.02, -187500.02, -187500.02, -187500.02, -187500.02, -144074.06, 0.000, 0.000, 0.000, 16:31:59.272, 1578580319272
39, -38202.80, -15870.12, -119563.79, -76863.96, -33766.36, -27735.90, -103393.55, -83414.54, 0.000, 0.000, 0.000, 16:31:59.273, 1578580319273
40, -187500.02, -187500.02, -187500.02, -187500.02, -187500.02, -187500.02, -187500.02, -143978.75, 0.000, 0.000, 0.000, 16:31:59.273, 1578580319273
41, -38362.63, -15980.76, -119939.81, -77141.39, -33919.62, -27875.17, -103725.10, -83710.12, 0.000, 0.000, 0.000, 16:31:59.273, 1578580319273
42, -187500.02, -187500.02, -187500.02, -187500.02, -187500.02, -187500.02, -187500.02, -143885.28, 0.000, 0.000, 0.000, 16:31:59.273, 1578580319273
43, -38522.98, -16090.55, -120318.70, -77421.14, -34075.01, -28017.06, -104059.95, -84009.66, 0.000, 0.000, 0.000, 16:31:59.274, 1578580319274
44, -187500.02, -187500.02, -187500.02, -187500.02, -187500.02, -187500.02, -187500.02, -143789.64, 0.000, 0.000, 0.000, 16:31:59.274, 1578580319274
45, -38687.79, -16203.29, -120698.05, -77704.30, -34230.09, -28161.10, -104399.12, -84311.60, 0.000, 0.000, 0.000, 16:31:59.274, 1578580319274
46, -187500.02, -187500.02, -187500.02, -187500.02, -187500.02, -187500.02, -187500.02, -143694.44, 0.002, -0.020, 0.954, 16:31:59.274, 1578580319274
47, -38848.11, -16313.38, -121074.99, -77984.85, -34384.34, -28300.68, -104733.84, -84609.02, 0.000, 0.000, 0.000, 16:31:59.274, 1578580319274
48, -187500.02, -187500.02, -187500.02, -187500.02, -187500.02, -187500.02, -187500.02, -143601.28, 0.000, 0.000, 0.000, 16:31:59.274, 1578580319274
49, -39005.38, -16423.59, -121449.97, -78263.65, -34538.14, -28441.03, -105065.71, -84903.68, 0.000, 0.000, 0.000, 16:31:59.274, 1578580319274
50, -187500.02, -187500.02, -187500.02, -187500.02, -187500.02, -187500.02, -187500.02, -143506.02, 0.000, 0.000, 0.000, 16:31:59.274, 1578580319274
51, -39164.59, -16535.17, -121826.44, -78544.72, -34693.88, -28584.01, -105400.79, -85200.63, 0.000, 0.000, 0.000, 16:31:59.274, 1578580319274
52, -187500.02, -187500.02, -187500.02, -187500.02, -187500.02, -187500.02, -187500.02, -143412.23, 0.000, 0.000, 0.000, 16:31:59.275, 1578580319275
53, -39327.74, -16649.95, -122206.10, -78826.06, -34850.79, -28728.34, -105736.82, -85498.33, 0.000, 0.000, 0.000, 16:31:59.275, 1578580319275
54, -187500.02, -187500.02, -187500.02, -187500.02, -187500.02, -187500.02, -187500.02, -143319.06, 0.000, 0.000, 0.000, 16:31:59.275, 1578580319275
55, -39488.80, -16760.39, -122583.35, -79105.93, -35006.70, -28869.85, -106071.72, -85793.55, 0.002, -0.024, 0.968, 16:31:59.275, 1578580319275
56, -187500.02, -187500.02, -187500.02, -187500.02, -187500.02, -187500.02, -187500.02, -143224.34, 0.000, 0.000, 0.000, 16:31:59.275, 1578580319275
57, -39647.05, -16869.13, -122960.72, -79383.13, -35161.37, -29010.28, -106406.08, -86089.62, 0.000, 0.000, 0.000, 16:31:59.275, 1578580319275
58, -187500.02, -187500.02, -187500.02, -187500.02, -187500.02, -187500.02, -187500.02, -143130.94, 0.000, 0.000, 0.000, 16:31:59.275, 1578580319275
59, -39809.08, -16979.57, -123337.88, -79662.73, -35316.05, -29151.35, -106741.87, -86388.26, 0.000, 0.000, 0.000, 16:31:59.275, 1578580319275
60, -187500.02, -187500.02, -187500.02, -187500.02, -187500.02, -187500.02, -187500.02, -143038.13, 0.000, 0.000, 0.000, 16:31:59.275, 1578580319275
61, -39972.23, -17090.84, -123716.32, -79944.97, -35474.34, -29296.59, -107076.19, -86687.05, 0.000, 0.000, 0.000, 16:31:59.276, 1578580319276
62, -187500.02, -187500.02, -187500.02, -187500.02, -187500.02, -187500.02, -187500.02, -142947.45, 0.000, 0.000, 0.000, 16:31:59.276, 1578580319276
63, -40132.31, -17201.14, -124093.55, -80225.39, -35628.48, -29438.59, -107409.96, -86983.69, 0.000, 0.000, 0.000, 16:31:59.276, 1578580319276
64, -187500.02, -187500.02, -187500.02, -187500.02, -187500.02, -187500.02, -187500.02, -142855.20, 0.000, 0.000, 0.000, 16:31:59.276, 1578580319276
65, -40290.96, -17309.84, -124468.66, -80504.86, -35777.45, -29578.51, -107741.84, -87278.53, 0.006, -0.020, 0.978, 16:31:59.276, 1578580319276
66, -187500.02, -187500.02, -187500.02, -187500.02, -187500.02, -187500.02, -187500.02, -142764.78, 0.000, 0.000, 0.000, 16:31:59.276, 1578580319276
67, -40451.83, -17418.18, -124842.00, -80782.38, -35929.11, -29719.13, -108075.46, -87572.43, 0.000, 0.000, 0.000, 16:31:59.276, 1578580319276
68, -187500.02, -187500.02, -187500.02, -187500.02, -187500.02, -187500.02, -187500.02, -142673.38, 0.000, 0.000, 0.000, 16:31:59.276, 1578580319276
69, -40616.63, -17526.49, -125218.13, -81061.05, -36083.22, -29862.06, -108409.53, -87870.36, 0.000, 0.000, 0.000, 16:31:59.276, 1578580319276
70, -187500.02, -187500.02, -187500.02, -187500.02, -187500.02, -187500.02, -187500.02, -142580.03, 0.000, 0.000, 0.000, 16:31:59.277, 1578580319277
71, -40776.24, -17638.12, -125593.64, -81339.45, -36234.03, -30004.13, -108741.37, -88165.54, 0.000, 0.000, 0.000, 16:31:59.277, 1578580319277
72, -187500.02, -187500.02, -187500.02, -187500.02, -187500.02, -187500.02, -187500.02, -142489.19, 0.000, 0.000, 0.000, 16:31:59.277, 1578580319277
73, -40935.68, -17746.77, -125970.20, -81616.30, -36386.23, -30147.23, -109070.34, -88459.13, 0.000, 0.000, 0.000, 16:31:59.277, 1578580319277
74, -187500.02, -187500.02, -187500.02, -187500.02, -187500.02, -187500.02, -187500.02, -142397.11, 0.000, 0.000, 0.000, 16:31:59.277, 1578580319277
75, -41098.20, -17854.19, -126347.37, -81898.45, -36540.00, -30288.24, -109400.99, -88754.23, 0.002, -0.016, 0.976, 16:31:59.277, 1578580319277
76, -187500.02, -187500.02, -187500.02, -187500.02, -187500.02, -187500.02, -187500.02, -142308.14, 0.000, 0.000, 0.000, 16:31:59.277, 1578580319277
77, -41260.89, -17963.54, -126722.88, -82180.79, -36695.95, -30432.61, -109734.70, -89051.34, 0.000, 0.000, 0.000, 16:31:59.278, 1578580319278
78, -187500.02, -187500.02, -187500.02, -187500.02, -187500.02, -187500.02, -187500.02, -142216.61, 0.000, 0.000, 0.000, 16:31:59.278, 1578580319278
79, -41424.17, -18074.80, -127097.55, -82461.13, -36851.10, -30573.90, -110066.47, -89348.93, 0.000, 0.000, 0.000, 16:31:59.278, 1578580319278
80, -187500.02, -187500.02, -187500.02, -187500.02, -187500.02, -187500.02, -187500.02, -142127.19, 0.000, 0.000, 0.000, 16:31:59.278, 1578580319278
81, -41580.90, -18182.94, -127468.84, -82740.70, -37002.33, -30715.45, -110395.93, -89642.65, 0.000, 0.000, 0.000, 16:31:59.278, 1578580319278
82, -187500.02, -187500.02, -187500.02, -187500.02, -187500.02, -187500.02, -187500.02, -142036.09, 0.000, 0.000, 0.000, 16:31:59.278, 1578580319278
83, -41740.27, -18295.28, -127841.40, -83020.26, -37152.55, -30855.87, -110727.48, -89935.80, 0.000, 0.000, 0.000, 16:31:59.278, 1578580319278
84, -187500.02, -187500.02, -187500.02, -187500.02, -187500.02, -187500.02, -187500.02, -141946.38, 0.000, 0.000, 0.000, 16:31:59.278, 1578580319278
85, -41906.50, -18407.67, -128217.18, -83297.80, -37307.74, -30999.54, -111059.76, -90230.52, -0.002, -0.014, 0.976, 16:31:59.278, 1578580319278
86, -187500.02, -187500.02, -187500.02, -187500.02, -187500.02, -187500.02, -187500.02, -141857.98, 0.000, 0.000, 0.000, 16:31:59.278, 1578580319278
87, -42069.36, -18517.93, -128593.05, -83578.27, -37462.46, -31141.81, -111393.20, -90526.64, 0.000, 0.000, 0.000, 16:31:59.278, 1578580319278
88, -187500.02, -187500.02, -187500.02, -187500.02, -187500.02, -187500.02, -187500.02, -141765.94, 0.000, 0.000, 0.000, 16:31:59.278, 1578580319278
89, -42228.25, -18627.99, -128965.41, -83859.14, -37615.50, -31282.56, -111726.17, -90824.30, 0.000, 0.000, 0.000, 16:31:59.279, 1578580319279
90, -187500.02, -187500.02, -187500.02, -187500.02, -187500.02, -187500.02, -187500.02, -141676.34, 0.000, 0.000, 0.000, 16:31:59.279, 1578580319279
91, -42390.60, -18740.42, -129338.27, -84138.67, -37771.03, -31425.95, -112056.71, -91119.59, 0.000, 0.000, 0.000, 16:31:59.279, 1578580319279
92, -187500.02, -187500.02, -187500.02, -187500.02, -187500.02, -187500.02, -187500.02, -141589.33, 0.000, 0.000, 0.000, 16:31:59.279, 1578580319279
93, -42555.73, -18853.12, -129713.92, -84421.75, -37927.33, -31569.65, -112389.02, -91416.24, 0.000, 0.000, 0.000, 16:31:59.279, 1578580319279
94, -187500.02, -187500.02, -187500.02, -187500.02, -187500.02, -187500.02, -187500.02, -141501.63, -0.002, -0.010, 0.974, 16:31:59.279, 1578580319279
95, -42716.02, -18963.40, -130087.57, -84697.91, -38080.66, -31712.45, -112717.32, -91712.55, 0.000, 0.000, 0.000, 16:31:59.279, 1578580319279
96, -187500.02, -187500.02, -187500.02, -187500.02, -187500.02, -187500.02, -187500.02, -141414.36, 0.000, 0.000, 0.000, 16:31:59.279, 1578580319279
97, -42874.76, -19071.76, -130459.91, -84973.41, -38230.63, -31852.26, -113044.91, -92004.38, 0.000, 0.000, 0.000, 16:31:59.279, 1578580319279
98, -187500.02, -187500.02, -187500.02, -187500.02, -187500.02, -187500.02, -187500.02, -141326.34, 0.000, 0.000, 0.000, 16:31:59.279, 1578580319279
99, -43035.62, -19181.13, -130835.87, -85251.59, -38383.04, -31996.45, -113375.53, -92298.77, 0.000, 0.000, 0.000, 16:31:59.279, 1578580319279
100, -187500.02, -187500.02, -187500.02, -187500.02, -187500.02, -187500.02, -187500.02, -141237.41, 0.000, 0.000, 0.000, 16:31:59.280, 1578580319280
101, -43198.57, -19292.26, -131211.94, -85533.09, -38535.88, -32141.79, -113710.23, -92597.22, 0.000, 0.000, 0.000, 16:31:59.280, 1578580319280
102, -187500.02, -187500.02, -187500.02, -187500.02, -187500.02, -187500.02, -187500.02, -141151.11, 0.000, 0.000, 0.000, 16:31:59.280, 1578580319280
103, -43359.25, -19402.05, -131585.08, -85813.35, -38687.18, -32283.92, -114040.74, -92890.36, 0.000, 0.000, 0.000, 16:31:59.280, 1578580319280
104, -187500.02, -187500.02, -187500.02, -187500.02, -187500.02, -187500.02, -187500.02, -141064.05, -0.002, -0.010, 0.976, 16:31:59.280, 1578580319280
105, -43516.54, -19512.63, -131957.47, -86093.48, -38838.10, -32424.62, -114371.46, -93183.75, 0.000, 0.000, 0.000, 16:31:59.280, 1578580319280
106, -187500.02, -187500.02, -187500.02, -187500.02, -187500.02, -187500.02, -187500.02, -140975.23, 0.000, 0.000, 0.000, 16:31:59.280, 1578580319280
107, -43676.36, -19625.14, -132333.95, -86373.71, -38990.83, -32569.17, -114704.41, -93477.90, 0.000, 0.000, 0.000, 16:31:59.280, 1578580319280
108, -187500.02, -187500.02, -187500.02, -187500.02, -187500.02, -187500.02, -187500.02, -140889.64, 0.000, 0.000, 0.000, 16:31:59.280, 1578580319280
109, -43838.96, -19735.20, -132709.66, -86652.34, -39145.35, -32712.76, -115037.80, -93775.53, 0.000, 0.000, 0.000, 16:31:59.280, 1578580319280
110, -187500.02, -187500.02, -187500.02, -187500.02, -187500.02, -187500.02, -187500.02, -140804.31, 0.000, 0.000, 0.000, 16:31:59.280, 1578580319280
111, -44001.75, -19846.85, -133084.19, -86930.31, -39300.02, -32853.91, -115369.80, -94069.26, 0.000, 0.000, 0.000, 16:31:59.280, 1578580319280
112, -187500.02, -187500.02, -187500.02, -187500.02, -187500.02, -187500.02, -187500.02, -140716.09, 0.000, 0.000, 0.000, 16:31:59.281, 1578580319281
113, -44161.77, -19954.43, -133454.73, -87203.65, -39453.06, -32992.78, -115698.99, -94362.13, 0.000, 0.000, 0.000, 16:31:59.281, 1578580319281
114, -187500.02, -187500.02, -187500.02, -187500.02, -187500.02, -187500.02, -187500.02, -140630.75, 0.000, -0.010, 0.980, 16:31:59.281, 1578580319281
115, -44323.62, -20064.36, -133828.63, -87481.73, -39606.89, -33133.93, -116027.90, -94656.80, 0.000, 0.000, 0.000, 16:31:59.281, 1578580319281
116, -187500.02, -187500.02, -187500.02, -187500.02, -187500.02, -187500.02, -187500.02, -140544.66, 0.000, 0.000, 0.000, 16:31:59.281, 1578580319281
117, -44490.39, -20177.14, -134205.75, -87759.52, -39761.96, -33277.97, -116359.47, -94953.91, 0.000, 0.000, 0.000, 16:31:59.281, 1578580319281
118, -187500.02, -187500.02, -187500.02, -187500.02, -187500.02, -187500.02, -187500.02, -140458.78, 0.000, 0.000, 0.000, 16:31:59.282, 1578580319282
119, -44652.44, -20287.43, -134578.38, -88034.66, -39912.12, -33418.94, -116688.30, -95246.63, 0.000, 0.000, 0.000, 16:31:59.282, 1578580319282
120, -187500.02, -187500.02, -187500.02, -187500.02, -187500.02, -187500.02, -187500.02, -140373.59, 0.000, 0.000, 0.000, 16:31:59.752, 1578580319752
121, -44810.93, -20397.55, -134950.94, -88311.65, -40064.02, -33556.25, -117018.09, -95538.39, 0.000, 0.000, 0.000, 16:31:59.752, 1578580319752
122, -187500.02, -187500.02, -187500.02, -187500.02, -187500.02, -187500.02, -187500.02, -140288.02, 0.000, 0.000, 0.000, 16:31:59.753, 1578580319753
123, -44974.35, -20507.37, -135326.80, -88589.21, -40217.38, -33695.81, -117348.95, -95834.20, 0.000, 0.000, 0.000, 16:31:59.753, 1578580319753
124, -187500.02, -187500.02, -187500.02, -187500.02, -187500.02, -187500.02, -187500.02, -140201.78, -0.008, -0.018, 0.976, 16:31:59.753, 1578580319753
125, -45135.19, -20619.37, -135704.28, -88871.77, -40370.60, -33840.11, -117679.13, -96132.99, 0.000, 0.000, 0.000, 16:31:59.753, 1578580319753
126, -187500.02, -187500.02, -187500.02, -187500.02, -187500.02, -187500.02, -187500.02, -140116.73, 0.000, 0.000, 0.000, 16:31:59.753, 1578580319753
127, -45295.70, -20728.52, -136079.50, -89151.16, -40520.16, -33982.94, -118006.16, -96429.73, 0.000, 0.000, 0.000, 16:31:59.753, 1578580319753
128, -187500.02, -187500.02, -187500.02, -187500.02, -187500.02, -187500.02, -187500.02, -140032.36, 0.000, 0.000, 0.000, 16:31:59.753, 1578580319753
129, -45455.04, -20836.18, -136452.30, -89428.81, -40669.98, -34120.85, -118328.01, -96722.81, 0.000, 0.000, 0.000, 16:31:59.753, 1578580319753
130, -187500.02, -187500.02, -187500.02, -187500.02, -187500.02, -187500.02, -187500.02, -139947.58, 0.000, 0.000, 0.000, 16:31:59.753, 1578580319753
131, -45616.67, -20947.74, -136827.55, -89707.59, -40822.35, -34263.39, -118656.69, -97017.30, 0.000, 0.000, 0.000, 16:31:59.753, 1578580319753
132, -187500.02, -187500.02, -187500.02, -187500.02, -187500.02, -187500.02, -187500.02, -139862.73, 0.000, 0.000, 0.000, 16:31:59.753, 1578580319753
133, -45779.50, -21061.73, -137203.55, -89986.98, -40976.87, -34407.52, -118984.34, -97315.49, -0.004, -0.018, 0.974, 16:31:59.753, 1578580319753
134, -187500.02, -187500.02, -187500.02, -187500.02, -187500.02, -187500.02, -187500.02, -139778.66, 0.000, 0.000, 0.000, 16:31:59.753, 1578580319753
135, -45939.36, -21169.40, -137579.14, -90265.28, -41130.67, -34549.98, -119311.30, -97612.19, 0.000, 0.000, 0.000, 16:31:59.753, 1578580319753
136, -187500.02, -187500.02, -187500.02, -187500.02, -187500.02, -187500.02, -187500.02, -139693.06, 0.000, 0.000, 0.000, 16:31:59.753, 1578580319753
137, -46094.77, -21276.04, -137951.59, -90537.98, -41282.08, -34689.44, -119636.30, -97906.88, 0.000, 0.000, 0.000, 16:31:59.753, 1578580319753
138, -187500.02, -187500.02, -187500.02, -187500.02, -187500.02, -187500.02, -187500.02, -139609.19, 0.000, 0.000, 0.000, 16:31:59.754, 1578580319754
139, -46252.33, -21384.54, -138324.22, -90814.11, -41434.97, -34831.23, -119964.24, -98203.59, 0.000, 0.000, 0.000, 16:31:59.754, 1578580319754
140, -187500.02, -187500.02, -187500.02, -187500.02, -187500.02, -187500.02, -187500.02, -139526.16, 0.000, 0.000, 0.000, 16:31:59.754, 1578580319754
141, -46412.88, -21497.01, -138698.20, -91095.83, -41588.46, -34973.17, -120293.76, -98499.82, 0.000, 0.000, 0.000, 16:31:59.754, 1578580319754
142, -187500.02, -187500.02, -187500.02, -187500.02, -187500.02, -187500.02, -187500.02, -139441.53, 0.000, 0.000, 0.000, 16:31:59.754, 1578580319754
143, -46570.17, -21606.76, -139072.53, -91375.54, -41738.62, -35113.76, -120622.70, -98794.51, -0.004, -0.022, 0.978, 16:31:59.754, 1578580319754
144, -187500.02, -187500.02, -187500.02, -187500.02, -187500.02, -187500.02, -187500.02, -139359.09, 0.000, 0.000, 0.000, 16:31:59.754, 1578580319754
145, -46726.43, -21712.60, -139444.27, -91650.33, -41886.09, -35252.95, -120948.26, -99086.62, 0.000, 0.000, 0.000, 16:31:59.754, 1578580319754
146, -187500.02, -187500.02, -187500.02, -187500.02, -187500.02, -187500.02, -187500.02, -139277.53, 0.000, 0.000, 0.000, 16:31:59.754, 1578580319754
147, -46885.64, -21819.79, -139820.14, -91929.32, -42039.99, -35393.79, -121274.77, -99377.82, 0.000, 0.000, 0.000, 16:31:59.754, 1578580319754
148, -187500.02, -187500.02, -187500.02, -187500.02, -187500.02, -187500.02, -187500.02, -139193.45, 0.000, 0.000, 0.000, 16:31:59.754, 1578580319754
149, -47046.55, -21931.64, -140197.98, -92210.89, -42195.93, -35535.09, -121604.77, -99675.73, 0.000, 0.000, 0.000, 16:31:59.754, 1578580319754
150, -187500.02, -187500.02, -187500.02, -187500.02, -187500.02, -187500.02, -187500.02, -139108.73, 0.000, 0.000, 0.000, 16:31:59.754, 1578580319754
151, -47205.65, -22042.60, -140571.08, -92491.11, -42351.39, -35677.92, -121934.66, -99972.06, 0.000, 0.000, 0.000, 16:31:59.754, 1578580319754
152, -187500.02, -187500.02, -187500.02, -187500.02, -187500.02, -187500.02, -187500.02, -139027.20, 0.000, 0.000, 0.000, 16:31:59.754, 1578580319754
153, -47364.20, -22152.39, -140943.72, -92769.66, -42502.24, -35819.03, -122260.98, -100264.98, -0.002, -0.016, 0.970, 16:31:59.754, 1578580319754
154, -187500.02, -187500.02, -187500.02, -187500.02, -187500.02, -187500.02, -187500.02, -138942.69, 0.000, 0.000, 0.000, 16:31:59.754, 1578580319754
155, -47526.67, -22265.38, -141317.33, -93047.02, -42655.55, -35959.78, -122590.09, -100556.94, 0.000, 0.000, 0.000, 16:31:59.755, 1578580319755
156, -187500.02, -187500.02, -187500.02, -187500.02, -187500.02, -187500.02, -187500.02, -138862.44, 0.000, 0.000, 0.000, 16:31:59.755, 1578580319755
157, -47689.46, -22377.78, -141693.33, -93326.27, -42809.67, -36102.11, -122918.63, -100851.65, 0.000, 0.000, 0.000, 16:31:59.755, 1578580319755
158, -187500.02, -187493.09, -187500.02, -187500.02, -187500.02, -187500.02, -187500.02, -138780.55, 0.000, 0.000, 0.000, 16:31:59.755, 1578580319755
159, -47848.38, -22486.70, -142069.05, -93607.91, -42962.89, -36245.59, -123246.27, -101145.22, 0.000, 0.000, 0.000, 16:31:59.755, 1578580319755
160, -187500.02, -187464.45, -187500.02, -187500.02, -187500.02, -187500.02, -187500.02, -138699.78, 0.000, 0.000, 0.000, 16:31:59.755, 1578580319755
161, -48003.77, -22594.13, -142441.98, -93884.81, -43111.60, -36382.65, -123572.53, -101440.13, 0.000, 0.000, 0.000, 16:31:59.755, 1578580319755
162, -187500.02, -187437.77, -187500.02, -187500.02, -187500.02, -187500.02, -187500.02, -138618.63, 0.000, 0.000, 0.000, 16:31:59.755, 1578580319755
163, -48161.91, -22704.48, -142818.09, -94162.11, -43262.89, -36521.57, -123900.95, -101734.52, -0.004, -0.020, 0.972, 16:31:59.755, 1578580319755
164, -187500.02, -187408.22, -187500.02, -187500.02, -187500.02, -187500.02, -187500.02, -138536.23, 0.000, 0.000, 0.000, 16:31:59.755, 1578580319755
165, -48325.43, -22815.74, -143193.41, -94440.95, -43415.56, -36665.42, -124231.91, -102031.33, 0.000, 0.000, 0.000, 16:31:59.755, 1578580319755
166, -187500.02, -187379.09, -187500.02, -187500.02, -187500.02, -187500.02, -187500.02, -138453.83, 0.000, 0.000, 0.000, 16:31:59.755, 1578580319755
167, -48485.47, -22926.07, -143567.42, -94718.33, -43566.57, -36806.35, -124560.99, -102325.84, 0.000, 0.000, 0.000, 16:31:59.755, 1578580319755
168, -187500.02, -187351.91, -187500.02, -187495.23, -187500.02, -187500.02, -187500.02, -138373.98, 0.000, 0.000, 0.000, 16:31:59.755, 1578580319755
169, -48644.91, -23035.39, -143936.33, -94995.24, -43715.20, -36944.28, -124885.83, -102620.55, 0.000, 0.000, 0.000, 16:31:59.755, 1578580319755
170, -187500.02, -187317.63, -187500.02, -187464.34, -187500.02, -187500.02, -187500.02, -138291.02, 0.000, 0.000, 0.000, 16:31:59.755, 1578580319755
171, -48802.91, -23143.22, -144310.64, -95274.76, -43861.70, -37082.23, -125212.73, -102916.15, 0.000, 0.000, 0.000, 16:31:59.756, 1578580319756
172, -187500.02, -187291.77, -187500.02, -187439.23, -187500.02, -187500.02, -187500.02, -138211.27, 0.000, -0.020, 0.976, 16:31:59.756, 1578580319756
173, -48963.73, -23253.57, -144685.47, -95554.20, -44012.57, -37223.19, -125542.30, -103210.80, 0.000, 0.000, 0.000, 16:31:59.756, 1578580319756
174, -187500.02, -187264.23, -187500.02, -187412.13, -187500.02, -187500.02, -187500.02, -138129.80, 0.000, 0.000, 0.000, 16:31:59.756, 1578580319756
175, -49123.95, -23364.21, -145060.72, -95829.44, -44162.11, -37364.72, -125869.71, -103506.45, 0.000, 0.000, 0.000, 16:31:59.756, 1578580319756
176, -187500.02, -187233.77, -187500.02, -187381.70, -187500.02, -187500.02, -187500.02, -138049.58, 0.000, 0.000, 0.000, 16:31:59.756, 1578580319756
177, -49283.94, -23471.12, -145435.44, -96105.48, -44310.10, -37504.68, -126195.91, -103800.47, 0.000, 0.000, 0.000, 16:31:59.756, 1578580319756
178, -187500.02, -187202.09, -187500.02, -187350.02, -187500.02, -187500.02, -187500.02, -137969.53, 0.000, 0.000, 0.000, 16:31:59.756, 1578580319756
179, -49444.58, -23581.00, -145814.06, -96384.81, -44460.70, -37647.40, -126524.37, -104094.59, 0.000, 0.000, 0.000, 16:31:59.756, 1578580319756
180, -187500.02, -187175.52, -187500.02, -187324.39, -187500.02, -187500.02, -187500.02, -137888.64, 0.000, 0.000, 0.000, 16:31:59.757, 1578580319757
181, -49603.88, -23691.78, -146187.80, -96665.57, -44612.54, -37789.33, -126852.74, -104388.32, 0.000, 0.000, 0.000, 16:31:59.757, 1578580319757
182, -187500.02, -187145.73, -187500.02, -187294.67, -187500.02, -187500.02, -187500.02, -137810.13, -0.004, -0.018, 0.978, 16:31:59.757, 1578580319757
183, -49760.39, -23798.13, -146561.75, -96942.15, -44761.82, -37929.81, -127180.30, -104677.35, 0.000, 0.000, 0.000, 16:31:59.757, 1578580319757
184, -187500.02, -187118.38, -187500.02, -187267.78, -187500.02, -187500.02, -187500.02, -137731.09, 0.000, 0.000, 0.000, 16:31:59.757, 1578580319757
185, -49920.54, -23903.54, -146933.45, -97215.42, -44910.44, -38068.68, -127504.90, -104968.10, 0.000, 0.000, 0.000, 16:31:59.757, 1578580319757
186, -187500.02, -187084.67, -187500.02, -187234.09, -187500.02, -187500.02, -187500.02, -137649.55, 0.000, 0.000, 0.000, 16:31:59.757, 1578580319757
187, -50080.02, -24010.40, -147307.17, -97494.64, -45061.41, -38209.01, -127835.73, -105260.95, 0.000, 0.000, 0.000, 16:31:59.757, 1578580319757
188, -187500.02, -187058.17, -187500.02, -187208.19, -187500.02, -187500.02, -187500.02, -137572.59, 0.000, 0.000, 0.000, 16:31:59.757, 1578580319757
189, -50242.20, -24122.63, -147681.72, -97772.67, -45214.52, -38349.60, -128166.44, -105554.14, 0.000, 0.000, 0.000, 16:31:59.758, 1578580319758
190, -187500.02, -187031.55, -187500.02, -187182.33, -187500.02, -187500.02, -187500.02, -137492.95, 0.000, 0.000, 0.000, 16:31:59.758, 1578580319758
191, -50400.95, -24231.14, -148054.50, -98051.35, -45367.54, -38489.64, -128492.91, -105847.38, 0.000, 0.000, 0.000, 16:31:59.758, 1578580319758
192, -187500.02, -187002.05, -187500.02, -187153.27, -187500.02, -187500.02, -187500.02, -137411.88, -0.002, -0.012, 0.980, 16:31:59.758, 1578580319758
193, -50558.88, -24338.17, -148424.14, -98328.12, -45518.07, -38629.22, -128820.07, -106136.92, 0.000, 0.000, 0.000, 16:31:59.758, 1578580319758
194, -187500.02, -186975.70, -187500.02, -187127.02, -187500.02, -187500.02, -187500.02, -137336.25, 0.000, 0.000, 0.000, 16:31:59.758, 1578580319758
195, -50718.18, -24445.99, -148799.17, -98605.68, -45670.76, -38772.47, -129151.82, -106432.88, 0.000, 0.000, 0.000, 16:31:59.758, 1578580319758
196, -187500.02, -186943.08, -187500.02, -187094.27, -187500.02, -187500.02, -187500.02, -137257.66, 0.000, 0.000, 0.000, 16:31:59.758, 1578580319758
197, -50878.83, -24556.41, -149175.20, -98885.59, -45822.55, -38913.31, -129480.73, -106731.90, 0.000, 0.000, 0.000, 16:31:59.758, 1578580319758
198, -187500.02, -186915.34, -187500.02, -187067.17, -187500.02, -187500.02, -187500.02, -137180.09, 0.000, 0.000, 0.000, 16:31:59.758, 1578580319758
199, -51036.09, -24664.19, -149549.91, -99165.97, -45975.01, -39054.00, -129808.73, -107025.58, 0.000, 0.000, 0.000, 16:31:59.758, 1578580319758
200, -187500.02, -186882.33, -187500.02, -187034.16, -187500.02, -187500.02, -187500.02, -137101.13, 0.000, 0.000, 0.000, 16:31:59.758, 1578580319758
201, -51193.05, -24767.90, -149922.89, -99445.10, -46126.76, -39194.07, -130135.38, -107315.73, 0.000, 0.000, 0.000, 16:31:59.759, 1578580319759
202, -187500.02, -186852.33, -187500.02, -187004.72, -187500.02, -187500.02, -187500.02, -137022.78, -0.004, -0.016, 0.978, 16:31:59.760, 1578580319760
203, -51352.15, -24873.76, -150295.50, -99723.94, -46275.29, -39335.52, -130465.81, -107606.63, 0.000, 0.000, 0.000, 16:31:59.760, 1578580319760
204, -187500.02, -186825.50, -187500.02, -186978.55, -187500.02, -187500.02, -187500.02, -136945.63, 0.000, 0.000, 0.000, 16:31:59.760, 1578580319760
205, -51514.93, -24984.18, -150669.84, -100001.66, -46427.59, -39476.46, -130794.78, -107899.31, 0.000, 0.000, 0.000, 16:31:59.760, 1578580319760
206, -187500.02, -186796.47, -187500.02, -186949.78, -187500.02, -187500.02, -187500.02, -136867.55, 0.000, 0.000, 0.000, 16:31:59.760, 1578580319760
207, -51674.86, -25095.80, -151043.30, -100279.40, -46581.28, -39617.97, -131121.56, -108189.50, 0.000, 0.000, 0.000, 16:31:59.760, 1578580319760
208, -187500.02, -186767.42, -187500.02, -186921.17, -187500.02, -187500.02, -187500.02, -136789.09, 0.000, 0.000, 0.000, 16:31:59.760, 1578580319760
209, -51831.13, -25203.69, -151412.41, -100554.98, -46732.58, -39756.91, -131446.17, -108480.03, 0.000, 0.000, 0.000, 16:31:59.760, 1578580319760
210, -187500.02, -186737.91, -187500.02, -186891.94, -187500.02, -187500.02, -187500.02, -136712.55, 0.000, 0.000, 0.000, 16:31:59.760, 1578580319760
211, -51990.09, -25310.69, -151787.50, -100832.20, -46884.75, -39897.80, -131771.75, -108773.95, -0.004, -0.020, 0.978, 16:31:59.760, 1578580319760
212, -187500.02, -186709.55, -187500.02, -186864.09, -187500.02, -187500.02, -187500.02, -136635.36, 0.000, 0.000, 0.000, 16:31:59.760, 1578580319760
213, -52150.73, -25422.31, -152162.64, -101109.97, -47037.34, -40040.40, -132099.75, -109067.95, 0.000, 0.000, 0.000, 16:31:59.761, 1578580319761
214, -187500.02, -186683.06, -187500.02, -186838.14, -187500.02, -187500.02, -187500.02, -136558.63, 0.000, 0.000, 0.000, 16:31:59.761, 1578580319761
215, -52311.44, -25532.06, -152534.61, -101387.38, -47186.72, -40179.34, -132424.33, -109363.20, 0.000, 0.000, 0.000, 16:31:59.761, 1578580319761
216, -187500.02, -186652.50, -187500.02, -186807.63, -187500.02, -187500.02, -187500.02, -136481.42, 0.000, 0.000, 0.000, 16:31:59.761, 1578580319761
217, -52469.33, -25640.69, -152906.06, -101665.01, -47335.85, -40318.63, -132749.78, -109657.72, 0.000, 0.000, 0.000, 16:31:59.761, 1578580319761
218, -187500.02, -186622.84, -187500.02, -186778.14, -187500.02, -187500.02, -187500.02, -136405.61, 0.000, 0.000, 0.000, 16:31:59.761, 1578580319761
219, -52628.79, -25749.95, -153280.02, -101946.64, -47485.23, -40458.89, -133078.17, -109951.16, 0.000, 0.000, 0.000, 16:31:59.761, 1578580319761
220, -187500.02, -186593.72, -187500.02, -186749.48, -187500.02, -187500.02, -187500.02, -136329.00, 0.000, 0.000, 0.000, 16:31:59.761, 1578580319761
221, -52791.24, -25856.63, -153655.92, -102225.59, -47639.93, -40598.68, -133405.94, -110246.34, -0.002, -0.024, 0.976, 16:31:59.761, 1578580319761
222, -187500.02, -186564.64, -187500.02, -186720.77, -187500.02, -187500.02, -187500.02, -136253.91, 0.000, 0.000, 0.000, 16:31:59.761, 1578580319761
223, -52950.83, -25964.54, -154031.13, -102503.84, -47792.05, -40740.07, -133730.73, -110539.23, 0.000, 0.000, 0.000, 16:31:59.761, 1578580319761
224, -187500.02, -186537.80, -187500.02, -186694.33, -187500.02, -187500.02, -187500.02, -136178.73, 0.000, 0.000, 0.000, 16:31:59.761, 1578580319761
225, -53107.27, -26071.16, -154403.25, -102779.93, -47942.57, -40878.14, -134054.25, -110831.19, 0.000, 0.000, 0.000, 16:31:59.761, 1578580319761
226, -187500.02, -186509.77, -187500.02, -186666.81, -187500.02, -187500.02, -187500.02, -136103.55, 0.000, 0.000, 0.000, 16:31:59.762, 1578580319762
227, -53267.49, -26180.89, -154775.56, -103055.40, -48094.11, -41018.51, -134381.09, -111126.41, 0.000, 0.000, 0.000, 16:31:59.762, 1578580319762
228, -187500.02, -186478.42, -187500.02, -186635.45, -187500.02, -187500.02, -187500.02, -136028.59, 0.000, 0.000, 0.000, 16:31:59.762, 1578580319762
229, -53428.11, -26289.49, -155149.83, -103333.95, -48246.95, -41161.72, -134709.52, -111421.34, 0.000, 0.000, 0.000, 16:31:59.762, 1578580319762
230, -187500.02, -186443.45, -187500.02, -186600.67, -187500.02, -187500.02, -187500.02, -135950.66, 0.000, 0.000, 0.000, 16:31:59.762, 1578580319762
231, -53585.46, -26398.86, -155522.34, -103611.33, -48398.03, -41299.34, -135034.84, -111714.35, 0.000, -0.026, 0.980, 16:31:59.762, 1578580319762
232, -187500.02, -186413.41, -187500.02, -186571.34, -187500.02, -187500.02, -187500.02, -135873.67, 0.000, 0.000, 0.000, 16:31:59.762, 1578580319762
233, -53742.49, -26504.25, -155893.08, -103885.65, -48546.20, -41437.54, -135358.97, -112007.02, 0.000, 0.000, 0.000, 16:31:59.762, 1578580319762
234, -187500.02, -186388.33, -187500.02, -186546.88, -187500.02, -187500.02, -187500.02, -135800.67, 0.000, 0.000, 0.000, 16:31:59.762, 1578580319762
235, -53901.50, -26611.67, -156265.84, -104162.26, -48692.85, -41576.52, -135682.39, -112298.54, 0.000, 0.000, 0.000, 16:31:59.762, 1578580319762
236, -187500.02, -186362.30, -187500.02, -186521.39, -187500.02, -187500.02, -187500.02, -135726.31, 0.000, 0.000, 0.000, 16:31:59.763, 1578580319763
237, -54061.34, -26721.78, -156640.86, -104440.55, -48845.40, -41718.77, -136008.66, -112592.44, 0.000, 0.000, 0.000, 16:31:59.763, 1578580319763
238, -187500.02, -186331.89, -187500.02, -186491.17, -187500.02, -187500.02, -187500.02, -135651.22, 0.000, 0.000, 0.000, 16:31:59.763, 1578580319763
239, -54220.79, -26829.33, -157011.77, -104716.47, -48996.83, -41858.16, -136331.38, -112887.93, 0.000, 0.000, 0.000, 16:31:59.763, 1578580319763
240, -187500.02, -186304.06, -187500.02, -186463.77, -187500.02, -187500.02, -187500.02, -135576.42, 0.000, 0.000, 0.000, 16:32:00.227, 1578580320227
241, -54376.85, -26935.48, -157380.44, -104989.65, -49143.19, -41994.81, -136649.80, -113180.55, -0.002, -0.026, 0.974, 16:32:00.227, 1578580320227
242, -187500.02, -186277.02, -187500.02, -186437.34, -187500.02, -187500.02, -187500.02, -135501.41, 0.000, 0.000, 0.000, 16:32:00.227, 1578580320227
243, -54536.02, -27044.00, -157750.52, -105264.73, -49293.57, -42133.73, -136973.19, -113471.91, 0.000, 0.000, 0.000, 16:32:00.227, 1578580320227
244, -187500.02, -186249.09, -187500.02, -186409.72, -187500.02, -187500.02, -187500.02, -135427.19, 0.000, 0.000, 0.000, 16:32:00.227, 1578580320227
245, -54695.84, -27155.00, -158124.30, -105542.20, -49443.98, -42274.48, -137300.03, -113763.94, 0.000, 0.000, 0.000, 16:32:00.227, 1578580320227
246, -187500.02, -186215.73, -187500.02, -186376.08, -187500.02, -187500.02, -187500.02, -135352.77, 0.000, 0.000, 0.000, 16:32:00.227, 1578580320227
247, -54851.45, -27264.61, -158495.09, -105818.92, -49594.77, -42413.95, -137624.98, -114056.32, 0.000, 0.000, 0.000, 16:32:00.227, 1578580320227
248, -187500.02, -186184.13, -187500.02, -186344.75, -187500.02, -187500.02, -187500.02, -135279.08, 0.000, 0.000, 0.000, 16:32:00.227, 1578580320227
249, -55009.05, -27374.09, -158866.00, -106093.18, -49741.61, -42554.32, -137947.08, -114343.95, 0.000, 0.000, 0.000, 16:32:00.227, 1578580320227
250, -187500.02, -186156.34, -187500.02, -186317.19, -187500.02, -187500.02, -187500.02, -135207.44, 0.000, -0.022, 0.976, 16:32:00.227, 1578580320227
251, -55170.05, -27485.11, -159237.89, -106367.48, -49891.64, -42694.94, -138272.25, -114636.44, 0.000, 0.000, 0.000, 16:32:00.228, 1578580320228
252, -187500.02, -186121.63, -187500.02, -186282.77, -187500.02, -187500.02, -187500.02, -135131.48, 0.000, 0.000, 0.000, 16:32:00.228, 1578580320228
253, -55331.68, -27600.94, -159611.52, -106643.12, -50045.64, -42838.68, -138600.66, -114929.85, 0.000, 0.000, 0.000, 16:32:00.228, 1578580320228
254, -187500.02, -186091.81, -187500.02, -186253.25, -187500.02, -187500.02, -187500.02, -135059.86, 0.000, 0.000, 0.000, 16:32:00.228, 1578580320228
255, -55488.74, -27712.05, -159983.67, -106918.36, -50197.79, -42978.87, -138927.52, -115221.20, 0.000, 0.000, 0.000, 16:32:00.228, 1578580320228
0, -187500.02, -186064.09, -187500.02, -186226.33, -187500.02, -187500.02, -187500.02, -134987.77, 0.000, 0.000, 0.000, 16:32:00.228, 1578580320228
1, -55644.09, -27819.40, -160348.80, -107190.07, -50344.73, -43117.23, -139248.56, -115508.34, 0.000, 0.000, 0.000, 16:32:00.228, 1578580320228
2, -187500.02, -186035.58, -187500.02, -186198.19, -187500.02, -187500.02, -187500.02, -134914.92, 0.000, 0.000, 0.000, 16:32:00.228, 1578580320228
3, -55801.71, -27928.48, -160718.06, -107465.53, -50495.11, -43258.61, -139572.56, -115799.00, 0.000, 0.000, 0.000, 16:32:00.228, 1578580320228
4, -187500.02, -186006.19, -187500.02, -186169.34, -187500.02, -187500.02, -187500.02, -134841.39, 0.002, -0.020, 0.970, 16:32:00.228, 1578580320228
5, -55962.35, -28038.18, -161089.75, -107742.34, -50646.10, -43400.02, -139897.50, -116088.07, 0.000, 0.000, 0.000, 16:32:00.228, 1578580320228
6, -187500.02, -185975.52, -187500.02, -186138.84, -187500.02, -187500.02, -187500.02, -134769.64, 0.000, 0.000, 0.000, 16:32:00.228, 1578580320228
7, -56122.10, -28146.12, -161459.92, -108016.57, -50794.74, -43538.11, -140220.38, -116380.01, 0.000, 0.000, 0.000, 16:32:00.228, 1578580320228
8, -187500.02, -185945.61, -187500.02, -186109.33, -187500.02, -187500.02, -187500.02, -134695.72, 0.000, 0.000, 0.000, 16:32:00.228, 1578580320228
9, -56282.05, -28254.24, -161826.27, -108288.09, -50943.00, -43677.54, -140540.02, -116670.34, 0.000, 0.000, 0.000, 16:32:00.228, 1578580320228
10, -187500.02, -185912.95, -187500.02, -186076.72, -187500.02, -187500.02, -187500.02, -134623.02, 0.000, 0.000, 0.000, 16:32:00.228, 1578580320228
11, -56441.84, -28363.16, -162195.66, -108561.62, -51091.46, -43817.40, -140862.31, -116960.53, 0.000, 0.000, 0.000, 16:32:00.228, 1578580320228
12, -187500.02, -185883.69, -187500.02, -186047.88, -187500.02, -187500.02, -187500.02, -134552.20, 0.000, 0.000, 0.000, 16:32:00.228, 1578580320228
13, -56602.77, -28472.93, -162564.28, -108834.88, -51241.06, -43957.43, -141189.34, -117251.68, 0.000, 0.000, 0.000, 16:32:00.228, 1578580320228
14, -187500.02, -185853.70, -187500.02, -186018.31, -187500.02, -187500.02, -187500.02, -134480.61, 0.002, -0.018, 0.966, 16:32:00.228, 1578580320228
15, -56760.58, -28582.56, -162931.89, -109106.80, -51390.32, -44095.68, -141512.73, -117539.30, 0.000, 0.000, 0.000, 16:32:00.229, 1578580320229
16, -187500.02, -185822.11, -187500.02, -185987.00, -187500.02, -187500.02, -187500.02, -134408.34, 0.000, 0.000, 0.000, 16:32:00.229, 1578580320229
17, -56918.78, -28690.77, -163298.17, -109378.66, -51540.04, -44235.69, -141834.67, -117826.05, 0.000, 0.000, 0.000, 16:32:00.229, 1578580320229
18, -187500.02, -185793.59, -187500.02, -185958.89, -187500.02, -187500.02, -187500.02, -134338.52, 0.000, 0.000, 0.000, 16:32:00.229, 1578580320229
19, -57077.61, -28799.37, -163671.17, -109655.77, -51689.88, -44379.39, -142158.39, -118113.12, 0.000, 0.000, 0.000, 16:32:00.229, 1578580320229
20, -187500.02, -185764.11, -187500.02, -185930.13, -187500.02, -187500.02, -187500.02, -134265.58, 0.000, 0.000, 0.000, 16:32:00.229, 1578580320229
21, -57237.81, -28910.35, -164039.42, -109930.97, -51840.89, -44523.15, -142480.86, -118401.61, 0.000, 0.000, 0.000, 16:32:00.229, 1578580320229
22, -187500.02, -185731.05, -187500.02, -185897.17, -187500.02, -187500.02, -187500.02, -134194.11, 0.000, 0.000, 0.000, 16:32:00.229, 1578580320229
23, -57397.31, -29018.51, -164410.73, -110205.80, -51989.98, -44665.80, -142801.94, -118689.99, 0.000, 0.000, 0.000, 16:32:00.229, 1578580320229
24, -187500.02, -185703.66, -187500.02, -185870.53, -187500.02, -187500.02, -187500.02, -134123.31, 0.000, -0.020, 0.976, 16:32:00.229, 1578580320229
25, -57553.82, -29126.09, -164777.77, -110478.21, -52138.37, -44803.91, -143120.81, -118975.49, 0.000, 0.000, 0.000, 16:32:00.229, 1578580320229
26, -187500.02, -185669.92, -187500.02, -185836.91, -187500.02, -187500.02, -187500.02, -134050.88, 0.000, 0.000, 0.000, 16:32:00.229, 1578580320229
27, -57715.00, -29238.18, -165147.25, -110753.98, -52288.77, -44942.67, -143444.08, -119265.10, 0.000, 0.000, 0.000, 16:32:00.229, 1578580320229
28, -187500.02, -185644.17, -187500.02, -185811.88, -187500.02, -187500.02, -187500.02, -133981.36, 0.000, 0.000, 0.000, 16:32:00.229, 1578580320229
29, -57878.21, -29350.81, -165518.13, -111030.74, -52442.69, -45085.93, -143769.23, -119559.23, 0.000, 0.000, 0.000, 16:32:00.229, 1578580320229
30, -187500.02, -185610.64, -187500.02, -185778.39, -187500.02, -187500.02, -187500.02, -133909.28, 0.000, 0.000, 0.000, 16:32:00.229, 1578580320229
31, -58038.89, -29458.35, -165887.22, -111305.11, -52592.13, -45225.45, -144090.88, -119848.64, 0.000, 0.000, 0.000, 16:32:00.230, 1578580320230
32, -187500.02, -185584.58, -187500.02, -185752.94, -187500.02, -187500.02, -187500.02, -133841.06, 0.000, 0.000, 0.000, 16:32:00.230, 1578580320230
33, -58199.09, -29565.95, -166252.19, -111575.81, -52739.30, -45366.15, -144407.03, -120135.37, 0.000, 0.000, 0.000, 16:32:00.230, 1578580320230
34, -187500.02, -185551.70, -187500.02, -185720.11, -187500.02, -187500.02, -187500.02, -133768.66, 0.002, -0.014, 0.978, 16:32:00.230, 1578580320230
35, -58358.55, -29673.48, -166618.25, -111852.53, -52889.37, -45506.94, -144729.59, -120422.21, 0.000, 0.000, 0.000, 16:32:00.230, 1578580320230
36, -187500.02, -185526.06, -187500.02, -185695.30, -187500.02, -187500.02, -187500.02, -133699.45, 0.000, 0.000, 0.000, 16:32:00.230, 1578580320230
37, -58518.61, -29783.41, -166988.61, -112130.45, -53039.55, -45649.17, -145054.09, -120710.03, 0.000, 0.000, 0.000, 16:32:00.230, 1578580320230
38, -187500.02, -185493.97, -187500.02, -185663.13, -187500.02, -187500.02, -187500.02, -133629.03, 0.000, 0.000, 0.000, 16:32:00.230, 1578580320230
39, -58677.51, -29890.00, -167358.09, -112401.82, -53188.72, -45789.63, -145376.72, -120999.71, 0.000, 0.000, 0.000, 16:32:00.230, 1578580320230
40, -187500.02, -185465.47, -187500.02, -185635.20, -187500.02, -187500.02, -187500.02, -133558.91, 0.000, 0.000, 0.000, 16:32:00.230, 1578580320230
41, -58833.37, -29995.57, -167725.05, -112670.49, -53335.30, -45927.78, -145695.86, -121287.00, 0.000, 0.000, 0.000, 16:32:00.230, 1578580320230
42, -187500.02, -185434.06, -187500.02, -185604.28, -187500.02, -187500.02, -187500.02, -133487.03, 0.000, 0.000, 0.000, 16:32:00.230, 1578580320230
43, -58989.40, -30102.61, -168090.34, -112940.88, -53486.23, -46067.12, -146017.84, -121576.63, 0.004, -0.018, 0.976, 16:32:00.230, 1578580320230
44, -187500.02, -185405.97, -187500.02, -185576.58, -187500.02, -187500.02, -187500.02, -133418.05, 0.000, 0.000, 0.000, 16:32:00.230, 1578580320230
45, -59148.44, -30210.88, -168462.20, -113213.75, -53639.16, -46208.92, -146340.16, -121866.83, 0.000, 0.000, 0.000, 16:32:00.230, 1578580320230
46, -187500.02, -185374.44, -187500.02, -185545.09, -187500.02, -187500.02, -187500.02, -133349.25, 0.000, 0.000, 0.000, 16:32:00.230, 1578580320230
47, -59307.54, -30316.36, -168830.41, -113486.77, -53790.12, -46352.53, -146659.80, -122157.38, 0.000, 0.000, 0.000, 16:32:00.231, 1578580320231
48, -187500.02, -185344.19, -187500.02, -185515.30, -187500.02, -187500.02, -187500.02, -133280.77, 0.000, 0.000, 0.000, 16:32:00.231, 1578580320231
49, -59467.51, -30424.75, -169194.61, -113759.76, -53938.47, -46490.69, -146979.17, -122445.22, 0.000, 0.000, 0.000, 16:32:00.231, 1578580320231
50, -187500.02, -185313.61, -187500.02, -185485.09, -187500.02, -187500.02, -187500.02, -133211.55, 0.000, 0.000, 0.000, 16:32:00.231, 1578580320231
51, -59629.04, -30533.53, -169562.25, -114034.88, -54087.98, -46631.10, -147300.09, -122729.89, 0.000, 0.000, 0.000, 16:32:00.231, 1578580320231
52, -187500.02, -185282.48, -187500.02, -185454.30, -187500.02, -187500.02, -187500.02, -133142.94, 0.000, 0.000, 0.000, 16:32:00.231, 1578580320231
53, -59789.37, -30644.42, -169934.31, -114309.61, -54237.96, -46774.58, -147623.09, -123017.42, 0.000, -0.022, 0.972, 16:32:00.231, 1578580320231
54, -187500.02, -185250.20, -187500.02, -185422.44, -187500.02, -187500.02, -187500.02, -133073.72, 0.000, 0.000, 0.000, 16:32:00.231, 1578580320231
55, -59946.75, -30752.06, -170302.31, -114581.01, -54386.20, -46915.46, -147942.33, -123303.70, 0.000, 0.000, 0.000, 16:32:00.231, 1578580320231
56, -187500.02, -185221.66, -187500.02, -185394.64, -187500.02, -187500.02, -187500.02, -133003.77, 0.000, 0.000, 0.000, 16:32:00.231, 1578580320231
57, -60106.27, -30859.64, -170667.25, -114851.73, -54532.00, -47055.29, -148263.25, -123588.24, 0.000, 0.000, 0.000, 16:32:00.234, 1578580320234
58, -187500.02, -185189.52, -187500.02, -185362.58, -187500.02, -187500.02, -187500.02, -132935.05, 0.000, 0.000, 0.000, 16:32:00.234, 1578580320234
59, -60266.63, -30968.77, -171033.06, -115125.80, -54682.56, -47194.32, -148584.84, -123877.70, 0.000, 0.000, 0.000, 16:32:00.234, 1578580320234
60, -187500.02, -185163.91, -187500.02, -185337.69, -187500.02, -187500.02, -187500.02, -132868.23, 0.000, 0.000, 0.000, 16:32:00.234, 1578580320234
61, -60427.71, -31077.62, -171400.95, -115401.05, -54834.21, -47336.75, -148906.42, -124167.11, 0.000, 0.000, 0.000, 16:32:00.234, 1578580320234
62, -187500.02, -185134.48, -187500.02, -185308.63, -187500.02, -187500.02, -187500.02, -132799.58, 0.000, 0.000, 0.000, 16:32:00.234, 1578580320234
63, -60588.04, -31186.25, -171765.59, -115675.73, -54986.32, -47477.09, -149227.38, -124453.75, 0.000, -0.022, 0.976, 16:32:00.234, 1578580320234
64, -187500.02, -185102.28, -187500.02, -185276.63, -187500.02, -187500.02, -187500.02, -132729.45, 0.000, 0.000, 0.000, 16:32:00.235, 1578580320235
65, -60745.71, -31294.38, -172127.16, -115947.91, -55134.93, -47616.99, -149544.41, -124739.05, 0.000, 0.000, 0.000, 16:32:00.235, 1578580320235
66, -187500.02, -185074.16, -187500.02, -185249.02, -187500.02, -187500.02, -187500.02, -132662.73, 0.000, 0.000, 0.000, 16:32:00.235, 1578580320235
67, -60904.21, -31404.09, -172491.30, -116221.11, -55284.11, -47757.68, -149861.80, -125027.36, 0.000, 0.000, 0.000, 16:32:00.235, 1578580320235
68, -187500.02, -185043.41, -187500.02, -185218.55, -187500.02, -187500.02, -187500.02, -132594.80, 0.000, 0.000, 0.000, 16:32:00.235, 1578580320235
69, -61066.84, -31514.44, -172855.91, -116495.12, -55433.84, -47898.51, -150186.64, -125319.25, 0.000, 0.000, 0.000, 16:32:00.235, 1578580320235
70, -187500.02, -185010.20, -187500.02, -185185.52, -187500.02, -187500.02, -187500.02, -132527.22, 0.000, 0.000, 0.000, 16:32:00.235, 1578580320235
71, -61228.80, -31622.84, -173219.31, -116767.27, -55582.75, -48038.66, -150504.50, -125607.19, 0.000, 0.000, 0.000, 16:32:00.235, 1578580320235
72, -187500.02, -184978.52, -187500.02, -185154.05, -187500.02, -187500.02, -187500.02, -132460.34, 0.000, 0.000, 0.000, 16:32:00.235, 1578580320235
73, -61389.00, -31731.79, -173581.34, -117040.19, -55728.69, -48177.20, -150823.22, -125894.92, 0.000, -0.022, 0.982, 16:32:00.235, 1578580320235
74, -187500.02, -184952.56, -187500.02, -185128.72, -187500.02, -187500.02, -187500.02, -132395.25, 0.000, 0.000, 0.000, 16:32:00.235, 1578580320235
75, -61548.63, -31841.62, -173887.69, -117317.13, -55879.79, -48319.57, -151144.45, -126184.20, 0.000, 0.000, 0.000, 16:32:00.235, 1578580320235
76, -187500.02, -184919.02, -187500.02, -185095.44, -187500.02, -187500.02, -187500.02, -132327.27, 0.000, 0.000, 0.000, 16:32:00.235, 1578580320235
77, -61718.68, -31963.20, -173979.98, -117625.91, -56041.34, -48467.21, -151475.84, -126484.16, 0.000, 0.000, 0.000, 16:32:00.235, 1578580320235
78, -187500.02, -184889.22, -187500.02, -185066.06, -187500.02, -187500.02, -187500.02, -132260.83, 0.000, 0.000, 0.000, 16:32:00.235, 1578580320235
79, -61889.86, -32083.38, -174049.91, -117944.61, -56200.46, -48618.08, -151807.48, -126782.27, 0.000, 0.000, 0.000, 16:32:00.235, 1578580320235
80, -187500.02, -184861.08, -187500.02, -185038.47, -187500.02, -187500.02, -187500.02, -132195.56, 0.000, 0.000, 0.000, 16:32:00.235, 1578580320235
81, -62061.34, -32203.81, -174047.16, -118270.27, -56358.71, -48766.36, -152137.19, -127080.75, 0.000, 0.000, 0.000, 16:32:00.235, 1578580320235
82, -187500.02, -184834.84, -187500.02, -185013.00, -187500.02, -187500.02, -187500.02, -132129.34, 0.000, -0.024, 0.984, 16:32:00.235, 1578580320235
83, -62237.07, -32329.83, -174032.28, -118598.46, -56521.73, -48918.11, -152472.31, -127383.39, 0.000, 0.000, 0.000, 16:32:00.235, 1578580320235
84, -187500.02, -184805.05, -187500.02, -184983.45, -187500.02, -187500.02, -187500.02, -132063.52, 0.000, 0.000, 0.000, 16:32:00.235, 1578580320235
85, -62415.88, -32455.74, -174016.75, -118928.63, -56688.87, -49074.95, -152810.67, -127687.64, 0.000, 0.000, 0.000, 16:32:00.235, 1578580320235
86, -187500.02, -184777.75, -187500.02, -184956.56, -187500.02, -187500.02, -187500.02, -131998.98, 0.000, 0.000, 0.000, 16:32:00.235, 1578580320235
87, -62592.32, -32581.09, -174002.78, -119257.62, -56852.22, -49229.38, -153146.64, -127993.20, 0.000, 0.000, 0.000, 16:32:00.235, 1578580320235
88, -187500.02, -184749.91, -187500.02, -184929.05, -187500.02, -187500.02, -187500.02, -131934.45, 0.000, 0.000, 0.000, 16:32:00.235, 1578580320235
89, -62766.31, -32707.06, -173986.42, -119584.71, -57014.40, -49379.94, -153479.23, -128295.61, 0.000, 0.000, 0.000, 16:32:00.235, 1578580320235
90, -187500.02, -184719.59, -187500.02, -184899.14, -187500.02, -187500.02, -187500.02, -131867.23, 0.000, 0.000, 0.000, 16:32:00.235, 1578580320235
91, -62939.80, -32832.63, -173970.44, -119913.91, -57177.59, -49534.14, -153814.27, -128597.67, 0.000, 0.000, 0.000, 16:32:00.235, 1578580320235
92, -187500.02, -184693.02, -187500.02, -184872.77, -187500.02, -187500.02, -187500.02, -131803.88, -0.004, -0.020, 0.980, 16:32:00.235, 1578580320235
93, -63116.88, -32961.22, -173956.36, -120245.50, -57342.39, -49689.42, -154152.59, -128899.94, 0.000, 0.000, 0.000, 16:32:00.235, 1578580320235
94, -187500.02, -184662.58, -187500.02, -184842.77, -187500.02, -187500.02, -187500.02, -131736.75, 0.000, 0.000, 0.000, 16:32:00.235, 1578580320235
95, -63291.55, -33087.04, -173940.17, -120574.89, -57506.23, -49842.27, -154489.53, -129201.08, 0.000, 0.000, 0.000, 16:32:00.235, 1578580320235
96, -187500.02, -184636.58, -187500.02, -184817.50, -187500.02, -187500.02, -187500.02, -131671.48, 0.000, 0.000, 0.000, 16:32:00.235, 1578580320235
97, -63464.45, -33210.71, -173928.27, -120903.51, -57667.83, -49992.78, -154824.05, -129502.78, 0.000, 0.000, 0.000, 16:32:00.235, 1578580320235
98, -187500.02, -184614.14, -187500.02, -184795.98, -187500.02, -187500.02, -187500.02, -131606.89, 0.000, 0.000, 0.000, 16:32:00.235, 1578580320235
99, -63638.34, -33335.48, -173916.77, -121230.85, -57829.26, -50147.90, -155161.33, -129804.27, 0.000, 0.000, 0.000, 16:32:00.236, 1578580320236
100, -187500.02, -184587.73, -187500.02, -184769.81, -187500.02, -187500.02, -187500.02, -131541.94, 0.000, 0.000, 0.000, 16:32:00.236, 1578580320236
101, -63816.98, -33462.32, -173902.38, -121560.96, -57994.77, -50304.01, -155501.19, -130108.05, 0.000, 0.000, 0.000, 16:32:00.236, 1578580320236
102, -187500.02, -184561.34, -187500.02, -184743.73, -187500.02, -187500.02, -187500.02, -131476.83, -0.002, -0.022, 0.978, 16:32:00.236, 1578580320236
103, -63995.01, -33586.33, -173887.88, -121891.10, -58158.43, -50456.20, -155835.91, -130407.91, 0.000, 0.000, 0.000, 16:32:00.236, 1578580320236
104, -187500.02, -184534.86, -187500.02, -184717.22, -187500.02, -187500.02, -187500.02, -131413.19, 0.000, 0.000, 0.000, 16:32:00.708, 1578580320708
105, -64169.31, -33709.45, -173872.45, -122220.20, -58319.59, -50604.53, -156169.58, -130706.83, 0.000, 0.000, 0.000, 16:32:00.708, 1578580320708
106, -187500.02, -184504.48, -187500.02, -184687.08, -187500.02, -187500.02, -187500.02, -131348.03, 0.000, 0.000, 0.000, 16:32:00.708, 1578580320708
107, -64346.67, -33836.70, -173859.11, -122548.35, -58484.23, -50757.37, -156503.64, -131008.02, 0.000, 0.000, 0.000, 16:32:00.709, 1578580320709
108, -187500.02, -184479.67, -187500.02, -184662.84, -187500.02, -187500.02, -187500.02, -131283.69, 0.000, 0.000, 0.000, 16:32:00.709, 1578580320709
109, -64524.34, -33963.90, -173843.66, -122881.51, -58650.33, -50912.73, -156842.00, -131309.78, 0.000, 0.000, 0.000, 16:32:00.709, 1578580320709
110, -187500.02, -184451.78, -187500.02, -184635.19, -187500.02, -187500.02, -187500.02, -131219.22, 0.000, 0.000, 0.000, 16:32:00.709, 1578580320709
111, -64704.10, -34090.81, -173829.44, -123213.95, -58815.02, -51067.74, -157180.45, -131610.70, 0.000, 0.000, 0.000, 16:32:00.709, 1578580320709
112, -187500.02, -184420.64, -187500.02, -184604.13, -187500.02, -187500.02, -187500.02, -131154.78, 0.000, -0.024, 0.970, 16:32:00.709, 1578580320709
113, -64879.94, -34214.26, -173813.55, -123542.89, -58975.99, -51220.77, -157512.67, -131909.38, 0.000, 0.000, 0.000, 16:32:00.709, 1578580320709
114, -187500.02, -184392.75, -187500.02, -184576.86, -187500.02, -187500.02, -187500.02, -131090.52, 0.000, 0.000, 0.000, 16:32:00.709, 1578580320709
115, -65055.09, -34340.41, -173799.11, -123873.09, -59139.25, -51377.07, -157849.94, -132211.86, 0.000, 0.000, 0.000, 16:32:00.709, 1578580320709
116, -187500.02, -184367.31, -187500.02, -184551.91, -187500.02, -187500.02, -187500.02, -131027.66, 0.000, 0.000, 0.000, 16:32:00.709, 1578580320709
117, -65231.35, -34466.48, -173787.83, -124206.18, -59302.75, -51532.82, -158187.64, -132512.61, 0.000, 0.000, 0.000, 16:32:00.709, 1578580320709
118, -187500.02, -184344.63, -187500.02, -184529.95, -187500.02, -187500.02, -187500.02, -130964.55, 0.000, 0.000, 0.000, 16:32:00.709, 1578580320709
119, -65407.21, -34592.81, -173771.33, -124536.54, -59468.40, -51685.43, -158522.05, -132812.58, 0.000, 0.000, 0.000, 16:32:00.709, 1578580320709
120, -187500.02, -184312.95, -187500.02, -184498.28, -187500.02, -187500.02, -187500.02, -130897.82, 0.000, 0.000, 0.000, 16:32:00.709, 1578580320709
121, -65580.77, -34715.01, -173758.66, -124864.59, -59628.64, -51837.45, -158857.42, -133111.25, -0.006, -0.022, 0.978, 16:32:00.709, 1578580320709
122, -187500.02, -184287.89, -187500.02, -184473.67, -187500.02, -187500.02, -187500.02, -130835.80, 0.000, 0.000, 0.000, 16:32:00.709, 1578580320709
123, -65757.35, -34840.00, -173744.97, -125192.61, -59791.85, -51991.23, -159190.06, -133410.67, 0.000, 0.000, 0.000, 16:32:00.709, 1578580320709
124, -187500.02, -184259.23, -187500.02, -184445.47, -187500.02, -187500.02, -187500.02, -130770.53, 0.000, 0.000, 0.000, 16:32:00.710, 1578580320710
125, -65935.45, -34964.59, -173729.78, -125524.06, -59957.46, -52144.94, -159523.72, -133710.33, 0.000, 0.000, 0.000, 16:32:00.710, 1578580320710
126, -187500.02, -184231.47, -187500.02, -184417.80, -187500.02, -187500.02, -187500.02, -130708.21, 0.000, 0.000, 0.000, 16:32:00.710, 1578580320710
127, -66111.45, -35091.30, -173713.19, -125853.17, -60122.10, -52296.89, -159857.41, -134012.09, 0.000, 0.000, 0.000, 16:32:00.710, 1578580320710
128, -187500.02, -184200.00, -187500.02, -184386.59, -187500.02, -187500.02, -187500.02, -130643.10, 0.000, 0.000, 0.000, 16:32:00.710, 1578580320710
129, -66284.70, -35215.55, -173702.00, -126180.94, -60283.30, -52445.59, -160190.95, -134310.95, 0.000, 0.000, 0.000, 16:32:00.710, 1578580320710
130, -187500.02, -184177.36, -187500.02, -184364.73, -187500.02, -187500.02, -187500.02, -130582.38, 0.000, 0.000, 0.000, 16:32:00.710, 1578580320710
131, -66461.10, -35340.45, -173687.84, -126508.30, -60448.12, -52598.73, -160524.70, -134611.92, -0.002, -0.022, 0.982, 16:32:00.710, 1578580320710
132, -187500.02, -184153.45, -187500.02, -184341.52, -187500.02, -187500.02, -187500.02, -130519.84, 0.000, 0.000, 0.000, 16:32:00.710, 1578580320710
133, -66642.73, -35472.06, -173674.33, -126840.91, -60615.96, -52755.64, -160860.78, -134914.91, 0.000, 0.000, 0.000, 16:32:00.711, 1578580320711
134, -187500.02, -184124.30, -187500.02, -184312.41, -187500.02, -187500.02, -187500.02, -130456.78, 0.000, 0.000, 0.000, 16:32:00.711, 1578580320711
135, -66820.94, -35601.10, -173660.64, -127171.61, -60781.81, -52908.72, -161195.86, -135215.69, 0.000, 0.000, 0.000, 16:32:00.711, 1578580320711
136, -187500.02, -184097.28, -187500.02, -184285.75, -187500.02, -187500.02, -187500.02, -130394.77, 0.000, 0.000, 0.000, 16:32:00.711, 1578580320711
137, -66993.41, -35724.21, -173645.20, -127500.80, -60943.53, -53060.13, -161530.23, -135514.58, 0.000, 0.000, 0.000, 16:32:00.711, 1578580320711
138, -187500.02, -184067.50, -187500.02, -184256.06, -187500.02, -187500.02, -187500.02, -130331.77, 0.000, 0.000, 0.000, 16:32:00.711, 1578580320711
139, -67168.51, -35847.97, -173629.47, -127831.79, -61105.53, -53213.69, -161865.11, -135813.20, 0.000, 0.000, 0.000, 16:32:00.711, 1578580320711
140, -187500.02, -184040.77, -187500.02, -184229.75, -187500.02, -187500.02, -187500.02, -130269.96, 0.000, 0.000, 0.000, 16:32:00.711, 1578580320711
141, -67348.02, -35975.06, -173616.09, -128163.55, -61270.04, -53371.92, -162201.98, -136112.11, -0.002, -0.022, 0.980, 16:32:00.712, 1578580320712
142, -187500.02, -184015.05, -187500.02, -184204.55, -187500.02, -187500.02, -187500.02, -130208.98, 0.000, 0.000, 0.000, 16:32:00.712, 1578580320712
143, -67524.33, -36100.35, -173602.22, -128495.57, -61433.23, -53526.17, -162537.77, -136411.16, 0.000, 0.000, 0.000, 16:32:00.712, 1578580320712
144, -187500.02, -183989.50, -187500.02, -184179.55, -187500.02, -187500.02, -187500.02, -130147.27, 0.000, 0.000, 0.000, 16:32:00.712, 1578580320712
145, -67697.95, -36224.69, -173589.47, -128826.66, -61592.82, -53678.74, -162867.59, -136707.44, 0.000, 0.000, 0.000, 16:32:00.712, 1578580320712
146, -187500.02, -183963.86, -187500.02, -184154.30, -187500.02, -187500.02, -187500.02, -130086.03, 0.000, 0.000, 0.000, 16:32:00.712, 1578580320712
147, -67874.63, -36352.83, -173575.91, -129155.93, -61756.55, -53831.65, -163201.48, -137007.30, 0.000, 0.000, 0.000, 16:32:00.712, 1578580320712
148, -187500.02, -183934.91, -187500.02, -184125.53, -187500.02, -187500.02, -187500.02, -130023.49, 0.000, 0.000, 0.000, 16:32:00.712, 1578580320712
149, -68055.20, -36482.40, -173557.05, -129486.49, -61922.62, -53986.82, -163540.47, -137309.52, 0.000, 0.000, 0.000, 16:32:00.712, 1578580320712
150, -187500.02, -183904.33, -187500.02, -184095.16, -187500.02, -187500.02, -187500.02, -129960.01, 0.000, 0.000, 0.000, 16:32:00.712, 1578580320712
151, -68229.59, -36607.55, -173545.59, -129816.00, -62086.73, -54138.18, -163875.66, -137608.53, -0.002, -0.022, 0.984, 16:32:00.712, 1578580320712
152, -187500.02, -183876.86, -187500.02, -184068.02, -187500.02, -187500.02, -187500.02, -129899.80, 0.000, 0.000, 0.000, 16:32:00.712, 1578580320712
153, -68402.57, -36732.90, -173530.28, -130144.34, -62247.71, -54290.38, -164208.31, -137907.70, 0.000, 0.000, 0.000, 16:32:00.712, 1578580320712
154, -187500.02, -183847.05, -187500.02, -184038.41, -187500.02, -187500.02, -187500.02, -129837.73, 0.000, 0.000, 0.000, 16:32:00.712, 1578580320712
155, -68580.70, -36858.74, -173516.56, -130474.70, -62412.84, -54445.94, -164543.36, -138208.09, 0.000, 0.000, 0.000, 16:32:00.712, 1578580320712
156, -187500.02, -183819.00, -187500.02, -184010.59, -187500.02, -187500.02, -187500.02, -129778.16, 0.000, 0.000, 0.000, 16:32:00.712, 1578580320712
157, -68761.95, -36987.13, -173503.89, -130804.28, -62578.40, -54602.89, -164879.97, -138509.98, 0.000, 0.000, 0.000, 16:32:00.713, 1578580320713
158, -187500.02, -183793.19, -187500.02, -183985.19, -187500.02, -187500.02, -187500.02, -129719.46, 0.000, 0.000, 0.000, 16:32:00.713, 1578580320713
159, -68938.30, -37110.46, -173490.28, -131131.59, -62738.46, -54755.47, -165213.67, -138808.48, 0.000, 0.000, 0.000, 16:32:00.713, 1578580320713
160, -187500.02, -183763.41, -187500.02, -183955.77, -187500.02, -187500.02, -187500.02, -129659.09, 0.000, -0.016, 0.974, 16:32:00.713, 1578580320713
161, -69112.64, -37232.46, -173476.36, -131460.55, -62899.33, -54906.37, -165547.81, -139105.61, 0.000, 0.000, 0.000, 16:32:00.713, 1578580320713
162, -187500.02, -183734.11, -187500.02, -183926.91, -187500.02, -187500.02, -187500.02, -129597.47, 0.000, 0.000, 0.000, 16:32:00.713, 1578580320713
163, -69289.18, -37357.12, -173461.64, -131790.11, -63062.85, -55058.43, -165883.84, -139405.02, 0.000, 0.000, 0.000, 16:32:00.713, 1578580320713
164, -187500.02, -183707.33, -187500.02, -183900.67, -187500.02, -187500.02, -187500.02, -129536.85, 0.000, 0.000, 0.000, 16:32:00.713, 1578580320713
165, -69467.59, -37485.55, -173446.52, -132117.36, -63227.07, -55211.31, -166220.55, -139704.91, 0.000, 0.000, 0.000, 16:32:00.713, 1578580320713
166, -187488.08, -183679.19, -187500.02, -183872.81, -187500.02, -187500.02, -187500.02, -129476.99, 0.000, 0.000, 0.000, 16:32:00.713, 1578580320713
167, -69644.86, -37613.20, -173432.80, -132444.05, -63389.66, -55365.74, -166552.61, -140003.67, 0.000, 0.000, 0.000, 16:32:00.713, 1578580320713
168, -187462.22, -183654.73, -187500.02, -183848.92, -187500.02, -187500.02, -187500.02, -129418.07, 0.000, 0.000, 0.000, 16:32:00.713, 1578580320713
169, -69819.25, -37739.18, -173418.33, -132773.09, -63550.79, -55518.09, -166885.58, -140299.77, 0.000, 0.000, 0.000, 16:32:00.713, 1578580320713
170, -187433.44, -183623.16, -187486.14, -183817.41, -187500.02, -187500.02, -187500.02, -129356.54, 0.000, -0.014, 0.976, 16:32:00.714, 1578580320714
171, -69994.59, -37865.17, -173400.64, -133102.27, -63713.96, -55670.13, -167221.42, -140596.02, 0.000, 0.000, 0.000, 16:32:00.714, 1578580320714
172, -187403.75, -183593.25, -187454.73, -183787.75, -187500.02, -187500.02, -187500.02, -129294.91, 0.000, 0.000, 0.000, 16:32:00.714, 1578580320714
173, -70171.34, -37990.01, -173388.94, -133429.47, -63881.06, -55823.70, -167558.97, -140895.25, 0.000, 0.000, 0.000, 16:32:00.714, 1578580320714
174, -187377.34, -183566.36, -187426.64, -183761.16, -187500.02, -187500.02, -187500.02, -129236.48, 0.000, 0.000, 0.000, 16:32:00.714, 1578580320714
175, -70346.26, -38113.70, -173377.33, -133756.70, -64042.26, -55978.45, -167892.23, -141192.77, 0.000, 0.000, 0.000, 16:32:00.714, 1578580320714
176, -187350.39, -183539.91, -187397.84, -183735.38, -187500.02, -187500.02, -187500.02, -129177.32, 0.000, 0.000, 0.000, 16:32:00.715, 1578580320715
177, -70520.71, -38238.89, -173365.00, -134083.22, -64203.53, -56128.85, -168221.88, -141487.86, 0.000, 0.000, 0.000, 16:32:00.715, 1578580320715
178, -187324.27, -183514.56, -187369.97, -183710.75, -187500.02, -187500.02, -187500.02, -129118.13, 0.000, 0.000, 0.000, 16:32:00.715, 1578580320715
179, -70701.07, -38366.75, -173349.94, -134409.17, -64367.52, -56283.37, -168559.11, -141786.63, 0.000, 0.000, 0.000, 16:32:00.715, 1578580320715
180, -187296.48, -183486.11, -187340.69, -183682.63, -187500.02, -187500.02, -187500.02, -129057.47, 0.000, -0.016, 0.978, 16:32:00.715, 1578580320715
181, -70881.20, -38494.24, -173337.19, -134737.72, -64531.90, -56438.00, -168897.16, -142086.88, 0.000, 0.000, 0.000, 16:32:00.716, 1578580320716
182, -187271.47, -183463.11, -187313.89, -183660.44, -187500.02, -187500.02, -187500.02, -128998.69, 0.000, 0.000, 0.000, 16:32:00.716, 1578580320716
183, -71057.27, -38621.22, -173322.64, -135065.17, -64695.20, -56592.92, -169234.17, -142387.83, 0.000, 0.000, 0.000, 16:32:00.716, 1578580320716
184, -187244.05, -183434.25, -187285.03, -183632.06, -187500.02, -187500.02, -187500.02, -128937.38, 0.000, 0.000, 0.000, 16:32:00.716, 1578580320716
185, -71230.85, -38746.30, -173306.09, -135392.45, -64858.61, -56747.90, -169567.86, -142684.05, 0.000, 0.000, 0.000, 16:32:00.716, 1578580320716
186, -187215.36, -183403.23, -187255.06, -183601.11, -187500.02, -187500.02, -187500.02, -128875.86, 0.000, 0.000, 0.000, 16:32:00.716, 1578580320716
187, -71406.38, -38871.09, -173293.98, -135719.91, -65021.85, -56903.00, -169902.67, -142979.41, 0.000, 0.000, 0.000, 16:32:00.716, 1578580320716
188, -187189.28, -183375.81, -187227.39, -183573.80, -187500.02, -187500.02, -187500.02, -128818.06, 0.000, 0.000, 0.000, 16:32:00.716, 1578580320716
189, -71583.27, -38998.25, -173278.14, -136049.59, -65185.22, -57061.05, -170242.97, -143277.22, 0.000, 0.000, 0.000, 16:32:00.717, 1578580320717
190, -187161.91, -183346.86, -187198.52, -183545.20, -187500.02, -187500.02, -187500.02, -128759.41, -0.002, -0.012, 0.978, 16:32:00.717, 1578580320717
191, -71760.92, -39122.77, -173264.61, -136379.14, -65349.35, -57213.49, -170578.38, -143573.72, 0.000, 0.000, 0.000, 16:32:00.717, 1578580320717
192, -187133.98, -183320.28, -187168.70, -183519.30, -187500.02, -187500.02, -187500.02, -128700.11, 0.000, 0.000, 0.000, 16:32:00.717, 1578580320717
193, -71935.53, -39245.30, -173249.53, -136707.27, -65512.54, -57364.48, -170912.27, -143867.56, 0.000, 0.000, 0.000, 16:32:00.717, 1578580320717
194, -187105.39, -183290.41, -187138.55, -183489.58, -187500.02, -187500.02, -187500.02, -128640.34, 0.000, 0.000, 0.000, 16:32:00.717, 1578580320717
195, -72111.46, -39370.03, -173236.98, -137035.59, -65674.72, -57515.69, -171249.09, -144162.20, 0.000, 0.000, 0.000, 16:32:00.717, 1578580320717
196, -187079.16, -183265.23, -187110.73, -183465.08, -187500.02, -187500.02, -187500.02, -128582.27, 0.000, 0.000, 0.000, 16:32:00.717, 1578580320717
197, -72290.34, -39497.59, -173218.97, -137365.25, -65840.08, -57670.67, -171585.84, -144461.06, 0.000, 0.000, 0.000, 16:32:00.717, 1578580320717
198, -187050.77, -183233.83, -187080.86, -183433.63, -187500.02, -187500.02, -187500.02, -128522.93, 0.000, 0.000, 0.000, 16:32:00.718, 1578580320718
199, -72469.59, -39622.27, -173207.86, -137688.53, -66001.81, -57824.70, -171921.92, -144758.86, 0.000, -0.022, 0.974, 16:32:00.718, 1578580320718
200, -187023.98, -183202.94, -187052.75, -183402.52, -187500.02, -187500.02, -187500.02, -128467.72, 0.000, 0.000, 0.000, 16:32:00.718, 1578580320718
201, -72644.89, -39742.61, -173191.33, -138011.11, -66158.61, -57974.84, -172252.78, -145053.94, 0.000, 0.000, 0.000, 16:32:00.718, 1578580320718
202, -186993.44, -183173.48, -187020.22, -183373.77, -187500.02, -187500.02, -187500.02, -128408.89, 0.000, 0.000, 0.000, 16:32:00.718, 1578580320718
203, -72819.50, -39865.81, -173177.02, -138338.58, -66318.85, -58126.07, -172584.52, -145350.28, 0.000, 0.000, 0.000, 16:32:00.718, 1578580320718
204, -186965.67, -183144.80, -186990.59, -183345.44, -187500.02, -187500.02, -187500.02, -128352.54, 0.000, 0.000, 0.000, 16:32:00.718, 1578580320718
205, -73010.70, -40001.55, -173159.42, -138679.63, -66492.91, -58292.45, -172764.20, -145665.58, 0.000, 0.000, 0.000, 16:32:00.718, 1578580320718
206, -186937.44, -183118.66, -186960.28, -183320.13, -187500.02, -187500.02, -187500.02, -128295.08, 0.000, 0.000, 0.000, 16:32:00.719, 1578580320719
207, -73213.65, -40152.70, -173146.91, -139034.28, -66685.82, -58471.98, -172771.33, -146007.80, 0.000, 0.000, 0.000, 16:32:00.719, 1578580320719
208, -186914.63, -183097.14, -186935.64, -183299.34, -187500.02, -187500.02, -187500.02, -128241.70, 0.000, 0.000, 0.000, 16:32:00.719, 1578580320719
209, -73416.36, -40304.89, -173139.36, -139390.25, -66874.98, -58653.14, -172761.19, -146355.44, 0.000, -0.018, 0.972, 16:32:00.719, 1578580320719
210, -186889.80, -183073.09, -186909.14, -183275.78, -187500.02, -187500.02, -187500.02, -128185.38, 0.000, 0.000, 0.000, 16:32:00.719, 1578580320719
211, -73621.05, -40461.24, -173124.06, -139751.14, -67064.51, -58833.48, -172745.86, -146702.81, 0.000, 0.000, 0.000, 16:32:00.719, 1578580320719
212, -186864.56, -183047.66, -186882.28, -183250.80, -187500.02, -187500.02, -187500.02, -128128.91, 0.000, 0.000, 0.000, 16:32:00.719, 1578580320719
213, -73826.31, -40615.62, -173111.64, -140109.14, -67255.39, -59012.94, -172733.50, -147050.72, 0.000, 0.000, 0.000, 16:32:00.719, 1578580320719
214, -186840.75, -183024.61, -186856.75, -183228.31, -187500.02, -187500.02, -187500.02, -128072.85, 0.000, 0.000, 0.000, 16:32:00.719, 1578580320719
215, -74028.57, -40769.38, -173099.95, -140468.38, -67446.07, -59195.64, -172722.88, -147396.52, 0.000, 0.000, 0.000, 16:32:00.720, 1578580320720
216, -186817.97, -183003.53, -186832.17, -183207.86, -187500.02, -187500.02, -187500.02, -128017.09, 0.000, 0.000, 0.000, 16:32:00.720, 1578580320720
217, -74227.68, -40918.84, -173087.61, -140823.34, -67635.64, -59376.67, -172711.67, -147743.38, 0.000, 0.000, 0.000, 16:32:00.720, 1578580320720
218, -186794.61, -182977.16, -186807.69, -183181.34, -187500.02, -187500.02, -187500.02, -127961.19, 0.000, 0.000, 0.000, 16:32:00.720, 1578580320720
219, -74430.84, -41069.94, -173074.11, -141180.78, -67829.30, -59558.99, -172697.08, -148093.56, 0.000, -0.020, 0.974, 16:32:00.720, 1578580320720
220, -186769.81, -182950.78, -186781.50, -183155.19, -187500.02, -187500.02, -187500.02, -127905.30, 0.000, 0.000, 0.000, 16:32:00.720, 1578580320720
221, -74637.01, -41223.50, -173065.02, -141539.78, -68023.33, -59742.52, -172686.17, -148445.75, 0.000, 0.000, 0.000, 16:32:00.720, 1578580320720
222, -186745.83, -182929.27, -186755.92, -183134.45, -187500.02, -187500.02, -187500.02, -127849.38, 0.000, 0.000, 0.000, 16:32:00.720, 1578580320720
223, -74841.57, -41378.31, -173052.09, -141897.63, -68215.76, -59926.28, -172675.09, -148794.23, 0.000, 0.000, 0.000, 16:32:00.720, 1578580320720
224, -186722.64, -182905.56, -186731.30, -183111.11, -187500.02, -187500.02, -187500.02, -127793.52, 0.000, 0.000, 0.000, 16:32:01.191, 1578580321191
225, -75043.74, -41527.80, -173038.45, -142253.02, -68406.70, -60108.09, -172663.06, -149142.08, 0.000, 0.000, 0.000, 16:32:01.192, 1578580321192
226, -186698.59, -182880.20, -186705.83, -183085.91, -187500.02, -187500.02, -187500.02, -127737.76, 0.000, 0.000, 0.000, 16:32:01.192, 1578580321192
227, -75250.63, -41679.83, -173027.63, -142609.83, -68598.24, -60292.75, -172651.31, -149488.66, 0.000, 0.000, 0.000, 16:32:01.192, 1578580321192
228, -186675.70, -182859.33, -186681.30, -183065.78, -187500.02, -187500.02, -187500.02, -127682.59, 0.000, 0.000, 0.000, 16:32:01.192, 1578580321192
229, -75456.13, -41834.73, -173017.72, -142970.11, -68792.41, -60478.50, -172640.69, -149840.72, 0.000, -0.024, 0.976, 16:32:01.192, 1578580321192
230, -186654.31, -182839.08, -186658.52, -183046.13, -187500.02, -187500.02, -187500.02, -127627.67, 0.000, 0.000, 0.000, 16:32:01.193, 1578580321193
231, -75661.95, -41990.43, -173005.33, -143326.05, -68985.37, -60659.41, -172627.36, -150187.69, 0.000, 0.000, 0.000, 16:32:01.193, 1578580321193
232, -186629.86, -182811.22, -186633.02, -183018.16, -187500.02, -187500.02, -187500.02, -127570.63, 0.000, 0.000, 0.000, 16:32:01.193, 1578580321193
233, -75865.77, -42142.34, -172993.80, -143681.70, -69175.02, -60838.54, -172615.52, -150533.50, 0.000, 0.000, 0.000, 16:32:01.193, 1578580321193
234, -186609.02, -182793.08, -186610.48, -183000.77, -187500.02, -187500.02, -187500.02, -127516.97, 0.000, 0.000, 0.000, 16:32:01.193, 1578580321193
235, -76071.48, -42295.02, -172981.70, -144035.53, -69364.23, -61018.67, -172604.80, -150877.27, 0.000, 0.000, 0.000, 16:32:01.194, 1578580321194
236, -186586.50, -182769.45, -186586.56, -182977.30, -187500.02, -187500.02, -187500.02, -127461.35, 0.000, 0.000, 0.000, 16:32:01.194, 1578580321194
237, -76279.21, -42448.06, -172970.11, -144394.16, -69557.48, -61201.53, -172594.91, -151228.83, 0.000, 0.000, 0.000, 16:32:01.198, 1578580321198
238, -186565.11, -182746.56, -186563.80, -182954.77, -187500.02, -187500.02, -187500.02, -127407.15, 0.000, -0.022, 0.978, 16:32:01.198, 1578580321198
239, -76483.20, -42600.12, -172953.84, -144750.30, -69748.48, -61384.55, -172581.34, -151579.00, 0.000, 0.000, 0.000, 16:32:01.198, 1578580321198
240, -186540.81, -182719.09, -186538.44, -182927.09, -187500.02, -187500.02, -187500.02, -127351.61, 0.000, 0.000, 0.000, 16:32:01.198, 1578580321198
241, -76684.36, -42753.19, -172944.88, -145107.47, -69938.52, -61563.95, -172567.02, -151925.98, 0.000, 0.000, 0.000, 16:32:01.198, 1578580321198
242, -186517.36, -182695.16, -186513.56, -182903.45, -187500.02, -187500.02, -187500.02, -127297.80, 0.000, 0.000, 0.000, 16:32:01.199, 1578580321199
243, -76889.17, -42907.95, -172934.84, -145463.89, -70131.03, -61745.35, -172557.70, -152274.27, 0.000, 0.000, 0.000, 16:32:01.199, 1578580321199
244, -186496.17, -182675.80, -186490.52, -182884.84, -187500.02, -187500.02, -187500.02, -127245.34, 0.000, 0.000, 0.000, 16:32:01.199, 1578580321199
245, -77097.16, -43062.60, -172922.45, -145821.92, -70325.49, -61926.78, -172545.83, -152622.63, 0.000, 0.000, 0.000, 16:32:01.199, 1578580321199
246, -186469.89, -182649.31, -186462.88, -182858.59, -187500.02, -187500.02, -187500.02, -127187.44, 0.000, 0.000, 0.000, 16:32:01.199, 1578580321199
247, -77302.43, -43216.45, -172909.22, -146175.67, -70516.47, -62108.43, -172532.17, -152965.95, 0.000, 0.000, 0.000, 16:32:01.199, 1578580321199
248, -186445.86, -182623.73, -186437.59, -182833.22, -187500.02, -187500.02, -187500.02, -127132.45, 0.000, -0.024, 0.978, 16:32:01.199, 1578580321199
249, -77505.72, -43367.39, -172896.11, -146528.69, -70706.59, -62289.06, -172521.23, -153309.31, 0.000, 0.000, 0.000, 16:32:01.199, 1578580321199
250, -186423.28, -182601.09, -186413.41, -182811.05, -187500.02, -187500.02, -187500.02, -127078.70, 0.000, 0.000, 0.000, 16:32:01.199, 1578580321199
251, -77710.17, -43520.75, -172883.92, -146885.47, -70900.13, -62471.02, -172507.72, -153655.88, 0.000, 0.000, 0.000, 16:32:01.199, 1578580321199
252, -186400.36, -182578.56, -186389.09, -182789.13, -187500.02, -187500.02, -187500.02, -127024.91, 0.000, 0.000, 0.000, 16:32:01.199, 1578580321199
253, -77918.98, -43676.22, -172873.30, -147241.52, -71094.98, -62656.63, -172496.34, -154006.16, 0.000, 0.000, 0.000, 16:32:01.199, 1578580321199
254, -186378.27, -182557.00, -186365.59, -182767.92, -187500.02, -187500.02, -187500.02, -126971.31, 0.000, 0.000, 0.000, 16:32:01.200, 1578580321200
255, -78124.46, -43826.83, -172862.94, -147594.86, -71287.09, -62842.33, -172486.63, -154355.13, 0.000, 0.000, 0.000, 16:32:01.200, 1578580321200
0, -186355.73, -182532.52, -186341.88, -182743.61, -187500.02, -187500.02, -187500.02, -126917.52, 0.000, 0.000, 0.000, 16:32:01.200, 1578580321200
1, -78326.68, -43978.08, -172848.11, -147947.31, -71475.55, -63024.05, -172472.25, -154698.45, 0.000, 0.000, 0.000, 16:32:01.200, 1578580321200
2, -186331.05, -182505.30, -186315.86, -182716.50, -187500.02, -187500.02, -187500.02, -126863.22, -0.002, -0.024, 0.980, 16:32:01.200, 1578580321200
3, -78533.08, -44131.04, -172835.73, -148300.25, -71669.13, -63205.90, -172459.03, -155046.06, 0.000, 0.000, 0.000, 16:32:01.200, 1578580321200
4, -186304.64, -182477.80, -186288.11, -182689.25, -187500.02, -187500.02, -187500.02, -126807.45, 0.000, 0.000, 0.000, 16:32:01.200, 1578580321200
5, -78738.45, -44285.89, -172820.28, -148659.69, -71866.09, -63391.78, -172444.75, -155395.45, 0.000, 0.000, 0.000, 16:32:01.200, 1578580321200
6, -186280.23, -182454.64, -186261.91, -182666.66, -187500.02, -187500.02, -187500.02, -126753.45, 0.000, 0.000, 0.000, 16:32:01.200, 1578580321200
7, -78940.75, -44438.64, -172812.27, -149015.72, -72058.18, -63574.06, -172434.36, -155741.39, 0.000, 0.000, 0.000, 16:32:01.200, 1578580321200
8, -186257.80, -182433.02, -186238.03, -182645.66, -187500.02, -187500.02, -187500.02, -126701.02, 0.000, 0.000, 0.000, 16:32:01.200, 1578580321200
9, -79143.08, -44589.49, -172801.17, -149370.64, -72245.64, -63757.43, -172424.50, -156083.64, 0.000, 0.000, 0.000, 16:32:01.200, 1578580321200
10, -186235.59, -182410.19, -186214.45, -182623.09, -187500.02, -187500.02, -187500.02, -126648.47, 0.000, 0.000, 0.000, 16:32:01.200, 1578580321200
11, -79348.16, -44744.04, -172788.50, -149726.33, -72437.28, -63939.51, -172412.55, -156429.89, 0.000, 0.000, 0.000, 16:32:01.200, 1578580321200
12, -186211.44, -182385.63, -186188.75, -182598.84, -187500.02, -187500.02, -187500.02, -126594.40, 0.002, -0.020, 0.978, 16:32:01.200, 1578580321200
13, -79554.37, -44900.18, -172775.63, -150084.81, -72633.82, -64121.09, -172400.27, -156777.61, 0.000, 0.000, 0.000, 16:32:01.200, 1578580321200
14, -186189.20, -182360.61, -186165.38, -182573.88, -187500.02, -187500.02, -187500.02, -126542.90, 0.000, 0.000, 0.000, 16:32:01.201, 1578580321201
15, -79758.64, -45054.48, -172761.55, -150443.97, -72826.90, -64303.46, -172387.53, -157126.05, 0.000, 0.000, 0.000, 16:32:01.201, 1578580321201
16, -186164.55, -182336.63, -186139.13, -182550.47, -187500.02, -187500.02, -187500.02, -126489.55, 0.000, 0.000, 0.000, 16:32:01.201, 1578580321201
17, -79964.34, -45205.39, -172749.36, -150798.97, -73015.32, -64486.17, -172374.88, -157472.86, 0.000, 0.000, 0.000, 16:32:01.201, 1578580321201
18, -186139.78, -182311.34, -186112.73, -182525.45, -187500.02, -187500.02, -187500.02, -126435.56, 0.000, 0.000, 0.000, 16:32:01.201, 1578580321201
19, -80168.44, -45357.54, -172739.61, -151157.11, -73205.80, -64669.43, -172364.11, -157821.19, 0.000, 0.000, 0.000, 16:32:01.201, 1578580321201
20, -186117.30, -182290.83, -186088.72, -182505.66, -187500.02, -187500.02, -187500.02, -126383.45, 0.000, 0.000, 0.000, 16:32:01.201, 1578580321201
21, -80373.79, -45512.66, -172727.84, -151516.06, -73398.70, -64853.07, -172351.91, -158170.39, 0.000, 0.000, 0.000, 16:32:01.201, 1578580321201
22, -186094.22, -182265.23, -186064.45, -182480.02, -187500.02, -187500.02, -187500.02, -126330.87, 0.004, -0.022, 0.980, 16:32:01.201, 1578580321201
23, -80578.91, -45664.21, -172718.63, -151871.36, -73588.87, -65034.61, -172342.25, -158516.73, 0.000, 0.000, 0.000, 16:32:01.201, 1578580321201
24, -186072.45, -182243.64, -186041.19, -182458.92, -187500.02, -187500.02, -187500.02, -126280.13, 0.000, 0.000, 0.000, 16:32:01.201, 1578580321201
25, -80781.08, -45817.48, -172703.61, -152224.31, -73778.66, -65214.34, -172329.03, -158860.86, 0.000, 0.000, 0.000, 16:32:01.201, 1578580321201
26, -186046.50, -182217.03, -186013.83, -182432.47, -187500.02, -187500.02, -187500.02, -126225.77, 0.000, 0.000, 0.000, 16:32:01.201, 1578580321201
27, -80983.56, -45969.07, -172692.45, -152576.16, -73969.95, -65395.70, -172318.42, -159206.27, 0.000, 0.000, 0.000, 16:32:01.201, 1578580321201
28, -186023.75, -182195.33, -185989.59, -182411.44, -187500.02, -187500.02, -187500.02, -126173.34, 0.000, 0.000, 0.000, 16:32:01.201, 1578580321201
29, -81188.40, -46122.04, -172681.80, -152931.17, -74162.75, -65580.10, -172304.73, -159553.75, 0.000, 0.000, 0.000, 16:32:01.201, 1578580321201
30, -186000.95, -182171.52, -185965.39, -182387.84, -187500.02, -187500.02, -187500.02, -126121.66, 0.000, 0.000, 0.000, 16:32:01.201, 1578580321201
31, -81392.34, -46273.07, -172671.56, -153289.02, -74352.77, -65765.36, -172295.83, -159899.41, 0.000, -0.020, 0.976, 16:32:01.202, 1578580321202
32, -185978.08, -182148.56, -185941.16, -182365.38, -187500.02, -187500.02, -187500.02, -126069.38, 0.000, 0.000, 0.000, 16:32:01.202, 1578580321202
33, -81593.70, -46424.80, -172658.80, -153643.53, -74545.75, -65947.34, -172283.28, -160244.97, 0.000, 0.000, 0.000, 16:32:01.202, 1578580321202
34, -185955.16, -182127.53, -185916.69, -182345.08, -187500.02, -187500.02, -187500.02, -126016.96, 0.000, 0.000, 0.000, 16:32:01.202, 1578580321202
35, -81795.58, -46579.18, -172648.22, -153995.17, -74734.80, -66127.68, -172272.52, -160591.20, 0.000, 0.000, 0.000, 16:32:01.202, 1578580321202
36, -185933.34, -182102.73, -185893.73, -182320.25, -187500.02, -187500.02, -187500.02, -125965.29, 0.000, 0.000, 0.000, 16:32:01.202, 1578580321202
37, -81999.43, -46734.46, -172633.25, -154348.89, -74923.02, -66311.08, -172260.33, -160938.25, 0.000, 0.000, 0.000, 16:32:01.202, 1578580321202
38, -185909.33, -182078.84, -185868.34, -182296.66, -187500.02, -187500.02, -187500.02, -125912.60, 0.000, 0.000, 0.000, 16:32:01.202, 1578580321202
39, -82203.43, -46889.22, -172622.50, -154701.67, -75113.52, -66493.17, -172247.70, -161284.97, 0.000, 0.000, 0.000, 16:32:01.202, 1578580321202
40, -185887.67, -182055.41, -185845.30, -182273.58, -187500.02, -187500.02, -187500.02, -125862.22, 0.000, 0.000, 0.000, 16:32:01.202, 1578580321202
41, -82406.43, -47043.38, -172611.86, -155052.77, -75303.13, -66672.52, -172236.30, -161630.08, -0.002, -0.020, 0.980, 16:32:01.202, 1578580321202
42, -185863.52, -182029.98, -185819.70, -182248.34, -187500.02, -187500.02, -187500.02, -125810.14, 0.000, 0.000, 0.000, 16:32:01.202, 1578580321202
43, -82608.70, -47196.36, -172598.16, -155409.03, -75496.28, -66853.62, -172223.83, -161974.22, 0.000, 0.000, 0.000, 16:32:01.202, 1578580321202
44, -185840.11, -182004.86, -185795.00, -182223.38, -187500.02, -187500.02, -187500.02, -125759.60, 0.000, 0.000, 0.000, 16:32:01.202, 1578580321202
45, -82814.38, -47348.48, -172586.64, -155764.09, -75689.80, -67037.48, -172212.23, -162319.45, 0.000, 0.000, 0.000, 16:32:01.202, 1578580321202
46, -185815.75, -181979.81, -185769.03, -182198.58, -187500.02, -187500.02, -187500.02, -125708.48, 0.000, 0.000, 0.000, 16:32:01.202, 1578580321202
47, -83019.12, -47499.87, -172576.47, -156117.70, -75879.84, -67220.30, -172201.45, -162665.78, 0.000, 0.000, 0.000, 16:32:01.202, 1578580321202
48, -185791.98, -181955.94, -185743.75, -182175.09, -187500.02, -187500.02, -187500.02, -125657.97, 0.000, 0.000, 0.000, 16:32:01.202, 1578580321202
49, -83219.23, -47647.66, -172564.38, -156471.19, -76068.05, -67403.20, -172189.77, -163008.86, 0.000, 0.000, 0.000, 16:32:01.203, 1578580321203
50, -185768.16, -181932.80, -185718.33, -182152.42, -187500.02, -187500.02, -187500.02, -125607.39, 0.000, 0.000, 0.000, 16:32:01.203, 1578580321203
51, -83419.63, -47798.55, -172549.98, -156824.22, -76258.14, -67587.34, -172175.55, -163353.66, 0.000, -0.024, 0.976, 16:32:01.203, 1578580321203
52, -185741.63, -181905.39, -185690.44, -182125.30, -187500.02, -187500.02, -187500.02, -125554.05, 0.000, 0.000, 0.000, 16:32:01.203, 1578580321203
53, -83623.80, -47948.54, -172539.09, -157178.53, -76450.72, -67771.25, -172165.42, -163701.02, 0.000, 0.000, 0.000, 16:32:01.203, 1578580321203
54, -185718.52, -181883.27, -185665.77, -182103.91, -187500.02, -187500.02, -187500.02, -125503.59, 0.000, 0.000, 0.000, 16:32:01.203, 1578580321203
55, -83826.33, -48099.21, -172528.30, -157531.05, -76640.53, -67953.73, -172153.44, -164044.92, 0.000, 0.000, 0.000, 16:32:01.203, 1578580321203
56, -185696.39, -181862.45, -185642.00, -182083.81, -187500.02, -187500.02, -187500.02, -125453.68, 0.000, 0.000, 0.000, 16:32:01.203, 1578580321203
57, -84028.32, -48247.73, -172519.77, -157882.45, -76827.62, -68134.38, -172143.81, -164385.08, 0.000, 0.000, 0.000, 16:32:01.203, 1578580321203
58, -185673.36, -181839.95, -185617.59, -182061.77, -187500.02, -187500.02, -187500.02, -125401.77, 0.000, 0.000, 0.000, 16:32:01.203, 1578580321203
59, -84230.52, -48398.07, -172501.27, -158239.38, -77016.71, -68315.87, -172127.52, -164728.38, 0.000, 0.000, 0.000, 16:32:01.203, 1578580321203
60, -185647.50, -181809.13, -185590.64, -182030.45, -187500.02, -187500.02, -187500.02, -125349.16, 0.000, 0.000, 0.000, 16:32:01.203, 1578580321203
61, -84436.95, -48549.69, -172490.34, -158597.31, -77207.41, -68501.37, -172118.13, -165073.14, 0.002, -0.030, 0.974, 16:32:01.203, 1578580321203
62, -185626.11, -181790.95, -185567.39, -182013.31, -187500.02, -187500.02, -187500.02, -125300.57, 0.000, 0.000, 0.000, 16:32:01.203, 1578580321203
63, -84642.50, -48700.00, -172481.91, -158951.50, -77396.35, -68684.61, -172107.78, -165419.23, 0.000, 0.000, 0.000, 16:32:01.203, 1578580321203
64, -185603.41, -181767.17, -185543.41, -181989.66, -187500.02, -187500.02, -187500.02, -125249.78, 0.000, 0.000, 0.000, 16:32:01.203, 1578580321203
65, -84845.85, -48851.50, -172468.25, -159304.44, -77585.18, -68865.55, -172093.36, -165762.66, 0.000, 0.000, 0.000, 16:32:01.203, 1578580321203
66, -185577.61, -181738.92, -185516.48, -181961.52, -187500.02, -187500.02, -187500.02, -125197.55, 0.000, 0.000, 0.000, 16:32:01.204, 1578580321204
67, -85049.03, -49001.26, -172455.23, -159660.38, -77775.69, -69048.47, -172081.97, -166105.50, 0.000, 0.000, 0.000, 16:32:01.204, 1578580321204
68, -185555.41, -181717.64, -185492.66, -181940.75, -187500.02, -187500.02, -187500.02, -125148.80, 0.000, 0.000, 0.000, 16:32:01.204, 1578580321204
69, -85255.65, -49156.43, -172442.36, -160018.08, -77968.27, -69232.42, -172071.23, -166447.16, 0.000, 0.000, 0.000, 16:32:01.204, 1578580321204
70, -185530.56, -181688.63, -185466.77, -181911.55, -187500.02, -187500.02, -187500.02, -125098.26, 0.002, -0.026, 0.976, 16:32:01.204, 1578580321204
71, -85457.00, -49307.19, -172428.30, -160373.14, -78157.95, -69416.80, -172057.48, -166790.86, 0.000, 0.000, 0.000, 16:32:01.204, 1578580321204
72, -185505.69, -181663.42, -185440.28, -181886.64, -187500.02, -187500.02, -187500.02, -125048.80, 0.000, 0.000, 0.000, 16:32:01.204, 1578580321204
73, -85658.74, -49455.29, -172420.84, -160725.05, -78346.15, -69595.80, -172047.25, -167130.38, 0.000, 0.000, 0.000, 16:32:01.204, 1578580321204
74, -185481.23, -181639.03, -185414.36, -181862.73, -187500.02, -187500.02, -187500.02, -124999.49, 0.000, 0.000, 0.000, 16:32:01.204, 1578580321204
75, -85863.75, -49606.95, -172405.48, -161077.44, -78535.51, -69778.61, -172034.28, -167471.56, 0.000, 0.000, 0.000, 16:32:01.204, 1578580321204
76, -185456.55, -181614.63, -185387.89, -181838.78, -187500.02, -187500.02, -187500.02, -124949.78, 0.000, 0.000, 0.000, 16:32:01.204, 1578580321204
77, -86069.26, -49763.56, -172394.06, -161434.06, -78729.14, -69965.92, -172022.53, -167815.38, 0.000, 0.000, 0.000, 16:32:01.204, 1578580321204
78, -185431.73, -181590.22, -185361.61, -181814.98, -187500.02, -187500.02, -187500.02, -124899.42, 0.000, 0.000, 0.000, 16:32:01.204, 1578580321204
79, -86267.88, -49917.14, -172385.63, -161788.09, -78919.24, -70150.14, -172011.69, -168153.63, 0.000, 0.000, 0.000, 16:32:01.204, 1578580321204
80, -185408.92, -181568.00, -185337.23, -181793.23, -187500.02, -187500.02, -187500.02, -124850.76, 0.000, -0.024, 0.970, 16:32:01.204, 1578580321204
81, -86462.16, -50065.67, -172373.42, -162139.77, -79106.60, -70330.39, -172000.36, -168490.17, 0.000, 0.000, 0.000, 16:32:01.204, 1578580321204
82, -185385.08, -181543.64, -185311.95, -181769.19, -187500.02, -187500.02, -187500.02, -124801.03, 0.000, 0.000, 0.000, 16:32:01.204, 1578580321204
83, -86664.73, -50217.80, -172359.58, -162492.13, -79295.74, -70512.15, -171986.94, -168831.13, 0.000, 0.000, 0.000, 16:32:01.204, 1578580321204
84, -185360.50, -181518.75, -185285.98, -181744.75, -187500.02, -187500.02, -187500.02, -124750.70, 0.000, 0.000, 0.000, 16:32:01.205, 1578580321205
85, -86869.43, -50371.06, -172350.03, -162847.67, -79486.22, -70699.86, -171976.28, -169171.58, 0.000, 0.000, 0.000, 16:32:01.205, 1578580321205
86, -185338.78, -181499.05, -185262.73, -181725.67, -187500.02, -187500.02, -187500.02, -124702.26, 0.000, 0.000, 0.000, 16:32:01.205, 1578580321205
87, -87072.85, -50521.42, -172341.27, -163201.50, -79675.80, -70881.72, -171967.88, -169504.97, 0.000, 0.000, 0.000, 16:32:01.205, 1578580321205
88, -185316.58, -181473.63, -185239.36, -181700.28, -187500.02, -187500.02, -187500.02, -124653.91, 0.000, 0.000, 0.000, 16:32:01.205, 1578580321205
89, -87272.05, -50672.45, -172328.25, -163553.30, -79863.05, -71059.59, -171955.45, -169836.75, 0.000, 0.000, 0.000, 16:32:01.670, 1578580321670
90, -185293.88, -181450.20, -185215.22, -181677.31, -187500.02, -187500.02, -187500.02, -124606.12, 0.002, -0.022, 0.976, 16:32:01.670, 1578580321670
91, -87473.64, -50824.49, -172314.52, -163906.66, -80053.22, -71239.77, -171943.77, -170174.80, 0.000, 0.000, 0.000, 16:32:01.670, 1578580321670
92, -185268.89, -181422.47, -185188.95, -181649.61, -187500.02, -187500.02, -187500.02, -124556.63, 0.000, 0.000, 0.000, 16:32:01.671, 1578580321671
93, -87675.56, -50977.78, -172300.98, -164260.33, -80246.76, -71423.99, -171929.83, -170513.25, 0.000, 0.000, 0.000, 16:32:01.671, 1578580321671
94, -185242.17, -181396.11, -185160.75, -181623.86, -187500.02, -187500.02, -187500.02, -124505.78, 0.000, 0.000, 0.000, 16:32:01.671, 1578580321671
95, -87877.49, -51129.10, -172287.06, -164611.31, -80438.09, -71605.95, -171915.52, -170847.52, 0.000, 0.000, 0.000, 16:32:01.671, 1578580321671
96, -185217.75, -181370.59, -185134.80, -181598.50, -187500.02, -187500.02, -187500.02, -124457.68, 0.000, 0.000, 0.000, 16:32:01.671, 1578580321671
97, -88077.52, -51275.64, -172276.84, -164963.00, -80624.44, -71786.13, -171905.11, -171175.39, 0.000, 0.000, 0.000, 16:32:01.672, 1578580321672
98, -185192.80, -181345.64, -185108.25, -181573.88, -187500.02, -187500.02, -187500.02, -124408.93, 0.000, 0.000, 0.000, 16:32:01.672, 1578580321672
99, -88280.18, -51427.41, -172266.00, -165318.33, -80814.96, -71965.66, -171892.52, -171506.72, 0.000, 0.000, 0.000, 16:32:01.672, 1578580321672
100, -185168.64, -181321.09, -185082.47, -181549.88, -187500.02, -187500.02, -187500.02, -124361.01, 0.000, -0.014, 0.966, 16:32:01.672, 1578580321672
101, -88486.82, -51581.43, -172253.59, -165674.56, -81006.16, -72147.72, -171881.69, -171840.86, 0.000, 0.000, 0.000, 16:32:01.672, 1578580321672
102, -185144.97, -181296.48, -185057.48, -181525.39, -187500.02, -187500.02, -187500.02, -124313.83, 0.000, 0.000, 0.000, 16:32:01.673, 1578580321673
103, -88686.98, -51730.29, -172245.91, -166027.02, -81193.31, -72329.88, -171871.86, -172170.86, 0.000, 0.000, 0.000, 16:32:01.673, 1578580321673
104, -185123.64, -181276.64, -185034.42, -181506.31, -187500.02, -187500.02, -187500.02, -124268.54, 0.000, 0.000, 0.000, 16:32:01.673, 1578580321673
105, -88891.39, -51882.84, -172229.03, -166383.20, -81385.31, -72517.20, -171857.19, -172396.39, 0.000, 0.000, 0.000, 16:32:01.673, 1578580321673
106, -185097.92, -181250.98, -185007.33, -181481.00, -187500.02, -187500.02, -187500.02, -124218.52, 0.000, 0.000, 0.000, 16:32:01.674, 1578580321674
107, -89116.55, -52055.56, -172216.16, -166762.47, -81597.68, -72725.11, -171841.92, -172441.67, 0.000, 0.000, 0.000, 16:32:01.674, 1578580321674
108, -185076.91, -181229.44, -184985.00, -181459.81, -187500.02, -187500.02, -187500.02, -124173.10, 0.000, 0.000, 0.000, 16:32:01.674, 1578580321674
109, -89352.80, -52240.03, -172205.67, -167155.33, -81820.63, -72944.20, -171830.95, -172430.16, 0.000, -0.018, 0.970, 16:32:01.674, 1578580321674
110, -185055.03, -181207.84, -184961.53, -181438.72, -187500.02, -187500.02, -187500.02, -124126.79, 0.000, 0.000, 0.000, 16:32:01.674, 1578580321674
111, -89588.31, -52423.82, -172196.73, -167547.63, -82045.09, -73160.77, -171820.22, -172419.58, 0.000, 0.000, 0.000, 16:32:01.675, 1578580321675
112, -185032.77, -181186.63, -184937.72, -181418.05, -187500.02, -187500.02, -187500.02, -124079.29, 0.000, 0.000, 0.000, 16:32:01.675, 1578580321675
113, -89823.52, -52604.89, -172186.88, -167938.64, -82268.14, -73373.96, -171811.78, -172412.09, 0.000, 0.000, 0.000, 16:32:01.675, 1578580321675
114, -185012.77, -181167.67, -184916.28, -181399.67, -187500.02, -187500.02, -187500.02, -124033.73, 0.000, 0.000, 0.000, 16:32:01.675, 1578580321675
115, -90059.24, -52787.80, -172175.91, -168328.98, -82492.26, -73591.22, -171799.80, -172401.25, 0.000, 0.000, 0.000, 16:32:01.676, 1578580321676
116, -184992.80, -181148.83, -184894.77, -181381.34, -187500.02, -187500.02, -187500.02, -123987.34, 0.000, 0.000, 0.000, 16:32:01.676, 1578580321676
117, -90298.07, -52972.18, -172167.08, -168719.64, -82716.07, -73810.17, -171792.02, -172392.58, 0.000, 0.000, 0.000, 16:32:01.676, 1578580321676
118, -184973.20, -181129.20, -184873.91, -181362.20, -187500.02, -187500.02, -187500.02, -123940.95, 0.000, 0.000, 0.000, 16:32:01.676, 1578580321676
119, -90534.28, -53154.26, -172156.22, -169108.17, -82937.40, -74023.70, -171782.61, -172382.45, 0.000, -0.016, 0.970, 16:32:01.676, 1578580321676
120, -184954.08, -181110.45, -184853.61, -181343.86, -187500.02, -187500.02, -187500.02, -123895.02, 0.000, 0.000, 0.000, 16:32:01.677, 1578580321677
121, -90765.80, -53335.64, -172149.73, -169496.22, -83156.53, -74237.23, -171774.95, -172375.08, 0.000, 0.000, 0.000, 16:32:01.677, 1578580321677
122, -184936.36, -181092.03, -184834.73, -181325.75, -187500.02, -187500.02, -187500.02, -123850.43, 0.000, 0.000, 0.000, 16:32:01.677, 1578580321677
123, -91001.77, -53519.71, -172139.61, -169888.03, -83379.65, -74452.74, -171764.17, -172366.95, 0.000, 0.000, 0.000, 16:32:01.678, 1578580321678
124, -184917.34, -181073.70, -184814.44, -181307.95, -187500.02, -187500.02, -187500.02, -123804.41, 0.000, 0.000, 0.000, 16:32:01.678, 1578580321678
125, -91240.71, -53707.98, -172128.86, -170280.75, -83603.79, -74668.26, -171754.64, -172353.48, 0.000, 0.000, 0.000, 16:32:01.679, 1578580321679
126, -184897.45, -181054.05, -184793.39, -181288.88, -187500.02, -187500.02, -187500.02, -123757.29, 0.000, 0.000, 0.000, 16:32:01.680, 1578580321680
127, -91479.18, -53892.58, -172118.44, -170672.42, -83827.31, -74882.95, -171746.63, -172345.31, 0.000, 0.000, 0.000, 16:32:01.680, 1578580321680
128, -184878.69, -181034.28, -184773.53, -181269.22, -187500.02, -187500.02, -187500.02, -123711.56, 0.000, 0.000, 0.000, 16:32:01.680, 1578580321680
129, -91711.84, -54072.71, -172110.64, -171059.55, -84048.37, -75097.37, -171735.22, -172336.69, -0.004, -0.020, 0.966, 16:32:01.680, 1578580321680
130, -184858.89, -181012.36, -184752.73, -181247.47, -187500.02, -187500.02, -187500.02, -123665.45, 0.000, 0.000, 0.000, 16:32:01.680, 1578580321680
131, -91947.79, -54255.24, -172100.17, -171448.80, -84270.19, -75312.81, -171722.88, -172324.61, 0.000, 0.000, 0.000, 16:32:01.680, 1578580321680
132, -184840.66, -180996.34, -184733.08, -181232.09, -187500.02, -187500.02, -187500.02, -123620.66, 0.000, 0.000, 0.000, 16:32:01.680, 1578580321680
133, -92196.70, -54451.02, -172077.06, -171724.95, -84508.30, -75539.53, -171715.69, -172314.48, 0.000, 0.000, 0.000, 16:32:01.680, 1578580321680
134, -184825.00, -180980.91, -184716.11, -181217.09, -187500.02, -187500.02, -187500.02, -123577.74, 0.000, 0.000, 0.000, 16:32:01.680, 1578580321680
135, -92477.12, -54681.73, -172062.25, -171741.81, -84778.33, -75797.18, -171704.69, -172303.02, 0.000, 0.000, 0.000, 16:32:01.680, 1578580321680
136, -184807.61, -180964.98, -184697.52, -181201.70, -187500.02, -187500.02, -187500.02, -123532.59, 0.000, 0.000, 0.000, 16:32:01.681, 1578580321681
137, -92759.22, -54912.94, -172056.77, -171734.27, -85049.05, -76057.24, -171697.25, -172293.91, 0.000, 0.000, 0.000, 16:32:01.681, 1578580321681
138, -184793.06, -180953.64, -184681.59, -181191.30, -187500.02, -187500.02, -187500.02, -123489.16, 0.000, 0.000, 0.000, 16:32:01.681, 1578580321681
139, -93044.63, -55147.36, -172053.11, -171733.05, -85319.16, -76318.62, -171697.83, -172292.98, 0.000, -0.018, 0.976, 16:32:01.681, 1578580321681
140, -184781.89, -180943.89, -184669.41, -181182.00, -187500.02, -187500.02, -187500.02, -123448.39, 0.000, 0.000, 0.000, 16:32:01.681, 1578580321681
141, -93332.21, -55385.90, -172045.66, -171729.41, -85589.41, -76585.14, -171689.69, -172284.83, 0.000, 0.000, 0.000, 16:32:01.682, 1578580321682
142, -184768.98, -180932.20, -184655.38, -181170.89, -187500.02, -187500.02, -187500.02, -123405.56, 0.000, 0.000, 0.000, 16:32:01.682, 1578580321682
143, -93616.50, -55620.53, -172042.17, -171723.53, -85859.13, -76850.28, -171681.06, -172279.44, 0.000, 0.000, 0.000, 16:32:01.683, 1578580321683
144, -184755.33, -180918.61, -184640.84, -181157.69, -187500.02, -187500.02, -187500.02, -123361.62, 0.000, 0.000, 0.000, 16:32:01.683, 1578580321683
145, -93899.41, -55852.67, -172036.16, -171715.53, -86130.14, -77114.03, -171677.06, -172275.64, 0.000, 0.000, 0.000, 16:32:01.683, 1578580321683
146, -184744.61, -180908.28, -184629.11, -181147.58, -187500.02, -187500.02, -187500.02, -123320.45, 0.000, 0.000, 0.000, 16:32:01.683, 1578580321683
147, -94183.09, -56086.16, -172031.64, -171707.84, -86400.40, -77378.30, -171669.45, -172268.36, 0.000, 0.000, 0.000, 16:32:01.683, 1578580321683
148, -184731.22, -180895.66, -184614.78, -181135.27, -187500.02, -187500.02, -187500.02, -123276.73, 0.000, -0.018, 0.976, 16:32:01.683, 1578580321683
149, -94470.23, -56322.75, -172023.17, -171703.56, -86674.63, -77642.20, -171665.89, -172261.05, 0.000, 0.000, 0.000, 16:32:01.684, 1578580321684
150, -184719.03, -180885.80, -184601.58, -181126.17, -187500.02, -187500.02, -187500.02, -123233.41, 0.000, 0.000, 0.000, 16:32:01.684, 1578580321684
151, -94755.55, -56555.12, -172017.83, -171698.30, -86946.79, -77904.03, -171660.72, -172256.53, 0.000, 0.000, 0.000, 16:32:01.684, 1578580321684
152, -184707.66, -180875.83, -184589.34, -181116.67, -187500.02, -187500.02, -187500.02, -123190.70, 0.000, 0.000, 0.000, 16:32:01.684, 1578580321684
153, -95038.85, -56786.55, -172014.17, -171692.13, -87216.59, -78165.21, -171657.39, -172253.33, 0.000, 0.000, 0.000, 16:32:01.684, 1578580321684
154, -184699.03, -180868.92, -184579.94, -181110.30, -187500.02, -187500.02, -187500.02, -123150.24, 0.000, 0.000, 0.000, 16:32:01.684, 1578580321684
155, -95325.91, -57022.92, -172007.95, -171687.88, -87490.76, -78430.77, -171649.23, -172243.25, 0.000, 0.000, 0.000, 16:32:01.684, 1578580321684
156, -184686.52, -180853.95, -184566.86, -181095.22, -187500.02, -187500.02, -187500.02, -123106.14, 0.000, 0.000, 0.000, 16:32:01.685, 1578580321685
157, -95614.34, -57259.33, -172000.44, -171679.25, -87766.60, -78699.48, -171642.08, -172237.53, 0.000, 0.000, 0.000, 16:32:01.686, 1578580321686
158, -184674.86, -180842.95, -184554.41, -181084.64, -187500.02, -187500.02, -187500.02, -123063.11, 0.000, -0.020, 0.976, 16:32:01.686, 1578580321686
159, -95899.84, -57494.74, -171994.25, -171671.03, -88035.92, -78965.63, -171636.31, -172233.47, 0.000, 0.000, 0.000, 16:32:01.687, 1578580321687
160, -184663.84, -180831.95, -184542.67, -181073.98, -187500.02, -187500.02, -187500.02, -123020.55, 0.000, 0.000, 0.000, 16:32:01.687, 1578580321687
161, -96180.60, -57724.63, -171989.52, -171668.08, -88304.38, -79226.31, -171632.09, -172227.63, 0.000, 0.000, 0.000, 16:32:01.687, 1578580321687
162, -184653.80, -180822.33, -184531.84, -181064.75, -187500.02, -187500.02, -187500.02, -122978.89, 0.000, 0.000, 0.000, 16:32:01.687, 1578580321687
163, -96466.55, -57957.38, -171983.64, -171664.77, -88572.96, -79487.67, -171626.45, -172220.81, 0.000, 0.000, 0.000, 16:32:01.687, 1578580321687
164, -184641.78, -180812.11, -184518.94, -181054.98, -187500.02, -187500.02, -187500.02, -122934.95, 0.000, 0.000, 0.000, 16:32:01.687, 1578580321687
165, -96753.08, -58191.38, -171981.77, -171661.44, -88848.36, -79752.83, -171620.11, -172218.63, 0.000, 0.000, 0.000, 16:32:01.687, 1578580321687
166, -184632.17, -180803.39, -184508.53, -181046.84, -187500.02, -187500.02, -187500.02, -122893.13, 0.000, 0.000, 0.000, 16:32:01.688, 1578580321688
167, -97037.66, -58424.82, -171973.41, -171649.70, -89118.75, -80018.35, -171613.83, -172210.70, 0.000, 0.000, 0.000, 16:32:01.688, 1578580321688
168, -184620.48, -180790.52, -184496.23, -181034.13, -187500.02, -187500.02, -187500.02, -122849.34, -0.002, -0.024, 0.978, 16:32:01.688, 1578580321688
169, -97320.09, -58656.86, -171966.58, -171644.88, -89384.94, -80278.77, -171607.95, -172205.34, 0.000, 0.000, 0.000, 16:32:01.688, 1578580321688
170, -184611.59, -180782.05, -184486.70, -181025.92, -187500.02, -187500.02, -187500.02, -122808.70, 0.000, 0.000, 0.000, 16:32:01.688, 1578580321688
171, -97601.48, -58887.90, -171966.63, -171647.41, -89650.74, -80539.77, -171606.45, -172205.50, 0.000, 0.000, 0.000, 16:32:01.688, 1578580321688
172, -184603.09, -180772.13, -184477.66, -181015.95, -187500.02, -187500.02, -187500.02, -122768.52, 0.000, 0.000, 0.000, 16:32:01.689, 1578580321689
173, -97890.52, -59123.71, -171956.81, -171638.64, -89924.04, -80804.28, -171600.22, -172195.69, 0.000, 0.000, 0.000, 16:32:01.689, 1578580321689
174, -184591.16, -180761.03, -184465.13, -181005.31, -187500.02, -187500.02, -187500.02, -122724.93, 0.000, 0.000, 0.000, 16:32:01.689, 1578580321689
175, -98177.91, -59356.46, -171951.05, -171629.86, -90192.80, -81068.19, -171592.61, -172188.27, 0.000, 0.000, 0.000, 16:32:01.689, 1578580321689
176, -184578.84, -180748.72, -184452.02, -180993.33, -187500.02, -187500.02, -187500.02, -122680.90, 0.000, 0.000, 0.000, 16:32:01.689, 1578580321689
177, -98457.20, -59585.93, -171945.89, -171623.61, -90459.65, -81327.73, -171589.06, -172184.63, 0.000, 0.000, 0.000, 16:32:01.689, 1578580321689
178, -184569.59, -180739.94, -184442.20, -180984.91, -187500.02, -187500.02, -187500.02, -122639.81, 0.000, -0.024, 0.974, 16:32:01.689, 1578580321689
179, -98741.31, -59820.22, -171940.94, -171620.52, -90732.10, -81588.27, -171583.39, -172178.88, 0.000, 0.000, 0.000, 16:32:01.691, 1578580321691
180, -184559.36, -180731.11, -184431.28, -180976.55, -187500.02, -187500.02, -187500.02, -122597.68, 0.000, 0.000, 0.000, 16:32:01.692, 1578580321692
181, -99028.82, -60056.57, -171935.09, -171617.58, -91006.53, -81851.52, -171578.83, -172172.38, 0.000, 0.000, 0.000, 16:32:01.692, 1578580321692
182, -184550.77, -180721.58, -184422.00, -180966.98, -187500.02, -187500.02, -187500.02, -122557.27, 0.000, 0.000, 0.000, 16:32:01.692, 1578580321692
183, -99314.54, -60288.66, -171930.38, -171609.38, -91276.90, -82113.80, -171572.78, -172168.34, 0.000, 0.000, 0.000, 16:32:01.692, 1578580321692
184, -184539.38, -180710.06, -184410.16, -180955.63, -187500.02, -187500.02, -187500.02, -122514.20, 0.000, 0.000, 0.000, 16:32:01.692, 1578580321692
185, -99598.07, -60522.11, -171925.08, -171601.42, -91545.52, -82374.29, -171566.75, -172161.94, 0.000, 0.000, 0.000, 16:32:01.692, 1578580321692
186, -184529.20, -180700.59, -184399.34, -180946.59, -187500.02, -187500.02, -187500.02, -122472.27, 0.000, 0.000, 0.000, 16:32:01.692, 1578580321692
187, -99883.91, -60755.13, -171918.30, -171597.16, -91815.89, -82634.28, -171560.50, -172155.88, 0.002, -0.026, 0.974, 16:32:01.692, 1578580321692
188, -184520.97, -180690.64, -184390.63, -180936.78, -187500.02, -187500.02, -187500.02, -122432.55, 0.000, 0.000, 0.000, 16:32:01.692, 1578580321692
189, -100171.10, -60987.34, -171913.41, -171597.44, -92088.13, -82895.04, -171557.33, -172155.20, 0.000, 0.000, 0.000, 16:32:01.692, 1578580321692
190, -184511.23, -180680.72, -184380.11, -180927.17, -187500.02, -187500.02, -187500.02, -122391.35, 0.000, 0.000, 0.000, 16:32:01.692, 1578580321692
191, -100460.38, -61222.79, -171905.78, -171585.73, -92358.73, -83158.03, -171550.13, -172143.66, 0.000, 0.000, 0.000, 16:32:01.692, 1578580321692
192, -184500.13, -180667.20, -184368.67, -180913.41, -187500.02, -187500.02, -187500.02, -122349.38, 0.000, 0.000, 0.000, 16:32:01.693, 1578580321693
193, -100744.65, -61454.82, -171899.19, -171580.03, -92627.86, -83416.88, -171541.92, -172137.59, 0.000, 0.000, 0.000, 16:32:01.693, 1578580321693
194, -184488.92, -180653.00, -184357.06, -180899.17, -187500.02, -187500.02, -187500.02, -122307.84, 0.000, 0.000, 0.000, 16:32:01.693, 1578580321693
195, -101027.84, -61686.48, -171898.36, -171577.91, -92895.44, -83674.49, -171537.89, -172135.53, 0.000, 0.000, 0.000, 16:32:01.693, 1578580321693
196, -184479.48, -180646.33, -184346.72, -180893.13, -187500.02, -187500.02, -187500.02, -122267.99, 0.000, 0.000, 0.000, 16:32:01.693, 1578580321693
197, -101314.71, -61919.23, -171890.08, -171571.25, -93167.41, -83936.52, -171532.17, -172128.13, 0.002, -0.020, 0.972, 16:32:01.693, 1578580321693
198, -184469.16, -180634.92, -184335.88, -180881.83, -187500.02, -187500.02, -187500.02, -122227.16, 0.000, 0.000, 0.000, 16:32:01.693, 1578580321693
199, -101600.39, -62152.15, -171886.25, -171570.02, -93439.81, -84196.78, -171526.47, -172123.16, 0.000, 0.000, 0.000, 16:32:01.693, 1578580321693
200, -184458.56, -180623.97, -184324.59, -180871.31, -187500.02, -187500.02, -187500.02, -122186.19, 0.000, 0.000, 0.000, 16:32:01.693, 1578580321693
201, -101884.30, -62383.76, -171879.91, -171560.27, -93710.80, -84456.33, -171520.98, -172117.09, 0.000, 0.000, 0.000, 16:32:01.693, 1578580321693
202, -184448.05, -180613.53, -184313.34, -180861.03, -187500.02, -187500.02, -187500.02, -122145.38, 0.000, 0.000, 0.000, 16:32:01.693, 1578580321693
203, -102169.15, -62615.95, -171873.11, -171556.63, -93982.47, -84716.26, -171519.13, -172113.64, 0.000, 0.000, 0.000, 16:32:01.693, 1578580321693
204, -184437.83, -180606.06, -184302.27, -180854.39, -187500.02, -187500.02, -187500.02, -122104.60, 0.000, 0.000, 0.000, 16:32:01.694, 1578580321694
205, -102456.68, -62849.93, -171871.30, -171551.13, -94254.87, -84981.53, -171515.38, -172110.69, 0.000, 0.000, 0.000, 16:32:01.694, 1578580321694
206, -184428.17, -180597.38, -184291.95, -180846.03, -187500.02, -187500.02, -187500.02, -122063.92, 0.000, 0.000, 0.000, 16:32:01.694, 1578580321694
207, -102742.30, -63085.25, -171860.77, -171542.38, -94525.79, -85245.23, -171504.06, -172102.25, 0.000, -0.018, 0.976, 16:32:01.694, 1578580321694
208, -184415.59, -180582.36, -184278.91, -180830.84, -187500.02, -187500.02, -187500.02, -122020.91, 0.000, 0.000, 0.000, 16:32:01.694, 1578580321694
209, -103021.98, -63317.62, -171860.05, -171539.70, -94793.03, -85505.52, -171499.92, -172098.09, 0.000, 0.000, 0.000, 16:32:02.150, 1578580322150
210, -184405.70, -180572.25, -184268.47, -180821.00, -187500.02, -187500.02, -187500.02, -121980.69, 0.000, 0.000, 0.000, 16:32:02.151, 1578580322151
211, -103308.26, -63551.71, -171851.36, -171527.86, -95064.91, -85767.73, -171496.91, -172089.52, 0.000, 0.000, 0.000, 16:32:02.151, 1578580322151
212, -184393.39, -180560.27, -184255.50, -180809.22, -187500.02, -187500.02, -187500.02, -121937.93, 0.000, 0.000, 0.000, 16:32:02.151, 1578580322151
213, -103597.36, -63787.54, -171844.52, -171521.22, -95339.64, -86034.56, -171488.50, -172082.56, 0.000, 0.000, 0.000, 16:32:02.151, 1578580322151
214, -184383.53, -180549.63, -184245.02, -180798.84, -187500.02, -187500.02, -187500.02, -121897.78, 0.000, 0.000, 0.000, 16:32:02.151, 1578580322151
215, -103882.95, -64019.13, -171839.88, -171518.42, -95608.82, -86294.07, -171483.16, -172078.98, 0.000, 0.000, 0.000, 16:32:02.151, 1578580322151
216, -184373.78, -180539.66, -184234.77, -180789.11, -187500.02, -187500.02, -187500.02, -121857.99, 0.000, 0.000, 0.000, 16:32:02.151, 1578580322151
217, -104164.06, -64250.00, -171835.28, -171515.72, -95873.60, -86551.96, -171477.13, -172074.47, -0.004, -0.020, 0.968, 16:32:02.151, 1578580322151
218, -184363.34, -180529.48, -184223.61, -180779.27, -187500.02, -187500.02, -187500.02, -121817.63, 0.000, 0.000, 0.000, 16:32:02.151, 1578580322151
219, -104447.42, -64483.46, -171829.39, -171508.75, -96143.08, -86813.01, -171470.63, -172068.50, 0.000, 0.000, 0.000, 16:32:02.151, 1578580322151
220, -184353.05, -180520.55, -184212.61, -180770.78, -187500.02, -187500.02, -187500.02, -121776.86, 0.000, 0.000, 0.000, 16:32:02.151, 1578580322151
221, -104733.07, -64721.11, -171824.72, -171503.50, -96417.69, -87074.93, -171464.06, -172063.81, 0.000, 0.000, 0.000, 16:32:02.151, 1578580322151
222, -184344.19, -180511.86, -184203.16, -180762.44, -187500.02, -187500.02, -187500.02, -121737.70, 0.000, 0.000, 0.000, 16:32:02.151, 1578580322151
223, -105016.38, -64952.00, -171820.31, -171502.19, -96685.71, -87334.88, -171461.34, -172059.03, 0.000, 0.000, 0.000, 16:32:02.151, 1578580322151
224, -184333.38, -180498.69, -184191.95, -180749.16, -187500.02, -187500.02, -187500.02, -121696.88, 0.000, 0.000, 0.000, 16:32:02.151, 1578580322151
225, -105299.42, -65185.48, -171811.42, -171492.66, -96952.90, -87596.73, -171451.13, -172049.84, 0.000, 0.000, 0.000, 16:32:02.152, 1578580322152
226, -184320.53, -180484.88, -184178.61, -180735.47, -187500.02, -187500.02, -187500.02, -121654.44, 0.000, 0.000, 0.000, 16:32:02.152, 1578580322152
227, -105581.45, -65418.03, -171807.42, -171486.84, -97219.13, -87859.30, -171447.69, -172045.11, 0.000, -0.022, 0.970, 16:32:02.152, 1578580322152
228, -184311.66, -180477.14, -184168.89, -180728.11, -187500.02, -187500.02, -187500.02, -121615.77, 0.000, 0.000, 0.000, 16:32:02.152, 1578580322152
229, -105867.94, -65653.40, -171804.20, -171481.86, -97490.13, -88121.73, -171446.13, -172042.28, 0.000, 0.000, 0.000, 16:32:02.152, 1578580322152
230, -184302.75, -180470.03, -184159.19, -180721.61, -187500.02, -187500.02, -187500.02, -121576.86, 0.000, 0.000, 0.000, 16:32:02.152, 1578580322152
231, -106151.49, -65885.52, -171796.44, -171477.64, -97758.50, -88380.78, -171439.39, -172035.22, 0.000, 0.000, 0.000, 16:32:02.152, 1578580322152
232, -184292.16, -180458.03, -184148.14, -180709.67, -187500.02, -187500.02, -187500.02, -121536.55, 0.000, 0.000, 0.000, 16:32:02.152, 1578580322152
233, -106433.70, -66117.35, -171789.95, -171471.89, -98027.02, -88638.63, -171431.45, -172029.86, 0.000, 0.000, 0.000, 16:32:02.152, 1578580322152
234, -184280.16, -180444.73, -184135.88, -180696.48, -187500.02, -187500.02, -187500.02, -121495.12, 0.000, 0.000, 0.000, 16:32:02.152, 1578580322152
235, -106721.98, -66353.19, -171785.20, -171468.36, -98296.71, -88900.66, -171428.23, -172023.80, 0.000, 0.000, 0.000, 16:32:02.152, 1578580322152
236, -184270.84, -180434.66, -184125.97, -180686.47, -187500.02, -187500.02, -187500.02, -121456.34, -0.002, -0.020, 0.976, 16:32:02.152, 1578580322152
237, -107011.16, -66589.11, -171779.78, -171465.80, -98564.87, -89163.95, -171420.84, -172019.36, 0.000, 0.000, 0.000, 16:32:02.152, 1578580322152
238, -184260.48, -180422.52, -184115.11, -180674.33, -187500.02, -187500.02, -187500.02, -121416.88, 0.000, 0.000, 0.000, 16:32:02.152, 1578580322152
239, -107300.06, -66824.36, -171771.58, -171453.47, -98833.89, -89429.13, -171414.72, -172011.91, 0.000, 0.000, 0.000, 16:32:02.152, 1578580322152
240, -184249.84, -180410.89, -184104.00, -180662.89, -187500.02, -187500.02, -187500.02, -121377.88, 0.000, 0.000, 0.000, 16:32:02.153, 1578580322153
241, -107581.65, -67052.62, -171770.63, -171450.06, -99098.71, -89688.77, -171414.11, -172010.97, 0.000, 0.000, 0.000, 16:32:02.153, 1578580322153
242, -184241.31, -180403.69, -184094.53, -180656.22, -187500.02, -187500.02, -187500.02, -121340.28, 0.000, 0.000, 0.000, 16:32:02.153, 1578580322153
243, -107865.80, -67285.41, -171762.20, -171443.78, -99368.48, -89949.85, -171404.23, -172002.02, 0.000, 0.000, 0.000, 16:32:02.153, 1578580322153
244, -184228.09, -180389.39, -184080.78, -180642.02, -187500.02, -187500.02, -187500.02, -121298.48, 0.000, 0.000, 0.000, 16:32:02.153, 1578580322153
245, -108155.44, -67524.44, -171758.44, -171438.30, -99640.16, -90214.77, -171399.50, -171996.64, 0.000, 0.000, 0.000, 16:32:02.153, 1578580322153
246, -184217.48, -180378.91, -184069.47, -180631.91, -187500.02, -187500.02, -187500.02, -121259.26, 0.000, -0.022, 0.978, 16:32:02.153, 1578580322153
247, -108443.24, -67760.65, -171749.48, -171431.91, -99912.72, -90478.61, -171391.73, -171988.28, 0.000, 0.000, 0.000, 16:32:02.153, 1578580322153
248, -184207.53, -180369.31, -184058.88, -180622.55, -187500.02, -187500.02, -187500.02, -121220.75, 0.000, 0.000, 0.000, 16:32:02.153, 1578580322153
249, -108727.17, -67993.42, -171747.72, -171427.53, -100180.70, -90737.04, -171392.25, -171987.56, 0.000, 0.000, 0.000, 16:32:02.153, 1578580322153
250, -184197.25, -180357.56, -184048.14, -180610.78, -187500.02, -187500.02, -187500.02, -121182.19, 0.000, 0.000, 0.000, 16:32:02.153, 1578580322153
251, -109016.05, -68229.77, -171738.38, -171419.23, -100453.52, -90998.46, -171382.59, -171977.06, 0.000, 0.000, 0.000, 16:32:02.153, 1578580322153
252, -184186.33, -180346.81, -184036.34, -180600.34, -187500.02, -187500.02, -187500.02, -121142.94, 0.000, 0.000, 0.000, 16:32:02.153, 1578580322153
253, -109305.30, -68467.73, -171736.92, -171419.09, -100727.48, -91262.52, -171377.30, -171976.39, 0.000, 0.000, 0.000, 16:32:02.153, 1578580322153
254, -184176.00, -180337.06, -184025.48, -180590.95, -187500.02, -187500.02, -187500.02, -121104.07, 0.000, 0.000, 0.000, 16:32:02.153, 1578580322153
255, -109591.78, -68703.07, -171728.67, -171408.86, -101000.65, -91526.26, -171371.02, -171969.13, 0.000, 0.000, 0.000, 16:32:02.153, 1578580322153
0, -184162.16, -180319.50, -184011.33, -180573.02, -187500.02, -187500.02, -187500.02, -121062.74, 0.004, -0.016, 0.980, 16:32:02.153, 1578580322153
1, -109876.05, -68934.30, -171722.36, -171402.06, -101270.45, -91787.13, -171364.77, -171961.00, 0.000, 0.000, 0.000, 16:32:02.154, 1578580322154
2, -184151.23, -180310.27, -183999.58, -180564.27, -187500.02, -187500.02, -187500.02, -121024.25, 0.000, 0.000, 0.000, 16:32:02.154, 1578580322154
3, -110164.08, -69165.57, -171719.11, -171395.66, -101537.00, -92046.78, -171361.66, -171955.98, 0.000, 0.000, 0.000, 16:32:02.154, 1578580322154
4, -184139.67, -180300.20, -183987.28, -180554.86, -187500.02, -187500.02, -187500.02, -120984.53, 0.000, 0.000, 0.000, 16:32:02.154, 1578580322154
5, -110454.54, -69400.33, -171712.22, -171396.59, -101803.30, -92308.92, -171356.98, -171951.34, 0.000, 0.000, 0.000, 16:32:02.154, 1578580322154
6, -184129.28, -180290.11, -183976.20, -180545.09, -187500.02, -187500.02, -187500.02, -120945.91, 0.000, 0.000, 0.000, 16:32:02.154, 1578580322154
7, -110741.09, -69635.41, -171706.44, -171388.95, -102071.05, -92570.30, -171349.52, -171947.63, 0.000, 0.000, 0.000, 16:32:02.154, 1578580322154
8, -184118.05, -180279.52, -183964.31, -180534.91, -187500.02, -187500.02, -187500.02, -120906.52, 0.000, 0.000, 0.000, 16:32:02.154, 1578580322154
9, -111024.09, -69865.67, -171702.66, -171385.02, -102335.36, -92829.43, -171344.02, -171938.39, 0.000, 0.000, 0.000, 16:32:02.154, 1578580322154
10, -184108.45, -180270.13, -183953.94, -180525.78, -187500.02, -187500.02, -187500.02, -120868.46, 0.002, -0.018, 0.978, 16:32:02.154, 1578580322154
11, -111309.91, -70098.58, -171697.52, -171380.55, -102602.69, -93091.55, -171339.81, -171935.02, 0.000, 0.000, 0.000, 16:32:02.154, 1578580322154
12, -184099.20, -180261.09, -183944.05, -180517.02, -187500.02, -187500.02, -187500.02, -120830.91, 0.000, 0.000, 0.000, 16:32:02.154, 1578580322154
13, -111597.70, -70335.10, -171692.14, -171374.55, -102874.30, -93354.16, -171336.20, -171931.95, 0.000, 0.000, 0.000, 16:32:02.154, 1578580322154
14, -184089.78, -180251.22, -183934.17, -180507.14, -187500.02, -187500.02, -187500.02, -120793.23, 0.000, 0.000, 0.000, 16:32:02.154, 1578580322154
15, -111881.01, -70567.80, -171689.33, -171368.06, -103143.04, -93614.58, -171328.50, -171925.25, 0.000, 0.000, 0.000, 16:32:02.154, 1578580322154
16, -184078.33, -180238.09, -183922.08, -180494.16, -187500.02, -187500.02, -187500.02, -120753.84, 0.000, 0.000, 0.000, 16:32:02.154, 1578580322154
17, -112163.27, -70798.19, -171680.25, -171362.33, -103411.15, -93872.85, -171321.25, -171917.66, 0.000, 0.000, 0.000, 16:32:02.155, 1578580322155
18, -184066.31, -180225.47, -183909.44, -180481.72, -187500.02, -187500.02, -187500.02, -120714.05, 0.000, 0.000, 0.000, 16:32:02.155, 1578580322155
19, -112449.09, -71029.53, -171674.11, -171356.98, -103679.37, -94133.72, -171316.38, -171912.84, 0.004, -0.014, 0.974, 16:32:02.155, 1578580322155
20, -184055.50, -180218.06, -183897.81, -180475.09, -187500.02, -187500.02, -187500.02, -120675.25, 0.000, 0.000, 0.000, 16:32:02.155, 1578580322155
21, -112735.83, -71260.91, -171670.56, -171354.53, -103948.51, -94393.88, -171308.38, -171904.22, 0.000, 0.000, 0.000, 16:32:02.155, 1578580322155
22, -184045.31, -180204.98, -183887.22, -180461.78, -187500.02, -187500.02, -187500.02, -120637.10, 0.000, 0.000, 0.000, 16:32:02.155, 1578580322155
23, -113021.30, -71493.52, -171662.94, -171344.28, -104216.23, -94654.00, -171304.86, -171901.89, 0.000, 0.000, 0.000, 16:32:02.155, 1578580322155
24, -184034.20, -180192.27, -183875.72, -180449.11, -187500.02, -187500.02, -187500.02, -120598.63, 0.000, 0.000, 0.000, 16:32:02.155, 1578580322155
25, -113304.92, -71725.83, -171657.13, -171336.47, -104479.72, -94912.01, -171298.95, -171896.91, 0.000, 0.000, 0.000, 16:32:02.155, 1578580322155
26, -184022.94, -180179.22, -183864.08, -180436.16, -187500.02, -187500.02, -187500.02, -120560.43, 0.000, 0.000, 0.000, 16:32:02.155, 1578580322155
27, -113593.64, -71961.10, -171647.41, -171329.13, -104753.34, -95175.11, -171289.38, -171888.22, 0.000, 0.000, 0.000, 16:32:02.155, 1578580322155
28, -184010.59, -180166.77, -183851.14, -180423.86, -187500.02, -187500.02, -187500.02, -120521.43, 0.000, 0.000, 0.000, 16:32:02.155, 1578580322155
29, -113882.13, -72197.43, -171645.77, -171325.05, -105026.48, -95435.93, -171286.47, -171883.03, 0.002, -0.016, 0.978, 16:32:02.155, 1578580322155
30, -184000.56, -180158.92, -183840.28, -180416.53, -187500.02, -187500.02, -187500.02, -120484.21, 0.000, 0.000, 0.000, 16:32:02.155, 1578580322155
31, -114170.09, -72432.03, -171639.00, -171314.58, -105298.33, -95698.55, -171280.89, -171877.67, 0.000, 0.000, 0.000, 16:32:02.155, 1578580322155
32, -183989.30, -180148.53, -183828.19, -180406.78, -187500.02, -187500.02, -187500.02, -120445.57, 0.000, 0.000, 0.000, 16:32:02.156, 1578580322156
33, -114451.09, -72661.14, -171635.94, -171317.63, -105564.20, -95957.65, -171278.89, -171876.73, 0.000, 0.000, 0.000, 16:32:02.156, 1578580322156
34, -183980.94, -180140.38, -183819.38, -180398.78, -187500.02, -187500.02, -187500.02, -120409.94, 0.000, 0.000, 0.000, 16:32:02.156, 1578580322156
35, -114735.66, -72895.59, -171631.58, -171314.66, -105833.95, -96220.44, -171275.28, -171870.16, 0.000, 0.000, 0.000, 16:32:02.156, 1578580322156
36, -183969.36, -180125.11, -183807.58, -180383.25, -187500.02, -187500.02, -187500.02, -120371.70, 0.000, 0.000, 0.000, 16:32:02.156, 1578580322156
37, -115024.80, -73132.80, -171623.64, -171306.42, -106107.04, -96487.67, -171266.06, -171861.13, 0.000, 0.000, 0.000, 16:32:02.156, 1578580322156
38, -183958.89, -180116.19, -183796.31, -180374.84, -187500.02, -187500.02, -187500.02, -120334.37, 0.000, 0.000, 0.000, 16:32:02.156, 1578580322156
39, -115309.61, -73365.51, -171620.98, -171301.55, -106372.41, -96750.66, -171261.78, -171858.89, 0.002, -0.018, 0.974, 16:32:02.156, 1578580322156
40, -183946.94, -180103.72, -183783.72, -180362.45, -187500.02, -187500.02, -187500.02, -120295.61, 0.000, 0.000, 0.000, 16:32:02.156, 1578580322156
41, -115594.10, -73597.38, -171611.84, -171295.03, -106640.30, -97011.38, -171253.98, -171851.09, 0.000, 0.000, 0.000, 16:32:02.156, 1578580322156
42, -183936.20, -180090.30, -183772.58, -180349.00, -187500.02, -187500.02, -187500.02, -120258.66, 0.000, 0.000, 0.000, 16:32:02.156, 1578580322156
