%OpenBCI Raw EEG Data
%Number of channels = 8
%Sample Rate = 250.0 Hz
%First Column = SampleIndex
%Last Column = Timestamp 
%Other Columns = EEG data in microvolts followed by Accel Data (in G) interleaved with Aux Data
0, -91719.64, -90630.04, -93750.01, -93750.01, -93750.01, -93750.01, -93750.01, -80160.88, -0.012, -0.004, 0.994, 16:32:33.791, 1578580353791
1, -180576.86, -181497.14, -187378.42, -187235.42, -187274.00, -187314.52, -187347.27, -187332.17, 0.000, 0.000, 0.000, 16:32:33.792, 1578580353792
2, -183441.39, -181265.75, -187500.02, -187500.02, -187500.02, -187500.02, -187500.02, -160320.67, 0.000, 0.000, 0.000, 16:32:33.793, 1578580353793
3, -180583.09, -181508.94, -187380.33, -187237.27, -187275.81, -187316.42, -187349.14, -187333.98, 0.000, 0.000, 0.000, 16:32:33.794, 1578580353794
4, -183442.55, -181268.91, -187500.02, -187500.02, -187500.02, -187500.02, -187500.02, -160318.00, 0.000, 0.000, 0.000, 16:32:33.794, 1578580353794
5, -180590.67, -181522.48, -187384.08, -187241.05, -187279.53, -187320.31, -187352.92, -187337.81, 0.000, 0.000, 0.000, 16:32:33.794, 1578580353794
6, -183445.19, -181274.31, -187500.02, -187500.02, -187500.02, -187500.02, -187500.02, -160317.28, 0.000, 0.000, 0.000, 16:32:33.794, 1578580353794
7, -180597.31, -181534.84, -187386.58, -187243.63, -187282.09, -187322.98, -187355.38, -187340.38, -0.010, -0.012, 0.986, 16:32:33.794, 1578580353794
8, -183447.47, -181277.64, -187500.02, -187500.02, -187500.02, -187500.02, -187500.02, -160316.20, 0.000, 0.000, 0.000, 16:32:33.794, 1578580353794
9, -180600.92, -181544.64, -187389.59, -187246.66, -187285.23, -187326.16, -187358.50, -187343.55, 0.000, 0.000, 0.000, 16:32:33.794, 1578580353794
10, -183449.67, -181283.30, -187500.02, -187500.02, -187500.02, -187500.02, -187500.02, -160315.06, 0.000, 0.000, 0.000, 16:32:33.794, 1578580353794
11, -180607.81, -181556.86, -187393.70, -187250.70, -187289.31, -187330.34, -187362.55, -187347.67, 0.000, 0.000, 0.000, 16:32:33.794, 1578580353794
12, -183454.86, -181289.03, -187500.02, -187500.02, -187500.02, -187500.02, -187500.02, -160317.17, 0.000, 0.000, 0.000, 16:32:33.794, 1578580353794
13, -180616.14, -181569.89, -187400.06, -187257.05, -187295.77, -187336.83, -187369.03, -187354.08, 0.000, 0.000, 0.000, 16:32:33.795, 1578580353795
14, -183458.03, -181295.22, -187500.02, -187500.02, -187500.02, -187500.02, -187500.02, -160317.61, 0.000, 0.000, 0.000, 16:32:33.795, 1578580353795
15, -180622.09, -181581.88, -187402.09, -187259.06, -187297.83, -187338.91, -187370.95, -187356.03, 0.000, 0.000, 0.000, 16:32:33.795, 1578580353795
16, -183459.05, -181299.00, -187500.02, -187500.02, -187500.02, -187500.02, -187500.02, -160316.00, -0.004, -0.016, 0.978, 16:32:33.795, 1578580353795
17, -180626.91, -181593.17, -187405.05, -187261.97, -187300.80, -187341.88, -187373.95, -187358.91, 0.000, 0.000, 0.000, 16:32:33.795, 1578580353795
18, -183462.33, -181304.53, -187500.02, -187500.02, -187500.02, -187500.02, -187500.02, -160316.83, 0.000, 0.000, 0.000, 16:32:33.795, 1578580353795
19, -180632.78, -181604.81, -187408.69, -187265.69, -187304.50, -187345.70, -187377.59, -187362.64, 0.000, 0.000, 0.000, 16:32:33.795, 1578580353795
20, -183464.16, -181309.05, -187500.02, -187500.02, -187500.02, -187500.02, -187500.02, -160316.27, 0.000, 0.000, 0.000, 16:32:33.795, 1578580353795
21, -180640.17, -181618.31, -187413.56, -187270.53, -187309.31, -187350.69, -187382.31, -187367.48, 0.000, 0.000, 0.000, 16:32:33.795, 1578580353795
22, -183468.61, -181316.30, -187500.02, -187500.02, -187500.02, -187500.02, -187500.02, -160318.86, 0.000, 0.000, 0.000, 16:32:33.795, 1578580353795
23, -180646.95, -181630.52, -187416.38, -187273.39, -187312.16, -187353.59, -187385.38, -187370.36, 0.000, 0.000, 0.000, 16:32:33.795, 1578580353795
24, -183470.13, -181318.75, -187500.02, -187500.02, -187500.02, -187500.02, -187500.02, -160318.55, 0.000, 0.000, 0.000, 16:32:33.795, 1578580353795
25, -180651.16, -181640.06, -187419.84, -187276.86, -187315.48, -187357.05, -187388.88, -187373.80, 0.000, 0.000, 0.000, 16:32:33.795, 1578580353795
26, -183473.27, -181324.78, -187500.02, -187500.02, -187500.02, -187500.02, -187500.02, -160319.89, 0.002, -0.020, 0.980, 16:32:33.795, 1578580353795
27, -180659.06, -181652.16, -187424.17, -187281.14, -187319.92, -187361.55, -187393.17, -187378.09, 0.000, 0.000, 0.000, 16:32:33.795, 1578580353795
28, -183476.55, -181330.83, -187500.02, -187500.02, -187500.02, -187500.02, -187500.02, -160321.61, 0.000, 0.000, 0.000, 16:32:33.795, 1578580353795
29, -180668.23, -181666.77, -187428.06, -187285.02, -187323.81, -187365.53, -187397.16, -187382.06, 0.000, 0.000, 0.000, 16:32:33.795, 1578580353795
30, -183478.02, -181334.11, -187500.02, -187500.02, -187500.02, -187500.02, -187500.02, -160321.92, 0.000, 0.000, 0.000, 16:32:33.796, 1578580353796
31, -180675.67, -181679.17, -187428.78, -187285.80, -187324.70, -187366.38, -187398.05, -187382.92, 0.000, 0.000, 0.000, 16:32:33.796, 1578580353796
32, -183480.84, -181337.03, -187500.02, -187500.02, -187500.02, -187500.02, -187500.02, -160323.78, 0.000, 0.000, 0.000, 16:32:33.796, 1578580353796
33, -180681.08, -181690.19, -187433.72, -187290.69, -187329.56, -187371.41, -187402.83, -187387.81, 0.000, 0.000, 0.000, 16:32:33.796, 1578580353796
34, -183483.66, -181340.84, -187500.02, -187500.02, -187500.02, -187500.02, -187500.02, -160325.39, 0.000, 0.000, 0.000, 16:32:33.796, 1578580353796
35, -180687.78, -181702.75, -187437.88, -187294.77, -187333.70, -187375.58, -187406.89, -187391.92, 0.000, 0.000, 0.000, 16:32:33.796, 1578580353796
36, -183487.34, -181349.00, -187500.02, -187500.02, -187500.02, -187500.02, -187500.02, -160327.69, 0.000, -0.018, 0.974, 16:32:33.796, 1578580353796
37, -180696.75, -181718.41, -187441.19, -187298.16, -187337.00, -187379.00, -187410.27, -187395.25, 0.000, 0.000, 0.000, 16:32:33.796, 1578580353796
38, -183489.47, -181351.75, -187500.02, -187500.02, -187500.02, -187500.02, -187500.02, -160329.19, 0.000, 0.000, 0.000, 16:32:33.796, 1578580353796
39, -180703.67, -181730.14, -187443.08, -187299.97, -187338.92, -187381.00, -187412.22, -187397.25, 0.000, 0.000, 0.000, 16:32:33.796, 1578580353796
40, -183490.16, -181351.50, -187500.02, -187500.02, -187500.02, -187500.02, -187500.02, -160329.53, 0.000, 0.000, 0.000, 16:32:33.796, 1578580353796
41, -180708.94, -181741.73, -187445.28, -187302.22, -187341.20, -187383.30, -187414.55, -187399.45, 0.000, 0.000, 0.000, 16:32:33.796, 1578580353796
42, -183494.03, -181358.47, -187500.02, -187500.02, -187500.02, -187500.02, -187500.02, -160332.36, 0.000, 0.000, 0.000, 16:32:33.796, 1578580353796
43, -180716.86, -181754.81, -187450.34, -187307.33, -187346.27, -187388.39, -187419.61, -187404.47, 0.000, 0.000, 0.000, 16:32:33.796, 1578580353796
44, -183495.17, -181362.41, -187500.02, -187500.02, -187500.02, -187500.02, -187500.02, -160333.02, 0.000, 0.000, 0.000, 16:32:33.796, 1578580353796
45, -180725.69, -181767.91, -187452.66, -187309.64, -187348.63, -187390.84, -187422.02, -187406.92, 0.000, 0.000, 0.000, 16:32:33.796, 1578580353796
46, -183498.06, -181367.61, -187500.02, -187500.02, -187500.02, -187500.02, -187500.02, -160335.61, 0.002, -0.018, 0.972, 16:32:33.796, 1578580353796
47, -180732.59, -181780.94, -187456.25, -187313.17, -187352.05, -187394.41, -187425.36, -187410.31, 0.000, 0.000, 0.000, 16:32:33.796, 1578580353796
48, -183502.31, -181372.44, -187500.02, -187500.02, -187500.02, -187500.02, -187500.02, -160339.77, 0.000, 0.000, 0.000, 16:32:33.796, 1578580353796
49, -180738.17, -181791.84, -187461.91, -187318.77, -187357.80, -187400.11, -187431.13, -187416.05, 0.000, 0.000, 0.000, 16:32:33.797, 1578580353797
50, -183505.36, -181378.39, -187500.02, -187500.02, -187500.02, -187500.02, -187500.02, -160342.78, 0.000, 0.000, 0.000, 16:32:33.797, 1578580353797
51, -180745.30, -181804.88, -187465.75, -187322.67, -187361.59, -187404.08, -187435.05, -187419.91, 0.000, 0.000, 0.000, 16:32:33.797, 1578580353797
52, -183507.88, -181383.70, -187500.02, -187500.02, -187500.02, -187500.02, -187500.02, -160345.33, 0.000, 0.000, 0.000, 16:32:33.797, 1578580353797
53, -180753.97, -181819.31, -187467.84, -187324.70, -187363.77, -187406.34, -187437.14, -187422.02, 0.000, 0.000, 0.000, 16:32:33.797, 1578580353797
54, -183508.67, -181384.13, -187500.02, -187500.02, -187500.02, -187500.02, -187500.02, -160346.53, 0.000, 0.000, 0.000, 16:32:33.797, 1578580353797
55, -180761.56, -181831.41, -187470.52, -187327.34, -187366.59, -187409.00, -187439.83, -187424.63, -0.002, -0.020, 0.978, 16:32:33.797, 1578580353797
56, -183511.70, -181389.50, -187500.02, -187500.02, -187500.02, -187500.02, -187500.02, -160349.75, 0.000, 0.000, 0.000, 16:32:33.797, 1578580353797
57, -180766.91, -181842.23, -187474.28, -187331.13, -187370.33, -187412.78, -187443.52, -187428.41, 0.000, 0.000, 0.000, 16:32:33.797, 1578580353797
58, -183513.97, -181394.84, -187500.02, -187500.02, -187500.02, -187500.02, -187500.02, -160352.33, 0.000, 0.000, 0.000, 16:32:33.797, 1578580353797
59, -180773.50, -181854.09, -187478.78, -187335.70, -187374.98, -187417.42, -187448.09, -187433.08, 0.000, 0.000, 0.000, 16:32:33.797, 1578580353797
60, -183515.70, -181399.91, -187500.02, -187500.02, -187500.02, -187500.02, -187500.02, -160354.88, 0.000, 0.000, 0.000, 16:32:33.797, 1578580353797
61, -180782.27, -181867.72, -187480.30, -187337.30, -187376.61, -187419.08, -187449.75, -187434.61, 0.000, 0.000, 0.000, 16:32:33.797, 1578580353797
62, -183517.42, -181402.50, -187500.02, -187500.02, -187500.02, -187500.02, -187500.02, -160357.63, 0.000, 0.000, 0.000, 16:32:33.797, 1578580353797
63, -180788.95, -181880.14, -187484.95, -187341.86, -187381.06, -187423.78, -187454.42, -187439.20, 0.000, 0.000, 0.000, 16:32:33.797, 1578580353797
64, -183521.36, -181408.20, -187500.02, -187500.02, -187500.02, -187500.02, -187500.02, -160362.66, 0.000, 0.000, 0.000, 16:32:33.797, 1578580353797
65, -180793.86, -181891.00, -187488.14, -187344.98, -187384.25, -187426.92, -187457.56, -187442.39, -0.004, -0.022, 0.978, 16:32:33.797, 1578580353797
66, -183522.45, -181410.86, -187500.02, -187500.02, -187500.02, -187500.02, -187500.02, -160365.05, 0.000, 0.000, 0.000, 16:32:33.798, 1578580353798
67, -180800.94, -181902.77, -187490.22, -187347.08, -187386.41, -187429.11, -187459.73, -187444.56, 0.000, 0.000, 0.000, 16:32:33.798, 1578580353798
68, -183524.47, -181415.20, -187500.02, -187500.02, -187500.02, -187500.02, -187500.02, -160368.17, 0.000, 0.000, 0.000, 16:32:33.798, 1578580353798
69, -180810.00, -181916.81, -187494.73, -187351.69, -187391.00, -187433.81, -187464.25, -187449.09, 0.000, 0.000, 0.000, 16:32:33.798, 1578580353798
70, -183526.95, -181420.39, -187500.02, -187500.02, -187500.02, -187500.02, -187500.02, -160372.16, 0.000, 0.000, 0.000, 16:32:33.798, 1578580353798
71, -180817.06, -181929.69, -187496.97, -187353.91, -187393.17, -187436.11, -187466.53, -187451.22, 0.000, 0.000, 0.000, 16:32:33.798, 1578580353798
72, -183528.78, -181423.16, -187500.02, -187500.02, -187500.02, -187500.02, -187500.02, -160375.80, 0.000, 0.000, 0.000, 16:32:33.798, 1578580353798
73, -180821.53, -181941.03, -187499.53, -187357.52, -187396.84, -187439.69, -187470.20, -187454.86, 0.000, 0.000, 0.000, 16:32:33.798, 1578580353798
74, -183532.42, -181428.70, -187500.02, -187500.02, -187500.02, -187500.02, -187500.02, -160381.16, 0.000, 0.000, 0.000, 16:32:33.798, 1578580353798
75, -180829.83, -181952.83, -187500.02, -187362.58, -187401.88, -187444.89, -187475.27, -187460.00, -0.004, -0.022, 0.980, 16:32:33.798, 1578580353798
76, -183536.25, -181431.88, -187500.02, -187500.02, -187500.02, -187500.02, -187500.02, -160386.92, 0.000, 0.000, 0.000, 16:32:33.798, 1578580353798
77, -180838.17, -181965.80, -187500.02, -187365.50, -187404.80, -187448.00, -187478.30, -187462.98, 0.000, 0.000, 0.000, 16:32:33.798, 1578580353798
78, -183537.44, -181433.27, -187500.02, -187500.02, -187500.02, -187500.02, -187500.02, -160389.88, 0.000, 0.000, 0.000, 16:32:33.798, 1578580353798
79, -180846.14, -181978.42, -187500.02, -187367.52, -187407.09, -187450.13, -187480.39, -187465.03, 0.000, 0.000, 0.000, 16:32:33.798, 1578580353798
80, -183540.22, -181439.39, -187500.02, -187500.02, -187500.02, -187500.02, -187500.02, -160394.30, 0.000, 0.000, 0.000, 16:32:33.798, 1578580353798
81, -180851.47, -181989.33, -187500.02, -187370.84, -187410.31, -187453.53, -187483.72, -187468.44, 0.000, 0.000, 0.000, 16:32:33.798, 1578580353798
82, -183540.36, -181438.83, -187500.02, -187500.02, -187500.02, -187500.02, -187500.02, -160396.66, 0.000, 0.000, 0.000, 16:32:33.798, 1578580353798
83, -180858.78, -182001.86, -187500.02, -187373.53, -187412.94, -187456.23, -187486.38, -187470.98, 0.000, 0.000, 0.000, 16:32:33.798, 1578580353798
84, -183544.78, -181446.06, -187500.02, -187500.02, -187500.02, -187500.02, -187500.02, -160402.89, 0.000, 0.000, 0.000, 16:32:33.798, 1578580353798
85, -180866.55, -182015.36, -187500.02, -187379.20, -187418.67, -187461.95, -187492.08, -187476.77, -0.002, -0.020, 0.980, 16:32:33.799, 1578580353799
86, -183549.14, -181453.05, -187500.02, -187500.02, -187500.02, -187500.02, -187500.02, -160409.25, 0.000, 0.000, 0.000, 16:32:33.799, 1578580353799
87, -180874.27, -182028.28, -187500.02, -187383.73, -187423.14, -187466.56, -187496.58, -187481.23, 0.000, 0.000, 0.000, 16:32:33.799, 1578580353799
88, -183551.20, -181455.14, -187500.02, -187500.02, -187500.02, -187500.02, -187500.02, -160413.91, 0.000, 0.000, 0.000, 16:32:33.799, 1578580353799
89, -180879.61, -182040.22, -187500.02, -187385.11, -187424.52, -187467.94, -187497.92, -187482.56, 0.000, 0.000, 0.000, 16:32:33.799, 1578580353799
90, -183551.20, -181455.02, -187500.02, -187500.02, -187500.02, -187500.02, -187500.02, -160416.30, 0.000, 0.000, 0.000, 16:32:33.799, 1578580353799
91, -180887.41, -182052.20, -187500.02, -187387.08, -187426.59, -187470.09, -187499.41, -187484.64, 0.000, 0.000, 0.000, 16:32:33.799, 1578580353799
92, -183554.23, -181460.55, -187500.02, -187500.02, -187500.02, -187500.02, -187500.02, -160421.48, 0.000, 0.000, 0.000, 16:32:33.799, 1578580353799
93, -180896.97, -182066.28, -187500.02, -187391.28, -187430.84, -187474.47, -187500.02, -187488.84, 0.000, 0.000, 0.000, 16:32:33.799, 1578580353799
94, -183556.44, -181464.58, -187500.02, -187500.02, -187500.02, -187500.02, -187500.02, -160426.27, 0.000, -0.022, 0.980, 16:32:33.799, 1578580353799
95, -180905.22, -182079.30, -187500.02, -187393.59, -187432.95, -187476.59, -187500.02, -187491.14, 0.000, 0.000, 0.000, 16:32:33.799, 1578580353799
96, -183558.06, -181466.25, -187500.02, -187500.02, -187500.02, -187500.02, -187500.02, -160430.67, 0.000, 0.000, 0.000, 16:32:33.799, 1578580353799
97, -180911.30, -182090.73, -187500.02, -187396.08, -187435.58, -187479.30, -187500.02, -187493.80, 0.000, 0.000, 0.000, 16:32:33.799, 1578580353799
98, -183561.17, -181469.31, -187500.02, -187500.02, -187500.02, -187500.02, -187500.02, -160436.48, 0.000, 0.000, 0.000, 16:32:33.799, 1578580353799
99, -180919.28, -182103.28, -187500.02, -187401.06, -187440.66, -187484.33, -187500.02, -187498.70, 0.000, 0.000, 0.000, 16:32:33.799, 1578580353799
100, -183564.00, -181474.34, -187500.02, -187500.02, -187500.02, -187500.02, -187500.02, -160441.80, 0.000, 0.000, 0.000, 16:32:33.799, 1578580353799
101, -180928.02, -182117.50, -187500.02, -187403.67, -187443.41, -187487.00, -187500.02, -187500.00, 0.000, 0.000, 0.000, 16:32:33.800, 1578580353800
102, -183567.20, -181480.16, -187500.02, -187500.02, -187500.02, -187500.02, -187500.02, -160447.66, 0.000, 0.000, 0.000, 16:32:33.800, 1578580353800
103, -180935.00, -182130.03, -187500.02, -187408.64, -187448.39, -187492.03, -187500.02, -187500.02, 0.000, 0.000, 0.000, 16:32:33.800, 1578580353800
104, -183568.59, -181485.36, -187500.02, -187500.02, -187500.02, -187500.02, -187500.02, -160451.91, -0.002, -0.020, 0.980, 16:32:33.800, 1578580353800
105, -180939.31, -182141.30, -187500.02, -187411.75, -187451.33, -187495.05, -187500.02, -187500.02, 0.000, 0.000, 0.000, 16:32:33.800, 1578580353800
106, -183570.77, -181489.39, -187500.02, -187500.02, -187500.02, -187500.02, -187500.02, -160457.36, 0.000, 0.000, 0.000, 16:32:33.800, 1578580353800
107, -180946.69, -182152.89, -187500.02, -187414.72, -187454.44, -187498.19, -187500.02, -187500.02, 0.000, 0.000, 0.000, 16:32:33.800, 1578580353800
108, -183572.61, -181492.63, -187500.02, -187500.02, -187500.02, -187500.02, -187500.02, -160462.52, 0.000, 0.000, 0.000, 16:32:33.800, 1578580353800
109, -180955.47, -182167.14, -187500.02, -187417.92, -187457.56, -187500.02, -187500.02, -187500.02, 0.000, 0.000, 0.000, 16:32:33.800, 1578580353800
110, -183574.48, -181496.20, -187500.02, -187500.02, -187500.02, -187500.02, -187500.02, -160467.95, 0.000, 0.000, 0.000, 16:32:33.800, 1578580353800
111, -180963.19, -182179.78, -187500.02, -187420.25, -187460.08, -187500.02, -187500.02, -187500.02, 0.000, 0.000, 0.000, 16:32:33.800, 1578580353800
112, -183576.92, -181500.06, -187500.02, -187500.02, -187500.02, -187500.02, -187500.02, -160474.02, 0.000, 0.000, 0.000, 16:32:33.800, 1578580353800
113, -180967.70, -182190.45, -187500.02, -187426.72, -187466.56, -187500.02, -187500.02, -187500.02, 0.000, 0.000, 0.000, 16:32:33.800, 1578580353800
114, -183581.63, -181508.88, -187500.02, -187500.02, -187500.02, -187500.02, -187500.02, -160482.39, -0.002, -0.018, 0.986, 16:32:33.800, 1578580353800
115, -180973.42, -182202.14, -187500.02, -187429.78, -187469.64, -187500.02, -187500.02, -187500.02, 0.000, 0.000, 0.000, 16:32:33.800, 1578580353800
116, -183582.17, -181509.88, -187500.02, -187500.02, -187500.02, -187500.02, -187500.02, -160487.08, 0.000, 0.000, 0.000, 16:32:33.800, 1578580353800
117, -180981.95, -182215.64, -187500.02, -187431.78, -187471.73, -187500.02, -187500.02, -187500.02, 0.000, 0.000, 0.000, 16:32:33.800, 1578580353800
118, -183583.92, -181512.55, -187500.02, -187500.02, -187500.02, -187500.02, -187500.02, -160492.83, 0.000, 0.000, 0.000, 16:32:33.800, 1578580353800
119, -180989.22, -182228.09, -187500.02, -187435.20, -187475.00, -187500.02, -187500.02, -187500.02, 0.000, 0.000, 0.000, 16:32:33.801, 1578580353801
120, -183587.00, -181517.02, -187500.02, -187500.02, -187500.02, -187500.02, -187500.02, -160499.91, 0.000, 0.000, 0.000, 16:32:34.271, 1578580354271
121, -180994.20, -182238.95, -187500.02, -187438.77, -187478.53, -187500.02, -187500.02, -187500.02, 0.000, 0.000, 0.000, 16:32:34.271, 1578580354271
122, -183588.97, -181518.89, -187500.02, -187500.02, -187500.02, -187500.02, -187500.02, -160506.22, 0.000, 0.000, 0.000, 16:32:34.271, 1578580354271
123, -181000.94, -182251.20, -187500.02, -187442.33, -187482.25, -187500.02, -187500.02, -187500.02, 0.000, 0.000, 0.000, 16:32:34.271, 1578580354271
124, -183594.50, -181527.72, -187500.02, -187500.02, -187500.02, -187500.02, -187500.02, -160515.72, 0.000, -0.014, 0.988, 16:32:34.271, 1578580354271
125, -181009.22, -182264.03, -187500.02, -187449.09, -187489.05, -187500.02, -187500.02, -187500.02, 0.000, 0.000, 0.000, 16:32:34.271, 1578580354271
126, -183595.45, -181531.66, -187500.02, -187500.02, -187500.02, -187500.02, -187500.02, -160520.97, 0.000, 0.000, 0.000, 16:32:34.271, 1578580354271
127, -181015.50, -182276.61, -187500.02, -187449.91, -187489.83, -187500.02, -187500.02, -187500.02, 0.000, 0.000, 0.000, 16:32:34.271, 1578580354271
128, -183595.84, -181533.53, -187500.02, -187500.02, -187500.02, -187500.02, -187500.02, -160526.20, 0.000, 0.000, 0.000, 16:32:34.271, 1578580354271
129, -181020.22, -182286.92, -187500.02, -187453.13, -187493.06, -187500.02, -187500.02, -187500.02, 0.000, 0.000, 0.000, 16:32:34.271, 1578580354271
130, -183598.97, -181539.09, -187500.02, -187500.02, -187500.02, -187500.02, -187500.02, -160534.02, 0.000, 0.000, 0.000, 16:32:34.271, 1578580354271
131, -181026.69, -182299.33, -187500.02, -187456.27, -187496.23, -187500.02, -187500.02, -187500.02, 0.000, 0.000, 0.000, 16:32:34.271, 1578580354271
132, -183599.56, -181539.20, -187500.02, -187500.02, -187500.02, -187500.02, -187500.02, -160539.72, 0.000, 0.000, 0.000, 16:32:34.271, 1578580354271
133, -181035.17, -182313.36, -187500.02, -187459.45, -187498.88, -187500.02, -187500.02, -187500.02, 0.000, -0.016, 0.986, 16:32:34.271, 1578580354271
134, -183603.56, -181546.31, -187500.02, -187500.02, -187500.02, -187500.02, -187500.02, -160548.44, 0.000, 0.000, 0.000, 16:32:34.272, 1578580354272
135, -181041.91, -182325.66, -187500.02, -187463.45, -187500.02, -187500.02, -187500.02, -187500.02, 0.000, 0.000, 0.000, 16:32:34.272, 1578580354272
136, -183605.97, -181550.83, -187500.02, -187500.02, -187500.02, -187500.02, -187500.02, -160555.75, 0.000, 0.000, 0.000, 16:32:34.272, 1578580354272
137, -181046.02, -182336.41, -187500.02, -187468.03, -187500.02, -187500.02, -187500.02, -187500.02, 0.000, 0.000, 0.000, 16:32:34.272, 1578580354272
138, -183608.13, -181554.52, -187500.02, -187500.02, -187500.02, -187500.02, -187500.02, -160563.11, 0.000, 0.000, 0.000, 16:32:34.272, 1578580354272
139, -181053.22, -182348.09, -187500.02, -187470.42, -187500.02, -187500.02, -187500.02, -187500.02, 0.000, 0.000, 0.000, 16:32:34.272, 1578580354272
140, -183610.72, -181556.48, -187500.02, -187500.02, -187500.02, -187500.02, -187500.02, -160571.02, 0.000, 0.000, 0.000, 16:32:34.272, 1578580354272
141, -181061.66, -182362.22, -187500.02, -187474.73, -187500.02, -187500.02, -187500.02, -187500.02, 0.000, 0.000, 0.000, 16:32:34.272, 1578580354272
142, -183613.50, -181563.02, -187500.02, -187500.02, -187500.02, -187500.02, -187500.02, -160578.88, 0.000, 0.000, 0.000, 16:32:34.272, 1578580354272
143, -181069.36, -182374.38, -187500.02, -187477.08, -187500.02, -187500.02, -187500.02, -187500.02, 0.000, -0.018, 0.982, 16:32:34.272, 1578580354272
144, -183615.06, -181562.81, -187500.02, -187500.02, -187500.02, -187500.02, -187500.02, -160586.14, 0.000, 0.000, 0.000, 16:32:34.272, 1578580354272
145, -181074.89, -182384.73, -187500.02, -187480.61, -187500.02, -187500.02, -187500.02, -187500.02, 0.000, 0.000, 0.000, 16:32:34.272, 1578580354272
146, -183617.16, -181567.17, -187500.02, -187500.02, -187500.02, -187500.02, -187500.02, -160593.61, 0.000, 0.000, 0.000, 16:32:34.272, 1578580354272
147, -181081.44, -182396.78, -187500.02, -187484.66, -187500.02, -187500.02, -187500.02, -187500.02, 0.000, 0.000, 0.000, 16:32:34.272, 1578580354272
148, -183620.42, -181571.75, -187500.02, -187500.02, -187500.02, -187500.02, -187500.02, -160602.33, 0.000, 0.000, 0.000, 16:32:34.272, 1578580354272
149, -181089.33, -182409.66, -187500.02, -187487.92, -187500.02, -187500.02, -187500.02, -187500.02, 0.000, 0.000, 0.000, 16:32:34.272, 1578580354272
150, -183622.69, -181575.55, -187500.02, -187500.02, -187500.02, -187500.02, -187500.02, -160610.08, 0.000, 0.000, 0.000, 16:32:34.272, 1578580354272
151, -181096.13, -182423.20, -187500.02, -187491.91, -187500.02, -187500.02, -187500.02, -187500.02, 0.000, 0.000, 0.000, 16:32:34.272, 1578580354272
152, -183624.17, -181579.19, -187500.02, -187500.02, -187500.02, -187500.02, -187500.02, -160617.19, 0.000, 0.000, 0.000, 16:32:34.272, 1578580354272
153, -181101.19, -182433.86, -187500.02, -187493.58, -187500.02, -187500.02, -187500.02, -187500.02, 0.000, -0.020, 0.980, 16:32:34.273, 1578580354273
154, -183625.14, -181584.45, -187500.02, -187500.02, -187500.02, -187500.02, -187500.02, -160623.72, 0.000, 0.000, 0.000, 16:32:34.273, 1578580354273
155, -181108.22, -182446.22, -187500.02, -187497.78, -187500.02, -187500.02, -187500.02, -187500.02, 0.000, 0.000, 0.000, 16:32:34.273, 1578580354273
156, -183627.05, -181589.95, -187500.02, -187500.02, -187500.02, -187500.02, -187500.02, -160631.97, 0.000, 0.000, 0.000, 16:32:34.273, 1578580354273
157, -181116.48, -182460.30, -187500.02, -187500.02, -187500.02, -187500.02, -187500.02, -187500.02, 0.000, 0.000, 0.000, 16:32:34.273, 1578580354273
158, -183630.48, -181593.50, -187500.02, -187500.02, -187500.02, -187500.02, -187500.02, -160641.95, 0.000, 0.000, 0.000, 16:32:34.273, 1578580354273
159, -181123.27, -182472.81, -187500.02, -187500.02, -187500.02, -187500.02, -187500.02, -187500.02, 0.000, 0.000, 0.000, 16:32:34.273, 1578580354273
160, -183630.69, -181595.78, -187500.02, -187500.02, -187500.02, -187500.02, -187500.02, -160648.59, 0.000, 0.000, 0.000, 16:32:34.273, 1578580354273
161, -181127.83, -182483.88, -187500.02, -187500.02, -187500.02, -187500.02, -187500.02, -187500.02, 0.000, 0.000, 0.000, 16:32:34.273, 1578580354273
162, -183631.89, -181597.84, -187500.02, -187500.02, -187500.02, -187500.02, -187500.02, -160656.47, 0.000, 0.000, 0.000, 16:32:34.273, 1578580354273
163, -181133.80, -182495.53, -187500.02, -187500.02, -187500.02, -187500.02, -187500.02, -187500.02, 0.000, -0.022, 0.978, 16:32:34.273, 1578580354273
164, -183635.25, -181601.55, -187500.02, -187500.02, -187500.02, -187500.02, -187500.02, -160666.45, 0.000, 0.000, 0.000, 16:32:34.273, 1578580354273
165, -181142.16, -182508.48, -187500.02, -187500.02, -187500.02, -187500.02, -187500.02, -187500.02, 0.000, 0.000, 0.000, 16:32:34.273, 1578580354273
166, -183637.14, -181605.55, -187500.02, -187500.02, -187500.02, -187500.02, -187500.02, -160674.73, 0.000, 0.000, 0.000, 16:32:34.273, 1578580354273
167, -181149.58, -182520.30, -187500.02, -187500.02, -187500.02, -187500.02, -187500.02, -187500.02, 0.000, 0.000, 0.000, 16:32:34.273, 1578580354273
168, -183639.80, -181610.80, -187500.02, -187500.02, -187500.02, -187500.02, -187500.02, -160684.19, 0.000, 0.000, 0.000, 16:32:34.274, 1578580354274
169, -181154.27, -182530.06, -187500.02, -187500.02, -187500.02, -187500.02, -187500.02, -187500.02, 0.000, 0.000, 0.000, 16:32:34.274, 1578580354274
170, -183640.42, -181609.19, -187500.02, -187500.02, -187500.02, -187500.02, -187500.02, -160691.98, 0.000, 0.000, 0.000, 16:32:34.275, 1578580354275
171, -181160.97, -182541.75, -187500.02, -187500.02, -187500.02, -187500.02, -187500.02, -187500.02, 0.000, 0.000, 0.000, 16:32:34.275, 1578580354275
172, -183644.77, -181616.44, -187500.02, -187500.02, -187500.02, -187500.02, -187500.02, -160702.88, 0.000, -0.020, 0.980, 16:32:34.275, 1578580354275
173, -181169.39, -182554.48, -187500.02, -187500.02, -187500.02, -187500.02, -187500.02, -187500.02, 0.000, 0.000, 0.000, 16:32:34.275, 1578580354275
174, -183647.88, -181623.25, -187500.02, -187500.02, -187500.02, -187500.02, -187500.02, -160712.70, 0.000, 0.000, 0.000, 16:32:34.275, 1578580354275
175, -181175.61, -182567.02, -187500.02, -187500.02, -187500.02, -187500.02, -187500.02, -187500.02, 0.000, 0.000, 0.000, 16:32:34.275, 1578580354275
176, -183649.02, -181623.47, -187500.02, -187500.02, -187500.02, -187500.02, -187500.02, -160721.23, 0.000, 0.000, 0.000, 16:32:34.275, 1578580354275
177, -181180.59, -182578.66, -187500.02, -187500.02, -187500.02, -187500.02, -187500.02, -187500.02, 0.000, 0.000, 0.000, 16:32:34.275, 1578580354275
178, -183651.53, -181628.89, -187500.02, -187500.02, -187500.02, -187500.02, -187500.02, -160730.77, 0.000, 0.000, 0.000, 16:32:34.275, 1578580354275
179, -181186.45, -182590.50, -187500.02, -187500.02, -187500.02, -187500.02, -187500.02, -187500.02, 0.000, 0.000, 0.000, 16:32:34.275, 1578580354275
180, -183652.61, -181627.75, -187500.02, -187500.02, -187500.02, -187500.02, -187500.02, -160739.17, 0.000, 0.000, 0.000, 16:32:34.275, 1578580354275
181, -181194.56, -182603.70, -187500.02, -187500.02, -187500.02, -187500.02, -187500.02, -187500.02, 0.000, 0.000, 0.000, 16:32:34.275, 1578580354275
182, -183655.30, -181634.03, -187500.02, -187500.02, -187500.02, -187500.02, -187500.02, -160748.78, 0.000, -0.026, 0.980, 16:32:34.275, 1578580354275
183, -181200.28, -182615.58, -187500.02, -187500.02, -187500.02, -187500.02, -187500.02, -187500.02, 0.000, 0.000, 0.000, 16:32:34.275, 1578580354275
184, -183658.41, -181638.52, -187500.02, -187500.02, -187500.02, -187500.02, -187500.02, -160759.44, 0.000, 0.000, 0.000, 16:32:34.275, 1578580354275
185, -181204.36, -182625.84, -187500.02, -187500.02, -187500.02, -187500.02, -187500.02, -187500.02, 0.000, 0.000, 0.000, 16:32:34.275, 1578580354275
186, -183661.69, -181645.92, -187500.02, -187500.02, -187500.02, -187500.02, -187500.02, -160769.83, 0.000, 0.000, 0.000, 16:32:34.275, 1578580354275
187, -181211.94, -182637.44, -187500.02, -187500.02, -187500.02, -187500.02, -187500.02, -187500.02, 0.000, 0.000, 0.000, 16:32:34.276, 1578580354276
188, -183660.39, -181644.08, -187500.02, -187500.02, -187500.02, -187500.02, -187500.02, -160776.42, 0.000, 0.000, 0.000, 16:32:34.276, 1578580354276
189, -181220.25, -182650.05, -187500.02, -187500.02, -187500.02, -187500.02, -187500.02, -187500.02, 0.000, 0.000, 0.000, 16:32:34.276, 1578580354276
190, -183662.67, -181649.14, -187500.02, -187500.02, -187500.02, -187500.02, -187500.02, -160786.08, 0.000, 0.000, 0.000, 16:32:34.276, 1578580354276
191, -181227.17, -182662.86, -187500.02, -187500.02, -187500.02, -187500.02, -187500.02, -187500.02, 0.000, 0.000, 0.000, 16:32:34.276, 1578580354276
192, -183666.69, -181654.44, -187500.02, -187500.02, -187500.02, -187500.02, -187500.02, -160798.09, -0.002, -0.022, 0.978, 16:32:34.276, 1578580354276
193, -181231.47, -182672.94, -187500.02, -187500.02, -187500.02, -187500.02, -187500.02, -187500.02, 0.000, 0.000, 0.000, 16:32:34.276, 1578580354276
194, -183667.91, -181656.59, -187500.02, -187500.02, -187500.02, -187500.02, -187500.02, -160807.19, 0.000, 0.000, 0.000, 16:32:34.276, 1578580354276
195, -181237.64, -182685.94, -187500.02, -187500.02, -187500.02, -187500.02, -187500.02, -187500.02, 0.000, 0.000, 0.000, 16:32:34.276, 1578580354276
196, -183670.16, -181660.06, -187500.02, -187500.02, -187500.02, -187500.02, -187500.02, -160817.36, 0.000, 0.000, 0.000, 16:32:34.276, 1578580354276
197, -181245.48, -182699.53, -187500.02, -187500.02, -187500.02, -187500.02, -187500.02, -187500.02, 0.000, 0.000, 0.000, 16:32:34.276, 1578580354276
198, -183672.13, -181661.66, -187500.02, -187500.02, -187500.02, -187500.02, -187500.02, -160827.36, 0.000, 0.000, 0.000, 16:32:34.277, 1578580354277
199, -181252.34, -182710.81, -187500.02, -187500.02, -187500.02, -187500.02, -187500.02, -187500.02, 0.000, 0.000, 0.000, 16:32:34.277, 1578580354277
200, -183675.78, -181669.14, -187500.02, -187500.02, -187500.02, -187500.02, -187500.02, -160838.77, 0.000, 0.000, 0.000, 16:32:34.277, 1578580354277
201, -181257.08, -182720.77, -187500.02, -187500.02, -187500.02, -187500.02, -187500.02, -187500.02, 0.000, 0.000, 0.000, 16:32:34.277, 1578580354277
202, -183678.77, -181673.97, -187500.02, -187500.02, -187500.02, -187500.02, -187500.02, -160849.92, 0.002, -0.022, 0.978, 16:32:34.277, 1578580354277
203, -181263.59, -182732.80, -187500.02, -187500.02, -187500.02, -187500.02, -187500.02, -187500.02, 0.000, 0.000, 0.000, 16:32:34.277, 1578580354277
204, -183679.59, -181676.73, -187500.02, -187500.02, -187500.02, -187500.02, -187500.02, -160859.05, 0.000, 0.000, 0.000, 16:32:34.277, 1578580354277
205, -181271.92, -182745.95, -187500.02, -187500.02, -187500.02, -187500.02, -187500.02, -187500.02, 0.000, 0.000, 0.000, 16:32:34.277, 1578580354277
206, -183682.58, -181682.33, -187500.02, -187500.02, -187500.02, -187500.02, -187500.02, -160870.48, 0.000, 0.000, 0.000, 16:32:34.278, 1578580354278
207, -181278.70, -182757.17, -187500.02, -187500.02, -187500.02, -187500.02, -187500.02, -187500.02, 0.000, 0.000, 0.000, 16:32:34.278, 1578580354278
208, -183683.41, -181683.48, -187500.02, -187500.02, -187500.02, -187500.02, -187500.02, -160879.98, 0.000, 0.000, 0.000, 16:32:34.278, 1578580354278
209, -181283.92, -182768.42, -187500.02, -187500.02, -187500.02, -187500.02, -187500.02, -187500.02, 0.000, 0.000, 0.000, 16:32:34.278, 1578580354278
210, -183686.58, -181687.16, -187500.02, -187500.02, -187500.02, -187500.02, -187500.02, -160891.81, 0.000, 0.000, 0.000, 16:32:34.278, 1578580354278
211, -181290.83, -182780.02, -187500.02, -187500.02, -187500.02, -187500.02, -187500.02, -187500.02, 0.000, 0.000, 0.000, 16:32:34.278, 1578580354278
212, -183688.39, -181688.73, -187500.02, -187500.02, -187500.02, -187500.02, -187500.02, -160902.20, 0.000, -0.018, 0.974, 16:32:34.278, 1578580354278
213, -181299.42, -182793.95, -187500.02, -187500.02, -187500.02, -187500.02, -187500.02, -187500.02, 0.000, 0.000, 0.000, 16:32:34.279, 1578580354279
214, -183690.31, -181693.02, -187500.02, -187500.02, -187500.02, -187500.02, -187500.02, -160912.53, 0.000, 0.000, 0.000, 16:32:34.279, 1578580354279
215, -181305.39, -182805.02, -187500.02, -187500.02, -187500.02, -187500.02, -187500.02, -187500.02, 0.000, 0.000, 0.000, 16:32:34.279, 1578580354279
216, -183691.53, -181692.86, -187500.02, -187500.02, -187500.02, -187500.02, -187500.02, -160922.56, 0.000, 0.000, 0.000, 16:32:34.279, 1578580354279
217, -181309.77, -182815.20, -187500.02, -187500.02, -187500.02, -187500.02, -187500.02, -187500.02, 0.000, 0.000, 0.000, 16:32:34.279, 1578580354279
218, -183693.48, -181693.17, -187500.02, -187500.02, -187500.02, -187500.02, -187500.02, -160933.00, 0.000, 0.000, 0.000, 16:32:34.279, 1578580354279
219, -181315.91, -182826.78, -187500.02, -187500.02, -187500.02, -187500.02, -187500.02, -187500.02, 0.000, 0.000, 0.000, 16:32:34.279, 1578580354279
220, -183695.28, -181699.09, -187500.02, -187500.02, -187500.02, -187500.02, -187500.02, -160942.84, 0.000, 0.000, 0.000, 16:32:34.279, 1578580354279
221, -181323.48, -182839.61, -187500.02, -187500.02, -187500.02, -187500.02, -187500.02, -187500.02, -0.002, -0.016, 0.974, 16:32:34.279, 1578580354279
222, -183699.45, -181705.81, -187500.02, -187500.02, -187500.02, -187500.02, -187500.02, -160955.64, 0.000, 0.000, 0.000, 16:32:34.279, 1578580354279
223, -181330.63, -182851.75, -187500.02, -187500.02, -187500.02, -187500.02, -187500.02, -187500.02, 0.000, 0.000, 0.000, 16:32:34.279, 1578580354279
224, -183698.44, -181707.52, -187500.02, -187500.02, -187500.02, -187500.02, -187500.02, -160963.33, 0.000, 0.000, 0.000, 16:32:34.279, 1578580354279
225, -181334.78, -182861.88, -187500.02, -187500.02, -187500.02, -187500.02, -187500.02, -187500.02, 0.000, 0.000, 0.000, 16:32:34.279, 1578580354279
226, -183699.89, -181709.48, -187500.02, -187500.02, -187500.02, -187500.02, -187500.02, -160973.86, 0.000, 0.000, 0.000, 16:32:34.279, 1578580354279
227, -181340.91, -182873.89, -187500.02, -187500.02, -187500.02, -187500.02, -187500.02, -187500.02, 0.000, 0.000, 0.000, 16:32:34.280, 1578580354280
228, -183703.33, -181716.44, -187500.02, -187500.02, -187500.02, -187500.02, -187500.02, -160986.22, 0.000, 0.000, 0.000, 16:32:34.280, 1578580354280
229, -181348.70, -182887.75, -187500.02, -187500.02, -187500.02, -187500.02, -187500.02, -187500.02, 0.000, 0.000, 0.000, 16:32:34.280, 1578580354280
230, -183706.08, -181719.66, -187500.02, -187500.02, -187500.02, -187500.02, -187500.02, -160998.22, 0.000, 0.000, 0.000, 16:32:34.280, 1578580354280
231, -181354.67, -182898.73, -187500.02, -187500.02, -187500.02, -187500.02, -187500.02, -187500.02, 0.000, -0.020, 0.976, 16:32:34.280, 1578580354280
232, -183708.56, -181721.28, -187500.02, -187500.02, -187500.02, -187500.02, -187500.02, -161009.98, 0.000, 0.000, 0.000, 16:32:34.280, 1578580354280
233, -181359.66, -182909.53, -187500.02, -187500.02, -187500.02, -187500.02, -187500.02, -187500.02, 0.000, 0.000, 0.000, 16:32:34.280, 1578580354280
234, -183709.52, -181722.73, -187500.02, -187500.02, -187500.02, -187500.02, -187500.02, -161020.00, 0.000, 0.000, 0.000, 16:32:34.280, 1578580354280
235, -181366.30, -182921.42, -187500.02, -187500.02, -187500.02, -187500.02, -187500.02, -187500.02, 0.000, 0.000, 0.000, 16:32:34.280, 1578580354280
236, -183711.89, -181726.25, -187500.02, -187500.02, -187500.02, -187500.02, -187500.02, -161031.44, 0.000, 0.000, 0.000, 16:32:34.280, 1578580354280
237, -181374.56, -182933.98, -187500.02, -187500.02, -187500.02, -187500.02, -187500.02, -187500.02, 0.000, 0.000, 0.000, 16:32:34.280, 1578580354280
238, -183713.56, -181729.63, -187500.02, -187500.02, -187500.02, -187500.02, -187500.02, -161042.14, 0.000, 0.000, 0.000, 16:32:34.280, 1578580354280
239, -181380.94, -182945.78, -187500.02, -187500.02, -187500.02, -187500.02, -187500.02, -187500.02, 0.000, 0.000, 0.000, 16:32:34.280, 1578580354280
240, -183715.83, -181733.83, -187500.02, -187500.02, -187500.02, -187500.02, -187500.02, -161053.61, 0.000, 0.000, 0.000, 16:32:34.751, 1578580354751
241, -181385.83, -182954.91, -187500.02, -187500.02, -187500.02, -187500.02, -187500.02, -187500.02, -0.002, -0.020, 0.978, 16:32:34.752, 1578580354752
242, -183718.19, -181735.48, -187500.02, -187500.02, -187500.02, -187500.02, -187500.02, -161065.45, 0.000, 0.000, 0.000, 16:32:34.752, 1578580354752
243, -181392.22, -182967.73, -187500.02, -187500.02, -187500.02, -187500.02, -187500.02, -187500.02, 0.000, 0.000, 0.000, 16:32:34.752, 1578580354752
244, -183720.98, -181739.19, -187500.02, -187500.02, -187500.02, -187500.02, -187500.02, -161077.34, 0.000, 0.000, 0.000, 16:32:34.752, 1578580354752
245, -181400.34, -182980.77, -187500.02, -187500.02, -187500.02, -187500.02, -187500.02, -187500.02, 0.000, 0.000, 0.000, 16:32:34.752, 1578580354752
246, -183722.95, -181742.97, -187500.02, -187500.02, -187500.02, -187500.02, -187500.02, -161088.45, 0.000, 0.000, 0.000, 16:32:34.752, 1578580354752
247, -181407.09, -182992.86, -187500.02, -187500.02, -187500.02, -187500.02, -187500.02, -187500.02, 0.000, 0.000, 0.000, 16:32:34.752, 1578580354752
248, -183724.38, -181747.64, -187500.02, -187500.02, -187500.02, -187500.02, -187500.02, -161099.13, 0.000, 0.000, 0.000, 16:32:34.752, 1578580354752
249, -181411.98, -183003.56, -187500.02, -187500.02, -187500.02, -187500.02, -187500.02, -187500.02, 0.000, 0.000, 0.000, 16:32:34.752, 1578580354752
250, -183726.19, -181751.97, -187500.02, -187500.02, -187500.02, -187500.02, -187500.02, -161110.50, 0.000, 0.000, 0.000, 16:32:34.752, 1578580354752
251, -181417.77, -183015.34, -187500.02, -187500.02, -187500.02, -187500.02, -187500.02, -187500.02, 0.002, -0.020, 0.980, 16:32:34.753, 1578580354753
252, -183726.80, -181751.81, -187500.02, -187500.02, -187500.02, -187500.02, -187500.02, -161120.95, 0.000, 0.000, 0.000, 16:32:34.753, 1578580354753
253, -181427.78, -183028.75, -187500.02, -187500.02, -187500.02, -187500.02, -187500.02, -187500.02, 0.000, 0.000, 0.000, 16:32:34.753, 1578580354753
254, -183728.88, -181755.81, -187500.02, -187500.02, -187500.02, -187500.02, -187500.02, -161132.61, 0.000, 0.000, 0.000, 16:32:34.753, 1578580354753
255, -181433.70, -183039.39, -187500.02, -187500.02, -187500.02, -187500.02, -187500.02, -187500.02, 0.000, 0.000, 0.000, 16:32:34.753, 1578580354753
0, -183730.84, -181761.81, -187500.02, -187500.02, -187500.02, -187500.02, -187500.02, -161144.03, 0.000, 0.000, 0.000, 16:32:34.753, 1578580354753
1, -181438.36, -183049.36, -187500.02, -187500.02, -187500.02, -187500.02, -187500.02, -187500.02, 0.000, 0.000, 0.000, 16:32:34.753, 1578580354753
2, -183731.56, -181762.03, -187500.02, -187500.02, -187500.02, -187500.02, -187500.02, -161155.00, 0.000, 0.000, 0.000, 16:32:34.753, 1578580354753
3, -181445.22, -183061.89, -187500.02, -187500.02, -187500.02, -187500.02, -187500.02, -187500.02, 0.000, 0.000, 0.000, 16:32:34.753, 1578580354753
4, -183734.23, -181766.80, -187500.02, -187500.02, -187500.02, -187500.02, -187500.02, -161167.50, 0.000, -0.018, 0.978, 16:32:34.753, 1578580354753
5, -181453.48, -183074.77, -187500.02, -187500.02, -187500.02, -187500.02, -187500.02, -187500.02, 0.000, 0.000, 0.000, 16:32:34.753, 1578580354753
6, -183738.55, -181771.59, -187500.02, -187500.02, -187500.02, -187500.02, -187500.02, -161181.91, 0.000, 0.000, 0.000, 16:32:34.753, 1578580354753
7, -181459.75, -183086.27, -187500.02, -187500.02, -187500.02, -187500.02, -187500.02, -187500.02, 0.000, 0.000, 0.000, 16:32:34.753, 1578580354753
8, -183740.72, -181776.14, -187500.02, -187500.02, -187500.02, -187500.02, -187500.02, -161194.11, 0.000, 0.000, 0.000, 16:32:34.753, 1578580354753
9, -181463.64, -183096.45, -187500.02, -187500.02, -187500.02, -187500.02, -187500.02, -187500.02, 0.000, 0.000, 0.000, 16:32:34.753, 1578580354753
10, -183742.89, -181778.58, -187500.02, -187500.02, -187500.02, -187500.02, -187500.02, -161206.55, 0.000, 0.000, 0.000, 16:32:34.753, 1578580354753
11, -181469.72, -183108.80, -187500.02, -187500.02, -187500.02, -187500.02, -187500.02, -187500.02, 0.000, 0.000, 0.000, 16:32:34.753, 1578580354753
12, -183743.77, -181776.56, -187500.02, -187500.02, -187500.02, -187500.02, -187500.02, -161217.63, 0.000, 0.000, 0.000, 16:32:34.754, 1578580354754
13, -181478.34, -183121.84, -187500.02, -187500.02, -187500.02, -187500.02, -187500.02, -187500.02, 0.000, 0.000, 0.000, 16:32:34.754, 1578580354754
14, -183745.89, -181779.09, -187500.02, -187500.02, -187500.02, -187500.02, -187500.02, -161229.34, -0.002, -0.022, 0.980, 16:32:34.754, 1578580354754
15, -181485.25, -183133.38, -187500.02, -187500.02, -187500.02, -187500.02, -187500.02, -187500.02, 0.000, 0.000, 0.000, 16:32:34.754, 1578580354754
16, -183748.03, -181782.86, -187500.02, -187500.02, -187500.02, -187500.02, -187500.02, -161241.23, 0.000, 0.000, 0.000, 16:32:34.754, 1578580354754
17, -181490.66, -183143.84, -187500.02, -187500.02, -187500.02, -187500.02, -187500.02, -187500.02, 0.000, 0.000, 0.000, 16:32:34.754, 1578580354754
18, -183751.77, -181788.50, -187500.02, -187500.02, -187500.02, -187500.02, -187500.02, -161254.86, 0.000, 0.000, 0.000, 16:32:34.754, 1578580354754
19, -181496.77, -183156.14, -187500.02, -187500.02, -187500.02, -187500.02, -187500.02, -187500.02, 0.000, 0.000, 0.000, 16:32:34.754, 1578580354754
20, -183752.03, -181787.88, -187500.02, -187500.02, -187500.02, -187500.02, -187500.02, -161265.06, 0.000, 0.000, 0.000, 16:32:34.754, 1578580354754
21, -181505.13, -183169.20, -187500.02, -187500.02, -187500.02, -187500.02, -187500.02, -187500.02, 0.000, 0.000, 0.000, 16:32:34.754, 1578580354754
22, -183752.88, -181790.64, -187500.02, -187500.02, -187500.02, -187500.02, -187500.02, -161275.70, 0.000, 0.000, 0.000, 16:32:34.754, 1578580354754
23, -181511.11, -183180.23, -187500.02, -187500.02, -187500.02, -187500.02, -187500.02, -187500.02, 0.000, 0.000, 0.000, 16:32:34.754, 1578580354754
24, -183756.59, -181796.98, -187500.02, -187500.02, -187500.02, -187500.02, -187500.02, -161289.52, 0.000, -0.018, 0.974, 16:32:34.754, 1578580354754
25, -181515.06, -183190.02, -187500.02, -187500.02, -187500.02, -187500.02, -187500.02, -187500.02, 0.000, 0.000, 0.000, 16:32:34.754, 1578580354754
26, -183757.23, -181799.27, -187500.02, -187500.02, -187500.02, -187500.02, -187500.02, -161300.13, 0.000, 0.000, 0.000, 16:32:34.754, 1578580354754
27, -181522.00, -183202.33, -187500.02, -187500.02, -187500.02, -187500.02, -187500.02, -187500.02, 0.000, 0.000, 0.000, 16:32:34.754, 1578580354754
28, -183758.89, -181804.02, -187500.02, -187500.02, -187500.02, -187500.02, -187500.02, -161311.91, 0.000, 0.000, 0.000, 16:32:34.754, 1578580354754
29, -181530.06, -183215.56, -187500.02, -187500.02, -187500.02, -187500.02, -187500.02, -187500.02, 0.000, 0.000, 0.000, 16:32:34.754, 1578580354754
30, -183760.77, -181807.31, -187500.02, -187500.02, -187500.02, -187500.02, -187500.02, -161324.38, 0.000, 0.000, 0.000, 16:32:34.755, 1578580354755
31, -181536.81, -183227.61, -187500.02, -187500.02, -187500.02, -187500.02, -187500.02, -187500.02, 0.000, 0.000, 0.000, 16:32:34.755, 1578580354755
32, -183764.72, -181812.56, -187500.02, -187500.02, -187500.02, -187500.02, -187500.02, -161338.81, 0.000, 0.000, 0.000, 16:32:34.755, 1578580354755
33, -181541.06, -183238.64, -187500.02, -187500.02, -187500.02, -187500.02, -187500.02, -187500.02, 0.000, 0.000, 0.000, 16:32:34.755, 1578580354755
34, -183766.69, -181815.36, -187500.02, -187500.02, -187500.02, -187500.02, -187500.02, -161351.45, -0.002, -0.020, 0.976, 16:32:34.755, 1578580354755
35, -181547.05, -183249.56, -187500.02, -187500.02, -187500.02, -187500.02, -187500.02, -187500.02, 0.000, 0.000, 0.000, 16:32:34.755, 1578580354755
36, -183766.14, -181814.06, -187500.02, -187500.02, -187500.02, -187500.02, -187500.02, -161361.55, 0.000, 0.000, 0.000, 16:32:34.755, 1578580354755
37, -181555.53, -183263.05, -187500.02, -187500.02, -187500.02, -187500.02, -187500.02, -187500.02, 0.000, 0.000, 0.000, 16:32:34.755, 1578580354755
38, -183768.91, -181819.92, -187500.02, -187500.02, -187500.02, -187500.02, -187500.02, -161374.63, 0.000, 0.000, 0.000, 16:32:34.755, 1578580354755
39, -181562.25, -183275.33, -187500.02, -187500.02, -187500.02, -187500.02, -187500.02, -187500.02, 0.000, 0.000, 0.000, 16:32:34.755, 1578580354755
40, -183769.95, -181820.50, -187500.02, -187500.02, -187500.02, -187500.02, -187500.02, -161386.52, 0.000, 0.000, 0.000, 16:32:34.755, 1578580354755
41, -181566.80, -183285.50, -187500.02, -187500.02, -187500.02, -187500.02, -187500.02, -187500.02, 0.000, 0.000, 0.000, 16:32:34.755, 1578580354755
42, -183771.61, -181823.55, -187500.02, -187500.02, -187500.02, -187500.02, -187500.02, -161398.70, 0.000, 0.000, 0.000, 16:32:34.755, 1578580354755
43, -181572.42, -183296.81, -187500.02, -187500.02, -187500.02, -187500.02, -187500.02, -187500.02, -0.002, -0.018, 0.976, 16:32:34.755, 1578580354755
44, -183773.72, -181825.63, -187500.02, -187500.02, -187500.02, -187500.02, -187500.02, -161411.47, 0.000, 0.000, 0.000, 16:32:34.755, 1578580354755
45, -181580.94, -183309.84, -187500.02, -187500.02, -187500.02, -187500.02, -187500.02, -187500.02, 0.000, 0.000, 0.000, 16:32:34.755, 1578580354755
46, -183775.50, -181830.41, -187500.02, -187500.02, -187500.02, -187500.02, -187500.02, -161423.69, 0.000, 0.000, 0.000, 16:32:34.755, 1578580354755
47, -181587.17, -183321.09, -187500.02, -187500.02, -187500.02, -187500.02, -187500.02, -187500.02, 0.000, 0.000, 0.000, 16:32:34.755, 1578580354755
48, -183776.08, -181832.44, -187500.02, -187500.02, -187500.02, -187500.02, -187500.02, -161435.16, 0.000, 0.000, 0.000, 16:32:34.755, 1578580354755
49, -181591.11, -183330.91, -187500.02, -187500.02, -187500.02, -187500.02, -187500.02, -187500.02, 0.000, 0.000, 0.000, 16:32:34.756, 1578580354756
50, -183776.59, -181834.14, -187500.02, -187500.02, -187500.02, -187500.02, -187500.02, -161446.59, 0.000, 0.000, 0.000, 16:32:34.756, 1578580354756
51, -181598.44, -183342.44, -187500.02, -187500.02, -187500.02, -187500.02, -187500.02, -187500.02, 0.000, 0.000, 0.000, 16:32:34.756, 1578580354756
52, -183779.59, -181837.11, -187500.02, -187500.02, -187500.02, -187500.02, -187500.02, -161460.59, 0.000, 0.000, 0.000, 16:32:34.756, 1578580354756
53, -181607.20, -183355.52, -187500.02, -187500.02, -187500.02, -187500.02, -187500.02, -187500.02, -0.004, -0.016, 0.972, 16:32:34.756, 1578580354756
54, -183779.52, -181836.33, -187500.02, -187500.02, -187500.02, -187500.02, -187500.02, -161471.36, 0.000, 0.000, 0.000, 16:32:34.756, 1578580354756
55, -181612.80, -183367.41, -187500.02, -187500.02, -187500.02, -187500.02, -187500.02, -187500.02, 0.000, 0.000, 0.000, 16:32:34.756, 1578580354756
56, -183782.86, -181842.30, -187500.02, -187500.02, -187500.02, -187500.02, -187500.02, -161485.31, 0.000, 0.000, 0.000, 16:32:34.756, 1578580354756
57, -181616.66, -183378.36, -187500.02, -187500.02, -187500.02, -187500.02, -187500.02, -187500.02, 0.000, 0.000, 0.000, 16:32:34.756, 1578580354756
58, -183784.55, -181844.88, -187500.02, -187500.02, -187500.02, -187500.02, -187500.02, -161498.08, 0.000, 0.000, 0.000, 16:32:34.756, 1578580354756
59, -181623.67, -183390.31, -187500.02, -187500.02, -187500.02, -187500.02, -187500.02, -187500.02, 0.000, 0.000, 0.000, 16:32:34.756, 1578580354756
60, -183784.95, -181846.39, -187500.02, -187500.02, -187500.02, -187500.02, -187500.02, -161509.31, 0.000, 0.000, 0.000, 16:32:34.756, 1578580354756
61, -181632.19, -183402.88, -187500.02, -187500.02, -187500.02, -187500.02, -187500.02, -187500.02, 0.000, 0.000, 0.000, 16:32:34.756, 1578580354756
62, -183787.13, -181852.06, -187500.02, -187500.02, -187500.02, -187500.02, -187500.02, -161522.27, 0.000, 0.000, 0.000, 16:32:34.756, 1578580354756
63, -181638.77, -183414.05, -187500.02, -187500.02, -187500.02, -187500.02, -187500.02, -187500.02, -0.004, -0.024, 0.974, 16:32:34.756, 1578580354756
64, -183789.94, -181854.55, -187500.02, -187500.02, -187500.02, -187500.02, -187500.02, -161536.45, 0.000, 0.000, 0.000, 16:32:34.756, 1578580354756
65, -181643.28, -183423.80, -187500.02, -187500.02, -187500.02, -187500.02, -187500.02, -187500.02, 0.000, 0.000, 0.000, 16:32:34.756, 1578580354756
66, -183790.14, -181855.50, -187500.02, -187500.02, -187500.02, -187500.02, -187500.02, -161547.86, 0.000, 0.000, 0.000, 16:32:34.756, 1578580354756
67, -181649.89, -183435.83, -187500.02, -187500.02, -187500.02, -187500.02, -187500.02, -187500.02, 0.000, 0.000, 0.000, 16:32:34.756, 1578580354756
68, -183793.09, -181861.28, -187500.02, -187500.02, -187500.02, -187500.02, -187500.02, -161561.88, 0.000, 0.000, 0.000, 16:32:34.756, 1578580354756
69, -181657.73, -183447.38, -187500.02, -187500.02, -187500.02, -187500.02, -187500.02, -187500.02, 0.000, 0.000, 0.000, 16:32:34.757, 1578580354757
70, -183796.64, -181866.39, -187500.02, -187500.02, -187500.02, -187500.02, -187500.02, -161576.58, 0.000, 0.000, 0.000, 16:32:34.757, 1578580354757
71, -181664.20, -183458.58, -187500.02, -187500.02, -187500.02, -187500.02, -187500.02, -187500.02, 0.000, 0.000, 0.000, 16:32:34.757, 1578580354757
72, -183798.02, -181869.34, -187500.02, -187500.02, -187500.02, -187500.02, -187500.02, -161589.41, 0.000, 0.000, 0.000, 16:32:34.757, 1578580354757
73, -181668.11, -183468.92, -187500.02, -187500.02, -187500.02, -187500.02, -187500.02, -187500.02, -0.002, -0.026, 0.964, 16:32:34.757, 1578580354757
74, -183798.72, -181871.33, -187500.02, -187500.02, -187500.02, -187500.02, -187500.02, -161601.70, 0.000, 0.000, 0.000, 16:32:34.757, 1578580354757
75, -181674.28, -183480.84, -187500.02, -187500.02, -187500.02, -187500.02, -187500.02, -187500.02, 0.000, 0.000, 0.000, 16:32:34.757, 1578580354757
76, -183800.78, -181875.31, -187500.02, -187500.02, -187500.02, -187500.02, -187500.02, -161615.22, 0.000, 0.000, 0.000, 16:32:34.758, 1578580354758
77, -181682.75, -183494.69, -187500.02, -187500.02, -187500.02, -187500.02, -187500.02, -187500.02, 0.000, 0.000, 0.000, 16:32:34.758, 1578580354758
78, -183804.67, -181880.63, -187500.02, -187500.02, -187500.02, -187500.02, -187500.02, -161630.73, 0.000, 0.000, 0.000, 16:32:34.758, 1578580354758
79, -181688.94, -183505.56, -187500.02, -187500.02, -187500.02, -187500.02, -187500.02, -187500.02, 0.000, 0.000, 0.000, 16:32:34.758, 1578580354758
80, -183805.11, -181879.25, -187500.02, -187500.02, -187500.02, -187500.02, -187500.02, -161643.16, 0.000, 0.000, 0.000, 16:32:34.758, 1578580354758
81, -181694.39, -183514.72, -187500.02, -187500.02, -187500.02, -187500.02, -187500.02, -187500.02, 0.000, 0.000, 0.000, 16:32:34.758, 1578580354758
82, -183807.13, -181881.28, -187500.02, -187500.02, -187500.02, -187500.02, -187500.02, -161656.55, -0.002, -0.022, 0.970, 16:32:34.758, 1578580354758
83, -181699.77, -183526.33, -187500.02, -187500.02, -187500.02, -187500.02, -187500.02, -187500.02, 0.000, 0.000, 0.000, 16:32:34.758, 1578580354758
84, -183808.95, -181887.02, -187500.02, -187500.02, -187500.02, -187500.02, -187500.02, -161669.64, 0.000, 0.000, 0.000, 16:32:34.758, 1578580354758
85, -181707.63, -183538.77, -187500.02, -187500.02, -187500.02, -187500.02, -187500.02, -187500.02, 0.000, 0.000, 0.000, 16:32:34.758, 1578580354758
86, -183810.34, -181891.00, -187500.02, -187500.02, -187500.02, -187500.02, -187500.02, -161682.72, 0.000, 0.000, 0.000, 16:32:34.758, 1578580354758
87, -181713.47, -183551.80, -187500.02, -187500.02, -187500.02, -187500.02, -187500.02, -187500.02, 0.000, 0.000, 0.000, 16:32:34.758, 1578580354758
88, -183810.84, -181892.59, -187500.02, -187500.02, -187500.02, -187500.02, -187500.02, -161695.36, 0.000, 0.000, 0.000, 16:32:34.759, 1578580354759
89, -181717.55, -183561.39, -187500.02, -187500.02, -187500.02, -187500.02, -187500.02, -187500.02, 0.000, 0.000, 0.000, 16:32:34.759, 1578580354759
90, -183811.58, -181891.27, -187500.02, -187500.02, -187500.02, -187500.02, -187500.02, -161708.09, 0.000, 0.000, 0.000, 16:32:34.759, 1578580354759
91, -181725.06, -183572.17, -187500.02, -187500.02, -187500.02, -187500.02, -187500.02, -187500.02, 0.000, 0.000, 0.000, 16:32:34.759, 1578580354759
92, -183812.30, -181892.66, -187500.02, -187500.02, -187500.02, -187500.02, -187500.02, -161720.59, 0.000, -0.018, 0.970, 16:32:34.759, 1578580354759
93, -181734.50, -183585.27, -187500.02, -187500.02, -187500.02, -187500.02, -187500.02, -187500.02, 0.000, 0.000, 0.000, 16:32:34.759, 1578580354759
94, -183816.19, -181899.23, -187500.02, -187500.02, -187500.02, -187500.02, -187500.02, -161735.94, 0.000, 0.000, 0.000, 16:32:34.759, 1578580354759
95, -181740.34, -183596.89, -187500.02, -187500.02, -187500.02, -187500.02, -187500.02, -187500.02, 0.000, 0.000, 0.000, 16:32:34.759, 1578580354759
96, -183819.27, -181902.36, -187500.02, -187500.02, -187500.02, -187500.02, -187500.02, -161751.02, 0.000, 0.000, 0.000, 16:32:34.759, 1578580354759
97, -181744.80, -183606.95, -187500.02, -187500.02, -187500.02, -187500.02, -187500.02, -187500.02, 0.000, 0.000, 0.000, 16:32:34.759, 1578580354759
98, -183819.53, -181905.31, -187500.02, -187500.02, -187500.02, -187500.02, -187500.02, -161762.92, 0.000, 0.000, 0.000, 16:32:34.759, 1578580354759
99, -181751.66, -183619.03, -187500.02, -187500.02, -187500.02, -187500.02, -187500.02, -187500.02, 0.000, 0.000, 0.000, 16:32:34.759, 1578580354759
100, -183820.98, -181907.41, -187500.02, -187500.02, -187500.02, -187500.02, -187500.02, -161776.53, 0.000, 0.000, 0.000, 16:32:34.759, 1578580354759
101, -181759.95, -183632.92, -187500.02, -187500.02, -187500.02, -187500.02, -187500.02, -187500.02, 0.000, 0.000, 0.000, 16:32:34.759, 1578580354759
102, -183823.89, -181913.28, -187500.02, -187500.02, -187500.02, -187500.02, -187500.02, -161791.22, -0.008, -0.016, 0.974, 16:32:34.759, 1578580354759
103, -181766.80, -183643.56, -187500.02, -187500.02, -187500.02, -187500.02, -187500.02, -187500.02, 0.000, 0.000, 0.000, 16:32:34.760, 1578580354760
104, -183823.78, -181915.05, -187500.02, -187500.02, -187500.02, -187500.02, -187500.02, -161803.33, 0.000, 0.000, 0.000, 16:32:35.231, 1578580355231
105, -181771.73, -183654.38, -187500.02, -187500.02, -187500.02, -187500.02, -187500.02, -187500.02, 0.000, 0.000, 0.000, 16:32:35.232, 1578580355232
106, -183824.92, -181917.11, -187500.02, -187500.02, -187500.02, -187500.02, -187500.02, -161816.80, 0.000, 0.000, 0.000, 16:32:35.232, 1578580355232
107, -181778.33, -183665.48, -187500.02, -187500.02, -187500.02, -187500.02, -187500.02, -187500.02, 0.000, 0.000, 0.000, 16:32:35.232, 1578580355232
108, -183828.34, -181922.00, -187500.02, -187500.02, -187500.02, -187500.02, -187500.02, -161832.48, 0.000, 0.000, 0.000, 16:32:35.232, 1578580355232
109, -181785.72, -183677.88, -187500.02, -187500.02, -187500.02, -187500.02, -187500.02, -187500.02, 0.000, 0.000, 0.000, 16:32:35.232, 1578580355232
110, -183832.14, -181926.45, -187500.02, -187500.02, -187500.02, -187500.02, -187500.02, -161848.73, 0.000, 0.000, 0.000, 16:32:35.232, 1578580355232
111, -181792.81, -183689.72, -187500.02, -187500.02, -187500.02, -187500.02, -187500.02, -187500.02, 0.000, 0.000, 0.000, 16:32:35.232, 1578580355232
112, -183832.86, -181924.31, -187500.02, -187500.02, -187500.02, -187500.02, -187500.02, -161862.08, -0.004, -0.016, 0.978, 16:32:35.232, 1578580355232
113, -181796.83, -183699.64, -187500.02, -187500.02, -187500.02, -187500.02, -187500.02, -187500.02, 0.000, 0.000, 0.000, 16:32:35.232, 1578580355232
114, -183833.06, -181924.66, -187500.02, -187500.02, -187500.02, -187500.02, -187500.02, -161874.20, 0.000, 0.000, 0.000, 16:32:35.232, 1578580355232
115, -181803.45, -183710.70, -187500.02, -187500.02, -187500.02, -187500.02, -187500.02, -187500.02, 0.000, 0.000, 0.000, 16:32:35.232, 1578580355232
116, -183833.25, -181927.39, -187500.02, -187500.02, -187500.02, -187500.02, -187500.02, -161886.28, 0.000, 0.000, 0.000, 16:32:35.232, 1578580355232
117, -181811.67, -183722.89, -187500.02, -187500.02, -187500.02, -187500.02, -187500.02, -187500.02, 0.000, 0.000, 0.000, 16:32:35.232, 1578580355232
118, -183834.08, -181928.17, -187500.02, -187500.02, -187500.02, -187500.02, -187500.02, -161899.20, 0.000, 0.000, 0.000, 16:32:35.232, 1578580355232
119, -181817.31, -183735.36, -187500.02, -187500.02, -187500.02, -187500.02, -187500.02, -187500.02, 0.000, 0.000, 0.000, 16:32:35.232, 1578580355232
120, -183837.39, -181934.77, -187500.02, -187500.02, -187500.02, -187500.02, -187500.02, -161914.58, 0.000, 0.000, 0.000, 16:32:35.232, 1578580355232
121, -181821.17, -183745.61, -187500.02, -187500.02, -187500.02, -187500.02, -187500.02, -187500.02, 0.000, -0.022, 0.980, 16:32:35.232, 1578580355232
122, -183838.83, -181936.94, -187500.02, -187500.02, -187500.02, -187500.02, -187500.02, -161928.28, 0.000, 0.000, 0.000, 16:32:35.233, 1578580355233
123, -181827.19, -183756.95, -187500.02, -187500.02, -187500.02, -187500.02, -187500.02, -187500.02, 0.000, 0.000, 0.000, 16:32:35.233, 1578580355233
124, -183839.05, -181938.56, -187500.02, -187500.02, -187500.02, -187500.02, -187500.02, -161940.81, 0.000, 0.000, 0.000, 16:32:35.233, 1578580355233
125, -181834.83, -183770.05, -187500.02, -187500.02, -187500.02, -187500.02, -187500.02, -187500.02, 0.000, 0.000, 0.000, 16:32:35.233, 1578580355233
126, -183841.77, -181940.64, -187500.02, -187500.02, -187500.02, -187500.02, -187500.02, -161956.16, 0.000, 0.000, 0.000, 16:32:35.233, 1578580355233
127, -181840.83, -183780.69, -187500.02, -187500.02, -187500.02, -187500.02, -187500.02, -187500.02, 0.000, 0.000, 0.000, 16:32:35.233, 1578580355233
128, -183844.17, -181943.66, -187500.02, -187500.02, -187500.02, -187500.02, -187500.02, -161970.77, 0.000, 0.000, 0.000, 16:32:35.233, 1578580355233
129, -181844.48, -183791.08, -187500.02, -187500.02, -187500.02, -187500.02, -187500.02, -187500.02, 0.000, 0.000, 0.000, 16:32:35.233, 1578580355233
130, -183847.81, -181949.08, -187500.02, -187500.02, -187500.02, -187500.02, -187500.02, -161986.59, 0.000, 0.000, 0.000, 16:32:35.233, 1578580355233
131, -181850.23, -183802.50, -187500.02, -187500.02, -187500.02, -187500.02, -187500.02, -187500.02, 0.004, -0.018, 0.976, 16:32:35.233, 1578580355233
132, -183850.27, -181953.55, -187500.02, -187500.02, -187500.02, -187500.02, -187500.02, -162001.17, 0.000, 0.000, 0.000, 16:32:35.233, 1578580355233
133, -181858.22, -183814.22, -187500.02, -187500.02, -187500.02, -187500.02, -187500.02, -187500.02, 0.000, 0.000, 0.000, 16:32:35.233, 1578580355233
134, -183853.02, -181959.78, -187500.02, -187500.02, -187500.02, -187500.02, -187500.02, -162016.34, 0.000, 0.000, 0.000, 16:32:35.233, 1578580355233
135, -181864.61, -183824.63, -187500.02, -187500.02, -187500.02, -187500.02, -187500.02, -187500.02, 0.000, 0.000, 0.000, 16:32:35.233, 1578580355233
136, -183852.39, -181959.08, -187500.02, -187500.02, -187500.02, -187500.02, -187500.02, -162028.77, 0.000, 0.000, 0.000, 16:32:35.233, 1578580355233
137, -181869.98, -183834.80, -187500.02, -187500.02, -187500.02, -187500.02, -187500.02, -187500.02, 0.000, 0.000, 0.000, 16:32:35.233, 1578580355233
138, -183852.81, -181959.16, -187500.02, -187500.02, -187500.02, -187500.02, -187500.02, -162041.88, 0.000, 0.000, 0.000, 16:32:35.233, 1578580355233
139, -181876.08, -183847.50, -187500.02, -187500.02, -187500.02, -187500.02, -187500.02, -187500.02, 0.000, 0.000, 0.000, 16:32:35.233, 1578580355233
140, -183854.73, -181962.13, -187500.02, -187500.02, -187500.02, -187500.02, -187500.02, -162056.28, 0.000, 0.000, 0.000, 16:32:35.234, 1578580355234
141, -181885.08, -183861.17, -187500.02, -187500.02, -187500.02, -187500.02, -187500.02, -187500.02, 0.002, -0.016, 0.974, 16:32:35.234, 1578580355234
142, -183856.03, -181964.20, -187500.02, -187500.02, -187500.02, -187500.02, -187500.02, -162070.19, 0.000, 0.000, 0.000, 16:32:35.234, 1578580355234
143, -181890.95, -183872.22, -187500.02, -187500.02, -187500.02, -187500.02, -187500.02, -187500.02, 0.000, 0.000, 0.000, 16:32:35.234, 1578580355234
144, -183857.44, -181965.56, -187500.02, -187500.02, -187500.02, -187500.02, -187500.02, -162084.27, 0.000, 0.000, 0.000, 16:32:35.234, 1578580355234
145, -181893.94, -183881.38, -187500.02, -187500.02, -187500.02, -187500.02, -187500.02, -187500.02, 0.000, 0.000, 0.000, 16:32:35.234, 1578580355234
146, -183859.41, -181971.38, -187500.02, -187500.02, -187500.02, -187500.02, -187500.02, -162098.63, 0.000, 0.000, 0.000, 16:32:35.235, 1578580355235
147, -181899.83, -183892.33, -187500.02, -187500.02, -187500.02, -187500.02, -187500.02, -187500.02, 0.000, 0.000, 0.000, 16:32:35.235, 1578580355235
148, -183860.55, -181975.41, -187500.02, -187500.02, -187500.02, -187500.02, -187500.02, -162112.61, 0.000, 0.000, 0.000, 16:32:35.235, 1578580355235
149, -181908.25, -183904.83, -187500.02, -187500.02, -187500.02, -187500.02, -187500.02, -187500.02, 0.000, 0.000, 0.000, 16:32:35.235, 1578580355235
150, -183861.69, -181978.55, -187500.02, -187500.02, -187500.02, -187500.02, -187500.02, -162126.72, 0.000, 0.000, 0.000, 16:32:35.235, 1578580355235
151, -181915.23, -183916.06, -187500.02, -187500.02, -187500.02, -187500.02, -187500.02, -187500.02, 0.002, -0.020, 0.978, 16:32:35.235, 1578580355235
152, -183864.48, -181982.72, -187500.02, -187500.02, -187500.02, -187500.02, -187500.02, -162142.88, 0.000, 0.000, 0.000, 16:32:35.235, 1578580355235
153, -181918.63, -183926.47, -187500.02, -187500.02, -187500.02, -187500.02, -187500.02, -187500.02, 0.000, 0.000, 0.000, 16:32:35.235, 1578580355235
154, -183866.25, -181984.30, -187500.02, -187500.02, -187500.02, -187500.02, -187500.02, -162157.88, 0.000, 0.000, 0.000, 16:32:35.235, 1578580355235
155, -181924.69, -183938.47, -187500.02, -187500.02, -187500.02, -187500.02, -187500.02, -187500.02, 0.000, 0.000, 0.000, 16:32:35.236, 1578580355236
156, -183866.47, -181985.06, -187500.02, -187500.02, -187500.02, -187500.02, -187500.02, -162171.17, 0.000, 0.000, 0.000, 16:32:35.236, 1578580355236
157, -181932.98, -183950.89, -187500.02, -187500.02, -187500.02, -187500.02, -187500.02, -187500.02, 0.000, 0.000, 0.000, 16:32:35.236, 1578580355236
158, -183870.00, -181990.69, -187500.02, -187500.02, -187500.02, -187500.02, -187500.02, -162187.94, 0.000, 0.000, 0.000, 16:32:35.236, 1578580355236
159, -181939.33, -183961.75, -187500.02, -187500.02, -187500.02, -187500.02, -187500.02, -187500.02, 0.000, 0.000, 0.000, 16:32:35.236, 1578580355236
160, -183871.30, -181989.94, -187500.02, -187500.02, -187500.02, -187500.02, -187500.02, -162202.69, 0.000, 0.000, 0.000, 16:32:35.236, 1578580355236
161, -181943.50, -183971.48, -187500.02, -187500.02, -187500.02, -187500.02, -187500.02, -187500.02, 0.002, -0.020, 0.986, 16:32:35.236, 1578580355236
162, -183873.28, -181993.03, -187500.02, -187500.02, -187500.02, -187500.02, -187500.02, -162217.52, 0.000, 0.000, 0.000, 16:32:35.236, 1578580355236
163, -181949.67, -183983.59, -187500.02, -187500.02, -187500.02, -187500.02, -187500.02, -187500.02, 0.000, 0.000, 0.000, 16:32:35.236, 1578580355236
164, -183873.36, -181994.33, -187500.02, -187500.02, -187500.02, -187500.02, -187500.02, -162230.47, 0.000, 0.000, 0.000, 16:32:35.236, 1578580355236
165, -181956.81, -183996.58, -187500.02, -187500.02, -187500.02, -187500.02, -187500.02, -187500.02, 0.000, 0.000, 0.000, 16:32:35.236, 1578580355236
166, -183876.06, -181998.36, -187500.02, -187500.02, -187500.02, -187500.02, -187500.02, -162246.30, 0.000, 0.000, 0.000, 16:32:35.236, 1578580355236
167, -181963.47, -184008.58, -187500.02, -187500.02, -187500.02, -187500.02, -187500.02, -187500.02, 0.000, 0.000, 0.000, 16:32:35.236, 1578580355236
168, -183875.34, -181997.89, -187500.02, -187500.02, -187500.02, -187500.02, -187500.02, -162258.86, 0.000, 0.000, 0.000, 16:32:35.236, 1578580355236
169, -181968.31, -184019.45, -187500.02, -187500.02, -187500.02, -187500.02, -187500.02, -187500.02, 0.000, 0.000, 0.000, 16:32:35.236, 1578580355236
170, -183877.64, -182002.88, -187500.02, -187500.02, -187500.02, -187500.02, -187500.02, -162273.97, 0.002, -0.016, 0.986, 16:32:35.236, 1578580355236
171, -181975.16, -184029.75, -187500.02, -187500.02, -187500.02, -187500.02, -187500.02, -187500.02, 0.000, 0.000, 0.000, 16:32:35.236, 1578580355236
172, -183879.61, -182006.73, -187500.02, -187500.02, -187500.02, -187500.02, -187500.02, -162289.39, 0.000, 0.000, 0.000, 16:32:35.237, 1578580355237
173, -181983.92, -184043.34, -187500.02, -187500.02, -187500.02, -187500.02, -187500.02, -187500.02, 0.000, 0.000, 0.000, 16:32:35.237, 1578580355237
174, -183882.25, -182010.41, -187500.02, -187500.02, -187500.02, -187500.02, -187500.02, -162305.39, 0.000, 0.000, 0.000, 16:32:35.237, 1578580355237
175, -181990.36, -184054.81, -187500.02, -187500.02, -187500.02, -187500.02, -187500.02, -187500.02, 0.000, 0.000, 0.000, 16:32:35.237, 1578580355237
176, -183884.94, -182016.00, -187500.02, -187500.02, -187500.02, -187500.02, -187500.02, -162321.56, 0.000, 0.000, 0.000, 16:32:35.237, 1578580355237
177, -181995.34, -184065.17, -187500.02, -187500.02, -187500.02, -187500.02, -187500.02, -187500.02, 0.000, 0.000, 0.000, 16:32:35.237, 1578580355237
178, -183884.33, -182014.81, -187500.02, -187500.02, -187500.02, -187500.02, -187500.02, -162334.75, 0.000, 0.000, 0.000, 16:32:35.237, 1578580355237
179, -182002.61, -184077.45, -187500.02, -187500.02, -187500.02, -187500.02, -187500.02, -187500.02, 0.000, 0.000, 0.000, 16:32:35.237, 1578580355237
180, -183885.34, -182016.80, -187500.02, -187500.02, -187500.02, -187500.02, -187500.02, -162349.19, 0.000, -0.018, 0.978, 16:32:35.237, 1578580355237
181, -182011.28, -184091.16, -187500.02, -187500.02, -187500.02, -187500.02, -187500.02, -187500.02, 0.000, 0.000, 0.000, 16:32:35.237, 1578580355237
182, -183886.86, -182018.63, -187500.02, -187500.02, -187500.02, -187500.02, -187500.02, -162364.30, 0.000, 0.000, 0.000, 16:32:35.237, 1578580355237
183, -182017.61, -184103.17, -187500.02, -187500.02, -187500.02, -187500.02, -187500.02, -187500.02, 0.000, 0.000, 0.000, 16:32:35.237, 1578580355237
184, -183889.06, -182020.19, -187500.02, -187500.02, -187500.02, -187500.02, -187500.02, -162379.92, 0.000, 0.000, 0.000, 16:32:35.237, 1578580355237
185, -182022.67, -184113.02, -187500.02, -187500.02, -187500.02, -187500.02, -187500.02, -187500.02, 0.000, 0.000, 0.000, 16:32:35.237, 1578580355237
186, -183891.11, -182023.69, -187500.02, -187500.02, -187500.02, -187500.02, -187500.02, -162395.36, 0.000, 0.000, 0.000, 16:32:35.237, 1578580355237
187, -182029.89, -184125.14, -187500.02, -187500.02, -187500.02, -187500.02, -187500.02, -187500.02, 0.000, 0.000, 0.000, 16:32:35.237, 1578580355237
188, -183892.27, -182026.78, -187500.02, -187500.02, -187500.02, -187500.02, -187500.02, -162409.98, 0.000, 0.000, 0.000, 16:32:35.237, 1578580355237
189, -182039.27, -184138.16, -187500.02, -187500.02, -187500.02, -187500.02, -187500.02, -187500.02, 0.000, 0.000, 0.000, 16:32:35.237, 1578580355237
190, -183892.83, -182025.81, -187500.02, -187500.02, -187500.02, -187500.02, -187500.02, -162424.28, -0.002, -0.014, 0.974, 16:32:35.238, 1578580355238
191, -182046.55, -184150.08, -187500.02, -187500.02, -187500.02, -187500.02, -187500.02, -187500.02, 0.000, 0.000, 0.000, 16:32:35.238, 1578580355238
192, -183894.30, -182030.50, -187500.02, -187500.02, -187500.02, -187500.02, -187500.02, -162438.97, 0.000, 0.000, 0.000, 16:32:35.238, 1578580355238
193, -182051.63, -184161.09, -187500.02, -187500.02, -187500.02, -187500.02, -187500.02, -187500.02, 0.000, 0.000, 0.000, 16:32:35.238, 1578580355238
194, -183895.94, -182030.88, -187500.02, -187500.02, -187500.02, -187500.02, -187500.02, -162454.31, 0.000, 0.000, 0.000, 16:32:35.238, 1578580355238
195, -182059.11, -184172.58, -187500.02, -187500.02, -187500.02, -187500.02, -187500.02, -187500.02, 0.000, 0.000, 0.000, 16:32:35.238, 1578580355238
196, -183900.41, -182036.25, -187500.02, -187500.02, -187500.02, -187500.02, -187500.02, -162472.13, 0.000, 0.000, 0.000, 16:32:35.238, 1578580355238
197, -182068.61, -184186.28, -187500.02, -187500.02, -187500.02, -187500.02, -187500.02, -187500.02, 0.000, 0.000, 0.000, 16:32:35.238, 1578580355238
198, -183901.72, -182038.14, -187500.02, -187500.02, -187500.02, -187500.02, -187500.02, -162486.88, 0.000, 0.000, 0.000, 16:32:35.238, 1578580355238
199, -182075.89, -184198.42, -187500.02, -187500.02, -187500.02, -187500.02, -187500.02, -187500.02, 0.000, 0.000, 0.000, 16:32:35.238, 1578580355238
200, -183902.84, -182036.92, -187500.02, -187500.02, -187500.02, -187500.02, -187500.02, -162501.56, 0.000, -0.020, 0.972, 16:32:35.238, 1578580355238
201, -182081.86, -184209.70, -187500.02, -187500.02, -187500.02, -187500.02, -187500.02, -187500.02, 0.000, 0.000, 0.000, 16:32:35.238, 1578580355238
202, -183903.55, -182038.80, -187500.02, -187500.02, -187500.02, -187500.02, -187500.02, -162515.55, 0.000, 0.000, 0.000, 16:32:35.238, 1578580355238
203, -182089.91, -184222.28, -187500.02, -187500.02, -187500.02, -187500.02, -187500.02, -187500.02, 0.000, 0.000, 0.000, 16:32:35.238, 1578580355238
204, -183904.38, -182040.73, -187500.02, -187500.02, -187500.02, -187500.02, -187500.02, -162529.55, 0.000, 0.000, 0.000, 16:32:35.238, 1578580355238
205, -182099.14, -184235.47, -187500.02, -187500.02, -187500.02, -187500.02, -187500.02, -187500.02, 0.000, 0.000, 0.000, 16:32:35.238, 1578580355238
206, -183904.48, -182040.31, -187500.02, -187500.02, -187500.02, -187500.02, -187500.02, -162542.89, 0.000, 0.000, 0.000, 16:32:35.239, 1578580355239
207, -182106.41, -184247.86, -187500.02, -187500.02, -187500.02, -187500.02, -187500.02, -187500.02, 0.000, 0.000, 0.000, 16:32:35.239, 1578580355239
208, -183907.11, -182044.78, -187500.02, -187500.02, -187500.02, -187500.02, -187500.02, -162558.58, 0.000, 0.000, 0.000, 16:32:35.239, 1578580355239
209, -182111.48, -184258.56, -187500.02, -187500.02, -187500.02, -187500.02, -187500.02, -187500.02, -0.002, -0.020, 0.970, 16:32:35.239, 1578580355239
210, -183908.50, -182049.13, -187500.02, -187500.02, -187500.02, -187500.02, -187500.02, -162573.19, 0.000, 0.000, 0.000, 16:32:35.239, 1578580355239
211, -182118.61, -184270.13, -187500.02, -187500.02, -187500.02, -187500.02, -187500.02, -187500.02, 0.000, 0.000, 0.000, 16:32:35.239, 1578580355239
212, -183910.03, -182053.41, -187500.02, -187500.02, -187500.02, -187500.02, -187500.02, -162588.13, 0.000, 0.000, 0.000, 16:32:35.239, 1578580355239
213, -182128.67, -184283.52, -187500.02, -187500.02, -187500.02, -187500.02, -187500.02, -187500.02, 0.000, 0.000, 0.000, 16:32:35.239, 1578580355239
214, -183912.69, -182058.59, -187500.02, -187500.02, -187500.02, -187500.02, -187500.02, -162604.48, 0.000, 0.000, 0.000, 16:32:35.239, 1578580355239
215, -182136.42, -184295.84, -187500.02, -187500.02, -187500.02, -187500.02, -187500.02, -187500.02, 0.000, 0.000, 0.000, 16:32:35.239, 1578580355239
216, -183913.34, -182060.55, -187500.02, -187500.02, -187500.02, -187500.02, -187500.02, -162619.06, 0.000, 0.000, 0.000, 16:32:35.239, 1578580355239
217, -182141.09, -184307.09, -187500.02, -187500.02, -187500.02, -187500.02, -187500.02, -187500.02, 0.000, 0.000, 0.000, 16:32:35.239, 1578580355239
218, -183913.17, -182060.55, -187500.02, -187500.02, -187500.02, -187500.02, -187500.02, -162633.05, 0.000, 0.000, 0.000, 16:32:35.239, 1578580355239
219, -182147.44, -184318.67, -187500.02, -187500.02, -187500.02, -187500.02, -187500.02, -187500.02, -0.002, -0.024, 0.972, 16:32:35.239, 1578580355239
220, -183914.70, -182059.89, -187500.02, -187500.02, -187500.02, -187500.02, -187500.02, -162648.45, 0.000, 0.000, 0.000, 16:32:35.239, 1578580355239
221, -182156.94, -184332.80, -187500.02, -187500.02, -187500.02, -187500.02, -187500.02, -187500.02, 0.000, 0.000, 0.000, 16:32:35.239, 1578580355239
222, -183914.78, -182061.03, -187500.02, -187500.02, -187500.02, -187500.02, -187500.02, -162662.09, 0.000, 0.000, 0.000, 16:32:35.239, 1578580355239
223, -182164.70, -184344.86, -187500.02, -187500.02, -187500.02, -187500.02, -187500.02, -187500.02, 0.000, 0.000, 0.000, 16:32:35.239, 1578580355239
224, -183917.17, -182063.38, -187500.02, -187500.02, -187500.02, -187500.02, -187500.02, -162678.16, 0.000, 0.000, 0.000, 16:32:35.712, 1578580355712
225, -182169.44, -184355.38, -187500.02, -187500.02, -187500.02, -187500.02, -187500.02, -187500.02, 0.000, 0.000, 0.000, 16:32:35.712, 1578580355712
226, -183919.48, -182069.06, -187500.02, -187500.02, -187500.02, -187500.02, -187500.02, -162694.05, 0.000, 0.000, 0.000, 16:32:35.712, 1578580355712
227, -182177.23, -184366.69, -187500.02, -187500.02, -187500.02, -187500.02, -187500.02, -187500.02, 0.000, 0.000, 0.000, 16:32:35.712, 1578580355712
228, -183920.58, -182068.05, -187500.02, -187500.02, -187500.02, -187500.02, -187500.02, -162709.03, 0.000, 0.000, 0.000, 16:32:35.712, 1578580355712
229, -182186.89, -184380.05, -187500.02, -187500.02, -187500.02, -187500.02, -187500.02, -187500.02, 0.002, -0.020, 0.972, 16:32:35.712, 1578580355712
230, -183922.64, -182070.70, -187500.02, -187500.02, -187500.02, -187500.02, -187500.02, -162724.58, 0.000, 0.000, 0.000, 16:32:35.713, 1578580355713
231, -182193.56, -184392.23, -187500.02, -187500.02, -187500.02, -187500.02, -187500.02, -187500.02, 0.000, 0.000, 0.000, 16:32:35.713, 1578580355713
232, -183926.03, -182075.88, -187500.02, -187500.02, -187500.02, -187500.02, -187500.02, -162741.41, 0.000, 0.000, 0.000, 16:32:35.713, 1578580355713
233, -182198.55, -184402.36, -187500.02, -187500.02, -187500.02, -187500.02, -187500.02, -187500.02, 0.000, 0.000, 0.000, 16:32:35.713, 1578580355713
234, -183927.41, -182078.16, -187500.02, -187500.02, -187500.02, -187500.02, -187500.02, -162756.66, 0.000, 0.000, 0.000, 16:32:35.713, 1578580355713
235, -182205.67, -184415.25, -187500.02, -187500.02, -187500.02, -187500.02, -187500.02, -187500.02, 0.000, 0.000, 0.000, 16:32:35.713, 1578580355713
236, -183927.77, -182076.03, -187500.02, -187500.02, -187500.02, -187500.02, -187500.02, -162770.78, 0.000, 0.000, 0.000, 16:32:35.713, 1578580355713
237, -182215.61, -184428.39, -187500.02, -187500.02, -187500.02, -187500.02, -187500.02, -187500.02, 0.000, 0.000, 0.000, 16:32:35.713, 1578580355713
238, -183929.77, -182080.48, -187500.02, -187500.02, -187500.02, -187500.02, -187500.02, -162786.03, 0.000, 0.000, 0.000, 16:32:35.713, 1578580355713
239, -182222.23, -184440.31, -187500.02, -187500.02, -187500.02, -187500.02, -187500.02, -187500.02, 0.002, -0.018, 0.974, 16:32:35.713, 1578580355713
240, -183930.91, -182083.63, -187500.02, -187500.02, -187500.02, -187500.02, -187500.02, -162800.72, 0.000, 0.000, 0.000, 16:32:35.713, 1578580355713
241, -182227.23, -184450.88, -187500.02, -187500.02, -187500.02, -187500.02, -187500.02, -187500.02, 0.000, 0.000, 0.000, 16:32:35.713, 1578580355713
242, -183929.39, -182079.22, -187500.02, -187500.02, -187500.02, -187500.02, -187500.02, -162813.23, 0.000, 0.000, 0.000, 16:32:35.713, 1578580355713
243, -182234.03, -184462.23, -187500.02, -187500.02, -187500.02, -187500.02, -187500.02, -187500.02, 0.000, 0.000, 0.000, 16:32:35.713, 1578580355713
244, -183934.16, -182089.17, -187500.02, -187500.02, -187500.02, -187500.02, -187500.02, -162831.16, 0.000, 0.000, 0.000, 16:32:35.713, 1578580355713
245, -182243.52, -184475.02, -187500.02, -187500.02, -187500.02, -187500.02, -187500.02, -187500.02, 0.000, 0.000, 0.000, 16:32:35.713, 1578580355713
246, -183937.30, -182093.42, -187500.02, -187500.02, -187500.02, -187500.02, -187500.02, -162848.05, 0.000, 0.000, 0.000, 16:32:35.713, 1578580355713
247, -182252.36, -184487.17, -187500.02, -187500.02, -187500.02, -187500.02, -187500.02, -187500.02, 0.000, 0.000, 0.000, 16:32:35.714, 1578580355714
248, -183938.13, -182095.31, -187500.02, -187500.02, -187500.02, -187500.02, -187500.02, -162862.88, 0.000, -0.020, 0.972, 16:32:35.714, 1578580355714
249, -182257.09, -184497.47, -187500.02, -187500.02, -187500.02, -187500.02, -187500.02, -187500.02, 0.000, 0.000, 0.000, 16:32:35.714, 1578580355714
250, -183938.09, -182099.25, -187500.02, -187500.02, -187500.02, -187500.02, -187500.02, -162876.63, 0.000, 0.000, 0.000, 16:32:35.714, 1578580355714
251, -182262.98, -184509.17, -187500.02, -187500.02, -187500.02, -187500.02, -187500.02, -187500.02, 0.000, 0.000, 0.000, 16:32:35.714, 1578580355714
252, -183939.45, -182100.97, -187500.02, -187500.02, -187500.02, -187500.02, -187500.02, -162892.13, 0.000, 0.000, 0.000, 16:32:35.714, 1578580355714
253, -182273.33, -184522.52, -187500.02, -187500.02, -187500.02, -187500.02, -187500.02, -187500.02, 0.000, 0.000, 0.000, 16:32:35.714, 1578580355714
254, -183940.30, -182103.14, -187500.02, -187500.02, -187500.02, -187500.02, -187500.02, -162906.95, 0.000, 0.000, 0.000, 16:32:35.714, 1578580355714
255, -182280.58, -184534.00, -187500.02, -187500.02, -187500.02, -187500.02, -187500.02, -187500.02, 0.000, 0.000, 0.000, 16:32:35.714, 1578580355714
0, -183942.52, -182108.63, -187500.02, -187500.02, -187500.02, -187500.02, -187500.02, -162923.38, 0.000, 0.000, 0.000, 16:32:35.714, 1578580355714
1, -182285.42, -184544.09, -187500.02, -187500.02, -187500.02, -187500.02, -187500.02, -187500.02, 0.000, 0.000, 0.000, 16:32:35.714, 1578580355714
2, -183942.17, -182108.02, -187500.02, -187500.02, -187500.02, -187500.02, -187500.02, -162937.59, -0.004, -0.020, 0.976, 16:32:35.714, 1578580355714
3, -182292.13, -184556.20, -187500.02, -187500.02, -187500.02, -187500.02, -187500.02, -187500.02, 0.000, 0.000, 0.000, 16:32:35.714, 1578580355714
4, -183945.75, -182113.31, -187500.02, -187500.02, -187500.02, -187500.02, -187500.02, -162955.61, 0.000, 0.000, 0.000, 16:32:35.714, 1578580355714
5, -182300.11, -184569.72, -187500.02, -187500.02, -187500.02, -187500.02, -187500.02, -187500.02, 0.000, 0.000, 0.000, 16:32:35.714, 1578580355714
6, -183947.92, -182115.25, -187500.02, -187500.02, -187500.02, -187500.02, -187500.02, -162972.27, 0.000, 0.000, 0.000, 16:32:35.714, 1578580355714
7, -182306.75, -184581.64, -187500.02, -187500.02, -187500.02, -187500.02, -187500.02, -187500.02, 0.000, 0.000, 0.000, 16:32:35.715, 1578580355715
8, -183949.06, -182116.59, -187500.02, -187500.02, -187500.02, -187500.02, -187500.02, -162987.78, 0.000, 0.000, 0.000, 16:32:35.715, 1578580355715
9, -182312.06, -184591.97, -187500.02, -187500.02, -187500.02, -187500.02, -187500.02, -187500.02, 0.000, 0.000, 0.000, 16:32:35.715, 1578580355715
10, -183951.44, -182122.13, -187500.02, -187500.02, -187500.02, -187500.02, -187500.02, -163004.20, 0.000, 0.000, 0.000, 16:32:35.715, 1578580355715
11, -182319.70, -184603.23, -187500.02, -187500.02, -187500.02, -187500.02, -187500.02, -187500.02, 0.000, 0.000, 0.000, 16:32:35.715, 1578580355715
12, -183952.55, -182122.14, -187500.02, -187500.02, -187500.02, -187500.02, -187500.02, -163020.05, -0.002, -0.020, 0.974, 16:32:35.715, 1578580355715
13, -182329.03, -184615.44, -187500.02, -187500.02, -187500.02, -187500.02, -187500.02, -187500.02, 0.000, 0.000, 0.000, 16:32:35.715, 1578580355715
14, -183952.97, -182123.23, -187500.02, -187500.02, -187500.02, -187500.02, -187500.02, -163034.73, 0.000, 0.000, 0.000, 16:32:35.715, 1578580355715
15, -182335.58, -184627.89, -187500.02, -187500.02, -187500.02, -187500.02, -187500.02, -187500.02, 0.000, 0.000, 0.000, 16:32:35.715, 1578580355715
16, -183954.92, -182126.02, -187500.02, -187500.02, -187500.02, -187500.02, -187500.02, -163051.08, 0.000, 0.000, 0.000, 16:32:35.715, 1578580355715
17, -182340.73, -184638.70, -187500.02, -187500.02, -187500.02, -187500.02, -187500.02, -187500.02, 0.000, 0.000, 0.000, 16:32:35.715, 1578580355715
18, -183955.36, -182126.61, -187500.02, -187500.02, -187500.02, -187500.02, -187500.02, -163065.81, 0.000, 0.000, 0.000, 16:32:35.715, 1578580355715
19, -182348.30, -184651.95, -187500.02, -187500.02, -187500.02, -187500.02, -187500.02, -187500.02, 0.000, 0.000, 0.000, 16:32:35.715, 1578580355715
20, -183957.02, -182130.34, -187500.02, -187500.02, -187500.02, -187500.02, -187500.02, -163081.81, 0.000, 0.000, 0.000, 16:32:35.715, 1578580355715
21, -182357.28, -184665.77, -187500.02, -187500.02, -187500.02, -187500.02, -187500.02, -187500.02, 0.000, 0.000, 0.000, 16:32:35.715, 1578580355715
22, -183959.00, -182135.13, -187500.02, -187500.02, -187500.02, -187500.02, -187500.02, -163098.23, -0.004, -0.020, 0.974, 16:32:35.715, 1578580355715
23, -182364.88, -184676.75, -187500.02, -187500.02, -187500.02, -187500.02, -187500.02, -187500.02, 0.000, 0.000, 0.000, 16:32:35.715, 1578580355715
24, -183960.50, -182136.47, -187500.02, -187500.02, -187500.02, -187500.02, -187500.02, -163114.52, 0.000, 0.000, 0.000, 16:32:35.715, 1578580355715
25, -182370.53, -184687.52, -187500.02, -187500.02, -187500.02, -187500.02, -187500.02, -187500.02, 0.000, 0.000, 0.000, 16:32:35.716, 1578580355716
26, -183961.36, -182135.63, -187500.02, -187500.02, -187500.02, -187500.02, -187500.02, -163130.11, 0.000, 0.000, 0.000, 16:32:35.716, 1578580355716
27, -182377.59, -184700.08, -187500.02, -187500.02, -187500.02, -187500.02, -187500.02, -187500.02, 0.000, 0.000, 0.000, 16:32:35.716, 1578580355716
28, -183962.38, -182138.25, -187500.02, -187500.02, -187500.02, -187500.02, -187500.02, -163145.52, 0.000, 0.000, 0.000, 16:32:35.716, 1578580355716
29, -182387.41, -184713.42, -187500.02, -187500.02, -187500.02, -187500.02, -187500.02, -187500.02, 0.000, 0.000, 0.000, 16:32:35.716, 1578580355716
30, -183964.02, -182140.94, -187500.02, -187500.02, -187500.02, -187500.02, -187500.02, -163161.27, 0.000, 0.000, 0.000, 16:32:35.716, 1578580355716
31, -182395.44, -184725.50, -187500.02, -187500.02, -187500.02, -187500.02, -187500.02, -187500.02, -0.002, -0.022, 0.976, 16:32:35.716, 1578580355716
32, -183964.64, -182142.75, -187500.02, -187500.02, -187500.02, -187500.02, -187500.02, -163176.42, 0.000, 0.000, 0.000, 16:32:35.716, 1578580355716
33, -182400.88, -184736.11, -187500.02, -187500.02, -187500.02, -187500.02, -187500.02, -187500.02, 0.000, 0.000, 0.000, 16:32:35.716, 1578580355716
34, -183968.69, -182148.16, -187500.02, -187500.02, -187500.02, -187500.02, -187500.02, -163194.94, 0.000, 0.000, 0.000, 16:32:35.716, 1578580355716
35, -182407.89, -184748.45, -187500.02, -187500.02, -187500.02, -187500.02, -187500.02, -187500.02, 0.000, 0.000, 0.000, 16:32:35.716, 1578580355716
36, -183968.42, -182145.30, -187500.02, -187500.02, -187500.02, -187500.02, -187500.02, -163209.34, 0.000, 0.000, 0.000, 16:32:35.716, 1578580355716
37, -182417.67, -184762.00, -187500.02, -187500.02, -187500.02, -187500.02, -187500.02, -187500.02, 0.000, 0.000, 0.000, 16:32:35.716, 1578580355716
38, -183970.52, -182147.20, -187500.02, -187500.02, -187500.02, -187500.02, -187500.02, -163225.75, 0.000, 0.000, 0.000, 16:32:35.716, 1578580355716
39, -182424.83, -184774.31, -187500.02, -187500.02, -187500.02, -187500.02, -187500.02, -187500.02, 0.000, 0.000, 0.000, 16:32:35.716, 1578580355716
40, -183971.13, -182146.91, -187500.02, -187500.02, -187500.02, -187500.02, -187500.02, -163240.50, 0.000, 0.000, 0.000, 16:32:35.719, 1578580355719
41, -182429.81, -184784.55, -187500.02, -187500.02, -187500.02, -187500.02, -187500.02, -187500.02, -0.002, -0.020, 0.972, 16:32:35.719, 1578580355719
42, -183975.19, -182156.05, -187500.02, -187500.02, -187500.02, -187500.02, -187500.02, -163258.34, 0.000, 0.000, 0.000, 16:32:35.720, 1578580355720
43, -182438.03, -184797.00, -187500.02, -187500.02, -187500.02, -187500.02, -187500.02, -187500.02, 0.000, 0.000, 0.000, 16:32:35.720, 1578580355720
44, -183977.50, -182159.17, -187500.02, -187500.02, -187500.02, -187500.02, -187500.02, -163275.11, 0.000, 0.000, 0.000, 16:32:35.720, 1578580355720
45, -182446.73, -184809.88, -187500.02, -187500.02, -187500.02, -187500.02, -187500.02, -187500.02, 0.000, 0.000, 0.000, 16:32:35.720, 1578580355720
46, -183980.53, -182164.56, -187500.02, -187500.02, -187500.02, -187500.02, -187500.02, -163292.52, 0.000, 0.000, 0.000, 16:32:35.720, 1578580355720
47, -182453.91, -184821.47, -187500.02, -187500.02, -187500.02, -187500.02, -187500.02, -187500.02, 0.000, 0.000, 0.000, 16:32:35.720, 1578580355720
48, -183980.05, -182164.83, -187500.02, -187500.02, -187500.02, -187500.02, -187500.02, -163306.73, 0.000, 0.000, 0.000, 16:32:35.720, 1578580355720
49, -182458.31, -184832.53, -187500.02, -187500.02, -187500.02, -187500.02, -187500.02, -187500.02, 0.000, 0.000, 0.000, 16:32:35.720, 1578580355720
50, -183979.86, -182164.70, -187500.02, -187500.02, -187500.02, -187500.02, -187500.02, -163321.22, 0.000, 0.000, 0.000, 16:32:35.720, 1578580355720
51, -182464.92, -184843.36, -187500.02, -187500.02, -187500.02, -187500.02, -187500.02, -187500.02, 0.000, -0.020, 0.972, 16:32:35.720, 1578580355720
52, -183980.27, -182166.95, -187500.02, -187500.02, -187500.02, -187500.02, -187500.02, -163336.13, 0.000, 0.000, 0.000, 16:32:35.720, 1578580355720
53, -182474.05, -184856.66, -187500.02, -187500.02, -187500.02, -187500.02, -187500.02, -187500.02, 0.000, 0.000, 0.000, 16:32:35.720, 1578580355720
54, -183984.69, -182173.38, -187500.02, -187500.02, -187500.02, -187500.02, -187500.02, -163355.23, 0.000, 0.000, 0.000, 16:32:35.720, 1578580355720
55, -182480.22, -184868.56, -187500.02, -187500.02, -187500.02, -187500.02, -187500.02, -187500.02, 0.000, 0.000, 0.000, 16:32:35.720, 1578580355720
56, -183986.03, -182177.08, -187500.02, -187500.02, -187500.02, -187500.02, -187500.02, -163371.36, 0.000, 0.000, 0.000, 16:32:35.720, 1578580355720
57, -182485.20, -184878.88, -187500.02, -187500.02, -187500.02, -187500.02, -187500.02, -187500.02, 0.000, 0.000, 0.000, 16:32:35.720, 1578580355720
58, -183988.13, -182177.11, -187500.02, -187500.02, -187500.02, -187500.02, -187500.02, -163388.55, 0.000, 0.000, 0.000, 16:32:35.720, 1578580355720
59, -182492.52, -184890.98, -187500.02, -187500.02, -187500.02, -187500.02, -187500.02, -187500.02, 0.000, 0.000, 0.000, 16:32:35.720, 1578580355720
60, -183990.56, -182180.45, -187500.02, -187500.02, -187500.02, -187500.02, -187500.02, -163405.53, 0.000, 0.000, 0.000, 16:32:35.720, 1578580355720
61, -182501.88, -184904.22, -187500.02, -187500.02, -187500.02, -187500.02, -187500.02, -187500.02, 0.000, -0.016, 0.970, 16:32:35.721, 1578580355721
62, -183991.17, -182181.59, -187500.02, -187500.02, -187500.02, -187500.02, -187500.02, -163420.73, 0.000, 0.000, 0.000, 16:32:35.721, 1578580355721
63, -182509.28, -184915.84, -187500.02, -187500.02, -187500.02, -187500.02, -187500.02, -187500.02, 0.000, 0.000, 0.000, 16:32:35.721, 1578580355721
64, -183992.77, -182184.41, -187500.02, -187500.02, -187500.02, -187500.02, -187500.02, -163437.06, 0.000, 0.000, 0.000, 16:32:35.721, 1578580355721
65, -182515.11, -184927.28, -187500.02, -187500.02, -187500.02, -187500.02, -187500.02, -187500.02, 0.000, 0.000, 0.000, 16:32:35.721, 1578580355721
66, -183995.27, -182187.66, -187500.02, -187500.02, -187500.02, -187500.02, -187500.02, -163454.22, 0.000, 0.000, 0.000, 16:32:35.721, 1578580355721
67, -182522.78, -184939.38, -187500.02, -187500.02, -187500.02, -187500.02, -187500.02, -187500.02, 0.000, 0.000, 0.000, 16:32:35.721, 1578580355721
68, -183996.47, -182190.30, -187500.02, -187500.02, -187500.02, -187500.02, -187500.02, -163470.14, 0.000, 0.000, 0.000, 16:32:35.721, 1578580355721
69, -182531.41, -184953.28, -187500.02, -187500.02, -187500.02, -187500.02, -187500.02, -187500.02, 0.000, 0.000, 0.000, 16:32:35.721, 1578580355721
70, -183997.98, -182192.06, -187500.02, -187500.02, -187500.02, -187500.02, -187500.02, -163486.58, 0.000, -0.016, 0.974, 16:32:35.721, 1578580355721
71, -182538.36, -184964.39, -187500.02, -187500.02, -187500.02, -187500.02, -187500.02, -187500.02, 0.000, 0.000, 0.000, 16:32:35.721, 1578580355721
72, -183997.39, -182189.75, -187500.02, -187500.02, -187500.02, -187500.02, -187500.02, -163500.81, 0.000, 0.000, 0.000, 16:32:35.721, 1578580355721
73, -182543.77, -184973.83, -187500.02, -187500.02, -187500.02, -187500.02, -187500.02, -187500.02, 0.000, 0.000, 0.000, 16:32:35.721, 1578580355721
74, -184000.61, -182198.05, -187500.02, -187500.02, -187500.02, -187500.02, -187500.02, -163518.22, 0.000, 0.000, 0.000, 16:32:35.721, 1578580355721
75, -182551.61, -184985.64, -187500.02, -187500.02, -187500.02, -187500.02, -187500.02, -187500.02, 0.000, 0.000, 0.000, 16:32:35.721, 1578580355721
76, -184003.91, -182203.13, -187500.02, -187500.02, -187500.02, -187500.02, -187500.02, -163536.44, 0.000, 0.000, 0.000, 16:32:35.721, 1578580355721
77, -182561.17, -184999.77, -187500.02, -187500.02, -187500.02, -187500.02, -187500.02, -187500.02, 0.000, 0.000, 0.000, 16:32:35.721, 1578580355721
78, -184000.66, -182197.16, -187500.02, -187500.02, -187500.02, -187500.02, -187500.02, -163548.47, 0.000, 0.000, 0.000, 16:32:35.722, 1578580355722
79, -182568.44, -185012.06, -187500.02, -187500.02, -187500.02, -187500.02, -187500.02, -187500.02, 0.000, 0.000, 0.000, 16:32:35.722, 1578580355722
80, -184004.52, -182203.66, -187500.02, -187500.02, -187500.02, -187500.02, -187500.02, -163566.95, 0.000, -0.018, 0.976, 16:32:35.722, 1578580355722
81, -182574.25, -185022.73, -187500.02, -187500.02, -187500.02, -187500.02, -187500.02, -187500.02, 0.000, 0.000, 0.000, 16:32:35.722, 1578580355722
82, -184007.38, -182206.94, -187500.02, -187500.02, -187500.02, -187500.02, -187500.02, -163584.80, 0.000, 0.000, 0.000, 16:32:35.722, 1578580355722
83, -182581.78, -185034.03, -187500.02, -187500.02, -187500.02, -187500.02, -187500.02, -187500.02, 0.000, 0.000, 0.000, 16:32:35.722, 1578580355722
84, -184006.61, -182203.95, -187500.02, -187500.02, -187500.02, -187500.02, -187500.02, -163599.00, 0.000, 0.000, 0.000, 16:32:35.722, 1578580355722
85, -182590.75, -185047.78, -187500.02, -187500.02, -187500.02, -187500.02, -187500.02, -187500.02, 0.000, 0.000, 0.000, 16:32:35.722, 1578580355722
86, -184009.09, -182207.66, -187500.02, -187500.02, -187500.02, -187500.02, -187500.02, -163616.11, 0.000, 0.000, 0.000, 16:32:35.722, 1578580355722
87, -182598.88, -185059.77, -187500.02, -187500.02, -187500.02, -187500.02, -187500.02, -187500.02, 0.000, 0.000, 0.000, 16:32:35.722, 1578580355722
88, -184009.55, -182207.88, -187500.02, -187500.02, -187500.02, -187500.02, -187500.02, -163631.17, 0.000, 0.000, 0.000, 16:32:35.722, 1578580355722
89, -182605.05, -185071.50, -187500.02, -187500.02, -187500.02, -187500.02, -187500.02, -187500.02, 0.000, 0.000, 0.000, 16:32:36.196, 1578580356196
90, -184011.73, -182211.03, -187500.02, -187500.02, -187500.02, -187500.02, -187500.02, -163647.84, -0.002, -0.010, 0.978, 16:32:36.196, 1578580356196
91, -182612.69, -185083.22, -187500.02, -187500.02, -187500.02, -187500.02, -187500.02, -187500.02, 0.000, 0.000, 0.000, 16:32:36.196, 1578580356196
92, -184012.47, -182213.20, -187500.02, -187500.02, -187500.02, -187500.02, -187500.02, -163663.17, 0.000, 0.000, 0.000, 16:32:36.196, 1578580356196
93, -182621.77, -185096.48, -187500.02, -187500.02, -187500.02, -187500.02, -187500.02, -187500.02, 0.000, 0.000, 0.000, 16:32:36.196, 1578580356196
94, -184012.92, -182214.66, -187500.02, -187500.02, -187500.02, -187500.02, -187500.02, -163678.27, 0.000, 0.000, 0.000, 16:32:36.196, 1578580356196
95, -182630.16, -185108.69, -187500.02, -187500.02, -187500.02, -187500.02, -187500.02, -187500.02, 0.000, 0.000, 0.000, 16:32:36.196, 1578580356196
96, -184014.19, -182219.22, -187500.02, -187500.02, -187500.02, -187500.02, -187500.02, -163694.16, 0.000, 0.000, 0.000, 16:32:36.197, 1578580356197
97, -182635.61, -185119.84, -187500.02, -187500.02, -187500.02, -187500.02, -187500.02, -187500.02, 0.000, 0.000, 0.000, 16:32:36.197, 1578580356197
98, -184017.86, -182224.78, -187500.02, -187500.02, -187500.02, -187500.02, -187500.02, -163712.80, 0.000, 0.000, 0.000, 16:32:36.197, 1578580356197
99, -182643.55, -185132.63, -187500.02, -187500.02, -187500.02, -187500.02, -187500.02, -187500.02, 0.000, 0.000, 0.000, 16:32:36.197, 1578580356197
100, -184016.86, -182221.81, -187500.02, -187500.02, -187500.02, -187500.02, -187500.02, -163727.08, 0.000, -0.010, 0.974, 16:32:36.197, 1578580356197
101, -182654.73, -185146.58, -187500.02, -187500.02, -187500.02, -187500.02, -187500.02, -187500.02, 0.000, 0.000, 0.000, 16:32:36.197, 1578580356197
102, -184020.61, -182229.14, -187500.02, -187500.02, -187500.02, -187500.02, -187500.02, -163745.52, 0.000, 0.000, 0.000, 16:32:36.197, 1578580356197
103, -182662.55, -185159.28, -187500.02, -187500.02, -187500.02, -187500.02, -187500.02, -187500.02, 0.000, 0.000, 0.000, 16:32:36.197, 1578580356197
104, -184022.39, -182230.55, -187500.02, -187500.02, -187500.02, -187500.02, -187500.02, -163762.48, 0.000, 0.000, 0.000, 16:32:36.197, 1578580356197
105, -182669.33, -185171.05, -187500.02, -187500.02, -187500.02, -187500.02, -187500.02, -187500.02, 0.000, 0.000, 0.000, 16:32:36.197, 1578580356197
106, -184023.67, -182230.70, -187500.02, -187500.02, -187500.02, -187500.02, -187500.02, -163778.88, 0.000, 0.000, 0.000, 16:32:36.197, 1578580356197
107, -182677.30, -185182.66, -187500.02, -187500.02, -187500.02, -187500.02, -187500.02, -187500.02, 0.000, 0.000, 0.000, 16:32:36.197, 1578580356197
108, -184023.42, -182231.86, -187500.02, -187500.02, -187500.02, -187500.02, -187500.02, -163793.31, 0.000, 0.000, 0.000, 16:32:36.198, 1578580356198
109, -182687.08, -185196.83, -187500.02, -187500.02, -187500.02, -187500.02, -187500.02, -187500.02, 0.000, 0.000, 0.000, 16:32:36.198, 1578580356198
110, -184024.14, -182233.47, -187500.02, -187500.02, -187500.02, -187500.02, -187500.02, -163808.98, -0.002, -0.012, 0.972, 16:32:36.199, 1578580356199
111, -182695.64, -185209.25, -187500.02, -187500.02, -187500.02, -187500.02, -187500.02, -187500.02, 0.000, 0.000, 0.000, 16:32:36.199, 1578580356199
112, -184026.44, -182236.22, -187500.02, -187500.02, -187500.02, -187500.02, -187500.02, -163826.22, 0.000, 0.000, 0.000, 16:32:36.199, 1578580356199
113, -182702.27, -185220.09, -187500.02, -187500.02, -187500.02, -187500.02, -187500.02, -187500.02, 0.000, 0.000, 0.000, 16:32:36.199, 1578580356199
114, -184028.39, -182238.44, -187500.02, -187500.02, -187500.02, -187500.02, -187500.02, -163843.11, 0.000, 0.000, 0.000, 16:32:36.199, 1578580356199
115, -182710.66, -185232.78, -187500.02, -187500.02, -187500.02, -187500.02, -187500.02, -187500.02, 0.000, 0.000, 0.000, 16:32:36.199, 1578580356199
116, -184026.52, -182234.77, -187500.02, -187500.02, -187500.02, -187500.02, -187500.02, -163856.05, 0.000, 0.000, 0.000, 16:32:36.199, 1578580356199
117, -182721.02, -185247.00, -187500.02, -187500.02, -187500.02, -187500.02, -187500.02, -187500.02, 0.000, 0.000, 0.000, 16:32:36.200, 1578580356200
118, -184028.72, -182239.98, -187500.02, -187500.02, -187500.02, -187500.02, -187500.02, -163872.64, 0.000, 0.000, 0.000, 16:32:36.200, 1578580356200
119, -182729.86, -185259.25, -187500.02, -187500.02, -187500.02, -187500.02, -187500.02, -187500.02, -0.002, -0.014, 0.976, 16:32:36.200, 1578580356200
120, -184031.22, -182240.89, -187500.02, -187500.02, -187500.02, -187500.02, -187500.02, -163890.16, 0.000, 0.000, 0.000, 16:32:36.200, 1578580356200
121, -182735.94, -185269.84, -187500.02, -187500.02, -187500.02, -187500.02, -187500.02, -187500.02, 0.000, 0.000, 0.000, 16:32:36.200, 1578580356200
122, -184032.25, -182242.39, -187500.02, -187500.02, -187500.02, -187500.02, -187500.02, -163905.89, 0.000, 0.000, 0.000, 16:32:36.200, 1578580356200
123, -182744.03, -185282.19, -187500.02, -187500.02, -187500.02, -187500.02, -187500.02, -187500.02, 0.000, 0.000, 0.000, 16:32:36.200, 1578580356200
124, -184034.27, -182244.36, -187500.02, -187500.02, -187500.02, -187500.02, -187500.02, -163922.61, 0.000, 0.000, 0.000, 16:32:36.200, 1578580356200
125, -182753.78, -185296.09, -187500.02, -187500.02, -187500.02, -187500.02, -187500.02, -187500.02, 0.000, 0.000, 0.000, 16:32:36.200, 1578580356200
126, -184035.23, -182248.55, -187500.02, -187500.02, -187500.02, -187500.02, -187500.02, -163937.97, 0.000, 0.000, 0.000, 16:32:36.200, 1578580356200
127, -182761.64, -185308.73, -187500.02, -187500.02, -187500.02, -187500.02, -187500.02, -187500.02, 0.000, 0.000, 0.000, 16:32:36.200, 1578580356200
128, -184038.14, -182253.30, -187500.02, -187500.02, -187500.02, -187500.02, -187500.02, -163955.72, 0.000, 0.000, 0.000, 16:32:36.200, 1578580356200
129, -182768.28, -185320.34, -187500.02, -187500.02, -187500.02, -187500.02, -187500.02, -187500.02, 0.002, -0.016, 0.976, 16:32:36.200, 1578580356200
130, -184036.13, -182250.16, -187500.02, -187500.02, -187500.02, -187500.02, -187500.02, -163968.69, 0.000, 0.000, 0.000, 16:32:36.200, 1578580356200
131, -182776.06, -185332.28, -187500.02, -187500.02, -187500.02, -187500.02, -187500.02, -187500.02, 0.000, 0.000, 0.000, 16:32:36.200, 1578580356200
132, -184038.58, -182255.72, -187500.02, -187500.02, -187500.02, -187500.02, -187500.02, -163985.88, 0.000, 0.000, 0.000, 16:32:36.201, 1578580356201
133, -182785.56, -185345.75, -187500.02, -187500.02, -187500.02, -187500.02, -187500.02, -187500.02, 0.000, 0.000, 0.000, 16:32:36.201, 1578580356201
134, -184040.19, -182258.78, -187500.02, -187500.02, -187500.02, -187500.02, -187500.02, -164002.55, 0.000, 0.000, 0.000, 16:32:36.201, 1578580356201
135, -182794.22, -185359.52, -187500.02, -187500.02, -187500.02, -187500.02, -187500.02, -187500.02, 0.000, 0.000, 0.000, 16:32:36.201, 1578580356201
136, -184042.63, -182259.69, -187500.02, -187500.02, -187500.02, -187500.02, -187500.02, -164020.14, 0.000, 0.000, 0.000, 16:32:36.201, 1578580356201
137, -182800.19, -185369.53, -187500.02, -187500.02, -187500.02, -187500.02, -187500.02, -187500.02, 0.000, 0.000, 0.000, 16:32:36.201, 1578580356201
138, -184043.14, -182260.59, -187500.02, -187500.02, -187500.02, -187500.02, -187500.02, -164035.48, 0.000, 0.000, 0.000, 16:32:36.201, 1578580356201
139, -182807.67, -185382.45, -187500.02, -187500.02, -187500.02, -187500.02, -187500.02, -187500.02, 0.002, -0.020, 0.974, 16:32:36.201, 1578580356201
140, -184044.08, -182263.81, -187500.02, -187500.02, -187500.02, -187500.02, -187500.02, -164051.05, 0.000, 0.000, 0.000, 16:32:36.201, 1578580356201
141, -182817.45, -185397.14, -187500.02, -187500.02, -187500.02, -187500.02, -187500.02, -187500.02, 0.000, 0.000, 0.000, 16:32:36.201, 1578580356201
142, -184045.86, -182269.17, -187500.02, -187500.02, -187500.02, -187500.02, -187500.02, -164067.78, 0.000, 0.000, 0.000, 16:32:36.201, 1578580356201
143, -182826.20, -185408.61, -187500.02, -187500.02, -187500.02, -187500.02, -187500.02, -187500.02, 0.000, 0.000, 0.000, 16:32:36.201, 1578580356201
144, -184048.22, -182273.53, -187500.02, -187500.02, -187500.02, -187500.02, -187500.02, -164085.36, 0.000, 0.000, 0.000, 16:32:36.201, 1578580356201
145, -182831.94, -185419.77, -187500.02, -187500.02, -187500.02, -187500.02, -187500.02, -187500.02, 0.000, 0.000, 0.000, 16:32:36.201, 1578580356201
146, -184048.91, -182273.53, -187500.02, -187500.02, -187500.02, -187500.02, -187500.02, -164101.56, 0.000, 0.000, 0.000, 16:32:36.201, 1578580356201
147, -182839.94, -185432.84, -187500.02, -187500.02, -187500.02, -187500.02, -187500.02, -187500.02, 0.000, 0.000, 0.000, 16:32:36.201, 1578580356201
148, -184049.11, -182273.31, -187500.02, -187500.02, -187500.02, -187500.02, -187500.02, -164117.08, 0.000, 0.000, 0.000, 16:32:36.202, 1578580356202
149, -182850.42, -185446.31, -187500.02, -187500.02, -187500.02, -187500.02, -187500.02, -187500.02, 0.002, -0.022, 0.978, 16:32:36.202, 1578580356202
150, -184050.00, -182272.70, -187500.02, -187500.02, -187500.02, -187500.02, -187500.02, -164133.08, 0.000, 0.000, 0.000, 16:32:36.202, 1578580356202
151, -182858.47, -185459.08, -187500.02, -187500.02, -187500.02, -187500.02, -187500.02, -187500.02, 0.000, 0.000, 0.000, 16:32:36.202, 1578580356202
152, -184051.41, -182276.34, -187500.02, -187500.02, -187500.02, -187500.02, -187500.02, -164149.28, 0.000, 0.000, 0.000, 16:32:36.202, 1578580356202
153, -182864.31, -185469.38, -187500.02, -187500.02, -187500.02, -187500.02, -187500.02, -187500.02, 0.000, 0.000, 0.000, 16:32:36.202, 1578580356202
154, -184053.00, -182277.39, -187500.02, -187500.02, -187500.02, -187500.02, -187500.02, -164166.06, 0.000, 0.000, 0.000, 16:32:36.202, 1578580356202
155, -182872.22, -185483.16, -187500.02, -187500.02, -187500.02, -187500.02, -187500.02, -187500.02, 0.000, 0.000, 0.000, 16:32:36.202, 1578580356202
156, -184052.23, -182274.42, -187500.02, -187500.02, -187500.02, -187500.02, -187500.02, -164180.42, 0.000, 0.000, 0.000, 16:32:36.202, 1578580356202
157, -182883.39, -185498.02, -187500.02, -187500.02, -187500.02, -187500.02, -187500.02, -187500.02, 0.000, 0.000, 0.000, 16:32:36.202, 1578580356202
158, -184055.56, -182279.55, -187500.02, -187500.02, -187500.02, -187500.02, -187500.02, -164198.30, 0.002, -0.018, 0.978, 16:32:36.202, 1578580356202
159, -182892.00, -185509.73, -187500.02, -187500.02, -187500.02, -187500.02, -187500.02, -187500.02, 0.000, 0.000, 0.000, 16:32:36.202, 1578580356202
160, -184058.19, -182282.98, -187500.02, -187500.02, -187500.02, -187500.02, -187500.02, -164215.72, 0.000, 0.000, 0.000, 16:32:36.202, 1578580356202
161, -182898.33, -185521.48, -187500.02, -187500.02, -187500.02, -187500.02, -187500.02, -187500.02, 0.000, 0.000, 0.000, 16:32:36.202, 1578580356202
162, -184058.88, -182286.09, -187500.02, -187500.02, -187500.02, -187500.02, -187500.02, -164231.20, 0.000, 0.000, 0.000, 16:32:36.202, 1578580356202
163, -182907.53, -185533.02, -187500.02, -187500.02, -187500.02, -187500.02, -187500.02, -187500.02, 0.000, 0.000, 0.000, 16:32:36.202, 1578580356202
164, -184058.77, -182285.28, -187500.02, -187500.02, -187500.02, -187500.02, -187500.02, -164246.11, 0.000, 0.000, 0.000, 16:32:36.203, 1578580356203
165, -182916.81, -185547.02, -187500.02, -187500.02, -187500.02, -187500.02, -187500.02, -187500.02, 0.000, 0.000, 0.000, 16:32:36.203, 1578580356203
166, -184061.27, -182290.98, -187500.02, -187500.02, -187500.02, -187500.02, -187500.02, -164263.45, 0.000, 0.000, 0.000, 16:32:36.203, 1578580356203
167, -182926.11, -185560.36, -187500.02, -187500.02, -187500.02, -187500.02, -187500.02, -187500.02, 0.000, 0.000, 0.000, 16:32:36.203, 1578580356203
168, -184062.27, -182293.92, -187500.02, -187500.02, -187500.02, -187500.02, -187500.02, -164279.58, 0.004, -0.020, 0.974, 16:32:36.203, 1578580356203
169, -182932.53, -185571.89, -187500.02, -187500.02, -187500.02, -187500.02, -187500.02, -187500.02, 0.000, 0.000, 0.000, 16:32:36.203, 1578580356203
170, -184062.97, -182294.08, -187500.02, -187500.02, -187500.02, -187500.02, -187500.02, -164295.38, 0.000, 0.000, 0.000, 16:32:36.203, 1578580356203
171, -182941.11, -185584.25, -187500.02, -187500.02, -187500.02, -187500.02, -187500.02, -187500.02, 0.000, 0.000, 0.000, 16:32:36.203, 1578580356203
172, -184065.52, -182299.61, -187500.02, -187500.02, -187500.02, -187500.02, -187500.02, -164312.88, 0.000, 0.000, 0.000, 16:32:36.203, 1578580356203
173, -182950.25, -185598.38, -187500.02, -187500.02, -187500.02, -187500.02, -187500.02, -187500.02, 0.000, 0.000, 0.000, 16:32:36.203, 1578580356203
174, -184066.25, -182299.70, -187500.02, -187500.02, -187500.02, -187500.02, -187500.02, -164329.03, 0.000, 0.000, 0.000, 16:32:36.203, 1578580356203
175, -182958.20, -185611.14, -187500.02, -187500.02, -187500.02, -187500.02, -187500.02, -187500.02, 0.000, 0.000, 0.000, 16:32:36.203, 1578580356203
176, -184067.92, -182302.03, -187500.02, -187500.02, -187500.02, -187500.02, -187500.02, -164345.89, 0.000, 0.000, 0.000, 16:32:36.203, 1578580356203
177, -182965.19, -185623.45, -187500.02, -187500.02, -187500.02, -187500.02, -187500.02, -187500.02, 0.000, 0.000, 0.000, 16:32:36.203, 1578580356203
178, -184070.61, -182304.28, -187500.02, -187500.02, -187500.02, -187500.02, -187500.02, -164363.84, -0.002, -0.020, 0.972, 16:32:36.203, 1578580356203
179, -182973.94, -185635.61, -187500.02, -187500.02, -187500.02, -187500.02, -187500.02, -187500.02, 0.000, 0.000, 0.000, 16:32:36.203, 1578580356203
180, -184071.30, -182307.50, -187500.02, -187500.02, -187500.02, -187500.02, -187500.02, -164379.64, 0.000, 0.000, 0.000, 16:32:36.204, 1578580356204
181, -182984.63, -185650.03, -187500.02, -187500.02, -187500.02, -187500.02, -187500.02, -187500.02, 0.000, 0.000, 0.000, 16:32:36.204, 1578580356204
182, -184072.91, -182308.72, -187500.02, -187500.02, -187500.02, -187500.02, -187500.02, -164396.63, 0.000, 0.000, 0.000, 16:32:36.204, 1578580356204
183, -182992.52, -185662.48, -187500.02, -187500.02, -187500.02, -187500.02, -187500.02, -187500.02, 0.000, 0.000, 0.000, 16:32:36.204, 1578580356204
184, -184074.95, -182311.64, -187500.02, -187500.02, -187500.02, -187500.02, -187500.02, -164413.70, 0.000, 0.000, 0.000, 16:32:36.204, 1578580356204
185, -182999.52, -185672.98, -187500.02, -187500.02, -187500.02, -187500.02, -187500.02, -187500.02, 0.000, 0.000, 0.000, 16:32:36.204, 1578580356204
186, -184074.92, -182313.55, -187500.02, -187500.02, -187500.02, -187500.02, -187500.02, -164428.80, 0.000, 0.000, 0.000, 16:32:36.204, 1578580356204
187, -183007.97, -185685.70, -187500.02, -187500.02, -187500.02, -187500.02, -187500.02, -187500.02, 0.000, 0.000, 0.000, 16:32:36.204, 1578580356204
188, -184076.09, -182313.83, -187500.02, -187500.02, -187500.02, -187500.02, -187500.02, -164445.52, 0.002, -0.026, 0.968, 16:32:36.204, 1578580356204
189, -183018.16, -185700.72, -187500.02, -187500.02, -187500.02, -187500.02, -187500.02, -187500.02, 0.000, 0.000, 0.000, 16:32:36.204, 1578580356204
190, -184078.34, -182314.86, -187500.02, -187500.02, -187500.02, -187500.02, -187500.02, -164463.14, 0.000, 0.000, 0.000, 16:32:36.204, 1578580356204
191, -183026.84, -185713.63, -187500.02, -187500.02, -187500.02, -187500.02, -187500.02, -187500.02, 0.000, 0.000, 0.000, 16:32:36.204, 1578580356204
192, -184078.23, -182314.72, -187500.02, -187500.02, -187500.02, -187500.02, -187500.02, -164477.92, 0.000, 0.000, 0.000, 16:32:36.204, 1578580356204
193, -183034.14, -185725.69, -187500.02, -187500.02, -187500.02, -187500.02, -187500.02, -187500.02, 0.000, 0.000, 0.000, 16:32:36.204, 1578580356204
194, -184081.31, -182319.13, -187500.02, -187500.02, -187500.02, -187500.02, -187500.02, -164495.94, 0.000, 0.000, 0.000, 16:32:36.204, 1578580356204
195, -183042.75, -185738.88, -187500.02, -187500.02, -187500.02, -187500.02, -187500.02, -187500.02, 0.000, 0.000, 0.000, 16:32:36.204, 1578580356204
196, -184082.23, -182323.00, -187500.02, -187500.02, -187500.02, -187500.02, -187500.02, -164511.61, 0.000, 0.000, 0.000, 16:32:36.205, 1578580356205
197, -183053.56, -185753.36, -187500.02, -187500.02, -187500.02, -187500.02, -187500.02, -187500.02, 0.002, -0.018, 0.972, 16:32:36.205, 1578580356205
198, -184083.08, -182325.28, -187500.02, -187500.02, -187500.02, -187500.02, -187500.02, -164527.86, 0.000, 0.000, 0.000, 16:32:36.205, 1578580356205
199, -183062.41, -185765.50, -187500.02, -187500.02, -187500.02, -187500.02, -187500.02, -187500.02, 0.000, 0.000, 0.000, 16:32:36.205, 1578580356205
200, -184084.48, -182325.20, -187500.02, -187500.02, -187500.02, -187500.02, -187500.02, -164544.78, 0.000, 0.000, 0.000, 16:32:36.205, 1578580356205
201, -183069.16, -185777.39, -187500.02, -187500.02, -187500.02, -187500.02, -187500.02, -187500.02, 0.000, 0.000, 0.000, 16:32:36.205, 1578580356205
202, -184084.27, -182323.17, -187500.02, -187500.02, -187500.02, -187500.02, -187500.02, -164559.64, 0.000, 0.000, 0.000, 16:32:36.205, 1578580356205
203, -183078.14, -185789.77, -187500.02, -187500.02, -187500.02, -187500.02, -187500.02, -187500.02, 0.000, 0.000, 0.000, 16:32:36.205, 1578580356205
204, -184084.73, -182325.52, -187500.02, -187500.02, -187500.02, -187500.02, -187500.02, -164574.92, 0.000, 0.000, 0.000, 16:32:36.205, 1578580356205
205, -183089.28, -185804.70, -187500.02, -187500.02, -187500.02, -187500.02, -187500.02, -187500.02, 0.000, 0.000, 0.000, 16:32:36.205, 1578580356205
206, -184087.52, -182329.55, -187500.02, -187500.02, -187500.02, -187500.02, -187500.02, -164592.55, 0.000, 0.000, 0.000, 16:32:36.205, 1578580356205
207, -183097.95, -185817.95, -187500.02, -187500.02, -187500.02, -187500.02, -187500.02, -187500.02, -0.002, -0.016, 0.974, 16:32:36.205, 1578580356205
208, -184088.72, -182334.42, -187500.02, -187500.02, -187500.02, -187500.02, -187500.02, -164608.64, 0.000, 0.000, 0.000, 16:32:36.205, 1578580356205
209, -183103.98, -185829.11, -187500.02, -187500.02, -187500.02, -187500.02, -187500.02, -187500.02, 0.000, 0.000, 0.000, 16:32:36.675, 1578580356675
210, -184089.56, -182337.44, -187500.02, -187500.02, -187500.02, -187500.02, -187500.02, -164624.86, 0.000, 0.000, 0.000, 16:32:36.676, 1578580356676
211, -183112.30, -185842.83, -187500.02, -187500.02, -187500.02, -187500.02, -187500.02, -187500.02, 0.000, 0.000, 0.000, 16:32:36.676, 1578580356676
212, -184090.09, -182338.63, -187500.02, -187500.02, -187500.02, -187500.02, -187500.02, -164640.75, 0.000, 0.000, 0.000, 16:32:36.676, 1578580356676
213, -183123.83, -185857.20, -187500.02, -187500.02, -187500.02, -187500.02, -187500.02, -187500.02, 0.000, 0.000, 0.000, 16:32:36.676, 1578580356676
214, -184090.44, -182337.81, -187500.02, -187500.02, -187500.02, -187500.02, -187500.02, -164656.80, 0.000, 0.000, 0.000, 16:32:36.676, 1578580356676
215, -183133.67, -185869.97, -187500.02, -187500.02, -187500.02, -187500.02, -187500.02, -187500.02, 0.000, 0.000, 0.000, 16:32:36.676, 1578580356676
216, -184091.33, -182338.33, -187500.02, -187500.02, -187500.02, -187500.02, -187500.02, -164672.89, 0.000, 0.000, 0.000, 16:32:36.676, 1578580356676
217, -183140.28, -185881.39, -187500.02, -187500.02, -187500.02, -187500.02, -187500.02, -187500.02, 0.000, -0.016, 0.976, 16:32:36.676, 1578580356676
218, -184093.55, -182340.09, -187500.02, -187500.02, -187500.02, -187500.02, -187500.02, -164690.31, 0.000, 0.000, 0.000, 16:32:36.677, 1578580356677
219, -183147.64, -185894.05, -187500.02, -187500.02, -187500.02, -187500.02, -187500.02, -187500.02, 0.000, 0.000, 0.000, 16:32:36.677, 1578580356677
220, -184097.98, -182345.61, -187500.02, -187500.02, -187500.02, -187500.02, -187500.02, -164709.89, 0.000, 0.000, 0.000, 16:32:36.677, 1578580356677
221, -183158.56, -185909.06, -187500.02, -187500.02, -187500.02, -187500.02, -187500.02, -187500.02, 0.000, 0.000, 0.000, 16:32:36.677, 1578580356677
222, -184099.58, -182348.94, -187500.02, -187500.02, -187500.02, -187500.02, -187500.02, -164726.47, 0.000, 0.000, 0.000, 16:32:36.677, 1578580356677
223, -183167.67, -185921.69, -187500.02, -187500.02, -187500.02, -187500.02, -187500.02, -187500.02, 0.000, 0.000, 0.000, 16:32:36.677, 1578580356677
224, -184100.00, -182349.92, -187500.02, -187500.02, -187500.02, -187500.02, -187500.02, -164742.20, 0.000, 0.000, 0.000, 16:32:36.677, 1578580356677
225, -183175.16, -185932.73, -187500.02, -187500.02, -187500.02, -187500.02, -187500.02, -187500.02, 0.000, 0.000, 0.000, 16:32:36.677, 1578580356677
226, -184100.78, -182349.66, -187500.02, -187500.02, -187500.02, -187500.02, -187500.02, -164758.25, 0.000, 0.000, 0.000, 16:32:36.677, 1578580356677
227, -183183.25, -185945.72, -187500.02, -187500.02, -187500.02, -187500.02, -187500.02, -187500.02, 0.000, -0.018, 0.976, 16:32:36.677, 1578580356677
228, -184101.33, -182350.98, -187500.02, -187500.02, -187500.02, -187500.02, -187500.02, -164773.75, 0.000, 0.000, 0.000, 16:32:36.677, 1578580356677
229, -183193.70, -185959.47, -187500.02, -187500.02, -187500.02, -187500.02, -187500.02, -187500.02, 0.000, 0.000, 0.000, 16:32:36.678, 1578580356678
230, -184104.36, -182355.66, -187500.02, -187500.02, -187500.02, -187500.02, -187500.02, -164791.83, 0.000, 0.000, 0.000, 16:32:36.678, 1578580356678
231, -183202.27, -185973.13, -187500.02, -187500.02, -187500.02, -187500.02, -187500.02, -187500.02, 0.000, 0.000, 0.000, 16:32:36.678, 1578580356678
232, -184104.83, -182355.19, -187500.02, -187500.02, -187500.02, -187500.02, -187500.02, -164807.63, 0.000, 0.000, 0.000, 16:32:36.678, 1578580356678
233, -183208.86, -185984.41, -187500.02, -187500.02, -187500.02, -187500.02, -187500.02, -187500.02, 0.000, 0.000, 0.000, 16:32:36.678, 1578580356678
234, -184106.19, -182356.20, -187500.02, -187500.02, -187500.02, -187500.02, -187500.02, -164824.08, 0.000, 0.000, 0.000, 16:32:36.678, 1578580356678
235, -183217.44, -185997.44, -187500.02, -187500.02, -187500.02, -187500.02, -187500.02, -187500.02, 0.000, 0.000, 0.000, 16:32:36.678, 1578580356678
236, -184106.23, -182356.14, -187500.02, -187500.02, -187500.02, -187500.02, -187500.02, -164839.08, 0.000, -0.018, 0.978, 16:32:36.678, 1578580356678
237, -183227.44, -186011.66, -187500.02, -187500.02, -187500.02, -187500.02, -187500.02, -187500.02, 0.000, 0.000, 0.000, 16:32:36.678, 1578580356678
238, -184109.23, -182361.16, -187500.02, -187500.02, -187500.02, -187500.02, -187500.02, -164856.66, 0.000, 0.000, 0.000, 16:32:36.679, 1578580356679
239, -183235.66, -186024.28, -187500.02, -187500.02, -187500.02, -187500.02, -187500.02, -187500.02, 0.000, 0.000, 0.000, 16:32:36.679, 1578580356679
240, -184109.23, -182362.98, -187500.02, -187500.02, -187500.02, -187500.02, -187500.02, -164871.77, 0.000, 0.000, 0.000, 16:32:36.679, 1578580356679
241, -183243.14, -186035.13, -187500.02, -187500.02, -187500.02, -187500.02, -187500.02, -187500.02, 0.000, 0.000, 0.000, 16:32:36.679, 1578580356679
242, -184111.47, -182366.11, -187500.02, -187500.02, -187500.02, -187500.02, -187500.02, -164889.14, 0.000, 0.000, 0.000, 16:32:36.679, 1578580356679
243, -183251.44, -186047.89, -187500.02, -187500.02, -187500.02, -187500.02, -187500.02, -187500.02, 0.000, 0.000, 0.000, 16:32:36.679, 1578580356679
244, -184112.36, -182368.09, -187500.02, -187500.02, -187500.02, -187500.02, -187500.02, -164905.02, 0.000, 0.000, 0.000, 16:32:36.679, 1578580356679
245, -183261.23, -186062.58, -187500.02, -187500.02, -187500.02, -187500.02, -187500.02, -187500.02, 0.000, 0.000, 0.000, 16:32:36.679, 1578580356679
246, -184114.78, -182371.91, -187500.02, -187500.02, -187500.02, -187500.02, -187500.02, -164922.70, -0.004, -0.016, 0.980, 16:32:36.679, 1578580356679
247, -183269.44, -186075.66, -187500.02, -187500.02, -187500.02, -187500.02, -187500.02, -187500.02, 0.000, 0.000, 0.000, 16:32:36.679, 1578580356679
248, -184117.55, -182377.27, -187500.02, -187500.02, -187500.02, -187500.02, -187500.02, -164940.73, 0.000, 0.000, 0.000, 16:32:36.679, 1578580356679
249, -183275.47, -186086.52, -187500.02, -187500.02, -187500.02, -187500.02, -187500.02, -187500.02, 0.000, 0.000, 0.000, 16:32:36.680, 1578580356680
250, -184117.03, -182376.81, -187500.02, -187500.02, -187500.02, -187500.02, -187500.02, -164955.73, 0.000, 0.000, 0.000, 16:32:36.680, 1578580356680
251, -183283.92, -186098.98, -187500.02, -187500.02, -187500.02, -187500.02, -187500.02, -187500.02, 0.000, 0.000, 0.000, 16:32:36.680, 1578580356680
252, -184117.27, -182376.75, -187500.02, -187500.02, -187500.02, -187500.02, -187500.02, -164971.30, 0.000, 0.000, 0.000, 16:32:36.680, 1578580356680
253, -183293.95, -186114.13, -187500.02, -187500.02, -187500.02, -187500.02, -187500.02, -187500.02, 0.000, 0.000, 0.000, 16:32:36.680, 1578580356680
254, -184118.94, -182378.53, -187500.02, -187500.02, -187500.02, -187500.02, -187500.02, -164988.22, 0.000, 0.000, 0.000, 16:32:36.680, 1578580356680
255, -183301.33, -186127.50, -187500.02, -187500.02, -187500.02, -187500.02, -187500.02, -187500.02, 0.000, 0.000, 0.000, 16:32:36.680, 1578580356680
0, -184121.22, -182382.27, -187500.02, -187500.02, -187500.02, -187500.02, -187500.02, -165005.63, -0.002, -0.020, 0.976, 16:32:36.680, 1578580356680
1, -183308.03, -186139.44, -187500.02, -187500.02, -187500.02, -187500.02, -187500.02, -187500.02, 0.000, 0.000, 0.000, 16:32:36.680, 1578580356680
2, -184121.19, -182381.47, -187500.02, -187500.02, -187500.02, -187500.02, -187500.02, -165021.06, 0.000, 0.000, 0.000, 16:32:36.680, 1578580356680
3, -183317.61, -186151.80, -187500.02, -187500.02, -187500.02, -187500.02, -187500.02, -187500.02, 0.000, 0.000, 0.000, 16:32:36.680, 1578580356680
4, -184122.91, -182384.97, -187500.02, -187500.02, -187500.02, -187500.02, -187500.02, -165037.92, 0.000, 0.000, 0.000, 16:32:36.681, 1578580356681
5, -183328.80, -186166.08, -187500.02, -187500.02, -187500.02, -187500.02, -187500.02, -187500.02, 0.000, 0.000, 0.000, 16:32:36.681, 1578580356681
6, -184125.81, -182389.02, -187500.02, -187500.02, -187500.02, -187500.02, -187500.02, -165056.03, 0.000, 0.000, 0.000, 16:32:36.681, 1578580356681
7, -183336.33, -186178.92, -187500.02, -187500.02, -187500.02, -187500.02, -187500.02, -187500.02, 0.000, 0.000, 0.000, 16:32:36.681, 1578580356681
8, -184126.05, -182389.36, -187500.02, -187500.02, -187500.02, -187500.02, -187500.02, -165071.67, 0.000, 0.000, 0.000, 16:32:36.681, 1578580356681
9, -183342.44, -186189.89, -187500.02, -187500.02, -187500.02, -187500.02, -187500.02, -187500.02, 0.000, 0.000, 0.000, 16:32:36.681, 1578580356681
10, -184128.56, -182392.11, -187500.02, -187500.02, -187500.02, -187500.02, -187500.02, -165089.52, -0.006, -0.018, 0.978, 16:32:36.681, 1578580356681
11, -183350.73, -186203.33, -187500.02, -187500.02, -187500.02, -187500.02, -187500.02, -187500.02, 0.000, 0.000, 0.000, 16:32:36.681, 1578580356681
12, -184128.44, -182393.89, -187500.02, -187500.02, -187500.02, -187500.02, -187500.02, -165104.55, 0.000, 0.000, 0.000, 16:32:36.681, 1578580356681
13, -183361.17, -186217.36, -187500.02, -187500.02, -187500.02, -187500.02, -187500.02, -187500.02, 0.000, 0.000, 0.000, 16:32:36.681, 1578580356681
14, -184129.53, -182394.63, -187500.02, -187500.02, -187500.02, -187500.02, -187500.02, -165121.25, 0.000, 0.000, 0.000, 16:32:36.681, 1578580356681
15, -183370.28, -186230.75, -187500.02, -187500.02, -187500.02, -187500.02, -187500.02, -187500.02, 0.000, 0.000, 0.000, 16:32:36.681, 1578580356681
16, -184129.69, -182394.70, -187500.02, -187500.02, -187500.02, -187500.02, -187500.02, -165136.45, 0.000, 0.000, 0.000, 16:32:36.681, 1578580356681
17, -183377.66, -186242.70, -187500.02, -187500.02, -187500.02, -187500.02, -187500.02, -187500.02, 0.000, 0.000, 0.000, 16:32:36.682, 1578580356682
18, -184131.31, -182397.67, -187500.02, -187500.02, -187500.02, -187500.02, -187500.02, -165153.39, 0.000, 0.000, 0.000, 16:32:36.682, 1578580356682
19, -183385.75, -186255.06, -187500.02, -187500.02, -187500.02, -187500.02, -187500.02, -187500.02, -0.002, -0.016, 0.978, 16:32:36.682, 1578580356682
20, -184133.38, -182399.70, -187500.02, -187500.02, -187500.02, -187500.02, -187500.02, -165170.77, 0.000, 0.000, 0.000, 16:32:36.684, 1578580356684
21, -183396.22, -186269.13, -187500.02, -187500.02, -187500.02, -187500.02, -187500.02, -187500.02, 0.000, 0.000, 0.000, 16:32:36.684, 1578580356684
22, -184134.73, -182402.05, -187500.02, -187500.02, -187500.02, -187500.02, -187500.02, -165187.25, 0.000, 0.000, 0.000, 16:32:36.684, 1578580356684
23, -183404.53, -186282.61, -187500.02, -187500.02, -187500.02, -187500.02, -187500.02, -187500.02, 0.000, 0.000, 0.000, 16:32:36.684, 1578580356684
24, -184138.11, -182407.19, -187500.02, -187500.02, -187500.02, -187500.02, -187500.02, -165205.88, 0.000, 0.000, 0.000, 16:32:36.684, 1578580356684
25, -183411.48, -186294.34, -187500.02, -187500.02, -187500.02, -187500.02, -187500.02, -187500.02, 0.000, 0.000, 0.000, 16:32:36.684, 1578580356684
26, -184138.47, -182410.69, -187500.02, -187500.02, -187500.02, -187500.02, -187500.02, -165221.52, 0.000, 0.000, 0.000, 16:32:36.684, 1578580356684
27, -183419.59, -186306.59, -187500.02, -187500.02, -187500.02, -187500.02, -187500.02, -187500.02, 0.000, 0.000, 0.000, 16:32:36.685, 1578580356685
28, -184138.97, -182411.59, -187500.02, -187500.02, -187500.02, -187500.02, -187500.02, -165237.64, 0.000, 0.000, 0.000, 16:32:36.685, 1578580356685
29, -183429.77, -186319.59, -187500.02, -187500.02, -187500.02, -187500.02, -187500.02, -187500.02, 0.000, -0.020, 0.980, 16:32:36.685, 1578580356685
30, -184140.61, -182411.42, -187500.02, -187500.02, -187500.02, -187500.02, -187500.02, -165254.98, 0.000, 0.000, 0.000, 16:32:36.685, 1578580356685
31, -183438.09, -186333.80, -187500.02, -187500.02, -187500.02, -187500.02, -187500.02, -187500.02, 0.000, 0.000, 0.000, 16:32:36.685, 1578580356685
