%OpenBCI Raw EEG Data
%Number of channels = 8
%Sample Rate = 250.0 Hz
%First Column = SampleIndex
%Last Column = Timestamp 
%Other Columns = EEG data in microvolts followed by Accel Data (in G) interleaved with Aux Data
0, -42416.61, -42445.76, -42416.93, -15131.62, -42462.17, 8482.11, -42608.59, -28976.22, 0.000, -0.022, 0.976, 17:01:21.784, 1578582081784
1, -9418.13, -5404.94, -4746.01, -4857.59, -66737.91, -76831.59, -28098.38, -81484.58, 0.000, 0.000, 0.000, 17:01:22.267, 1578582082267
2, -54558.04, -54607.66, -54549.79, -30703.61, -54652.58, 15856.28, -54897.98, 124077.63, 0.000, 0.000, 0.000, 17:01:22.268, 1578582082268
3, -18837.09, -10811.36, -9493.63, -9716.57, -133477.06, -153664.42, -56198.30, -162970.47, 0.000, 0.000, 0.000, 17:01:22.268, 1578582082268
4, -54537.43, -54584.90, -54529.34, -30703.03, -54645.14, 15872.78, -54869.78, 124078.24, 0.000, 0.000, 0.000, 17:01:22.268, 1578582082268
5, -18836.28, -10811.47, -9493.72, -9716.57, -133476.77, -153664.17, -56198.23, -162970.23, 0.000, 0.000, 0.000, 17:01:22.268, 1578582082268
6, -54563.91, -54614.05, -54551.60, -30690.06, -54658.71, 15904.07, -54902.43, 124077.37, 0.000, 0.000, 0.000, 17:01:22.268, 1578582082268
7, -18837.04, -10813.04, -9495.45, -9718.25, -133478.13, -153665.52, -56199.79, -162971.55, 0.000, -0.016, 0.978, 17:01:22.268, 1578582082268
8, -54608.82, -54688.14, -54605.64, -30692.61, -54702.54, 15886.35, -54976.01, 124076.52, 0.000, 0.000, 0.000, 17:01:22.268, 1578582082268
9, -18836.22, -10813.19, -9495.62, -9718.40, -133477.81, -153665.27, -56199.88, -162971.41, 0.000, 0.000, 0.000, 17:01:22.268, 1578582082268
10, -54557.12, -54606.79, -54534.50, -30707.05, -54633.25, 15856.48, -54894.07, 124077.75, 0.000, 0.000, 0.000, 17:01:22.269, 1578582082269
11, -18834.70, -10812.66, -9494.98, -9717.82, -133476.92, -153664.38, -56199.23, -162970.61, 0.000, 0.000, 0.000, 17:01:22.269, 1578582082269
12, -54632.40, -54676.37, -54608.42, -30701.24, -54712.42, 15899.02, -54985.02, 124078.95, 0.000, 0.000, 0.000, 17:01:22.269, 1578582082269
13, -18834.16, -10812.77, -9495.22, -9718.02, -133476.91, -153664.34, -56199.48, -162970.52, 0.000, 0.000, 0.000, 17:01:22.269, 1578582082269
14, -54584.43, -54642.84, -54571.38, -30685.21, -54675.88, 15887.35, -54943.92, 124076.38, 0.000, 0.000, 0.000, 17:01:22.269, 1578582082269
15, -18830.18, -10809.75, -9492.20, -9715.01, -133473.45, -153660.91, -56196.26, -162967.23, 0.000, 0.000, 0.000, 17:01:22.269, 1578582082269
16, -54553.30, -54610.05, -54541.05, -30691.31, -54657.23, 15903.31, -54905.34, 124076.30, 0.000, 0.000, 0.000, 17:01:22.269, 1578582082269
17, -18830.40, -10810.85, -9493.28, -9716.15, -133474.28, -153661.75, -56197.34, -162967.97, 0.002, -0.020, 0.980, 17:01:22.269, 1578582082269
18, -54531.73, -54579.38, -54516.30, -30709.33, -54633.92, 15892.04, -54874.65, 124077.16, 0.000, 0.000, 0.000, 17:01:22.269, 1578582082269
19, -18829.62, -10810.98, -9493.48, -9716.35, -133474.11, -153661.63, -56197.49, -162967.92, 0.000, 0.000, 0.000, 17:01:22.269, 1578582082269
20, -54532.91, -54557.12, -54511.14, -30687.38, -54641.41, 15879.64, -54919.53, 124076.97, 0.000, 0.000, 0.000, 17:01:22.269, 1578582082269
21, -18828.75, -10810.96, -9493.52, -9716.37, -133473.69, -153661.20, -56197.43, -162967.69, 0.000, 0.000, 0.000, 17:01:22.270, 1578582082270
22, -54619.88, -54719.91, -54591.34, -30668.74, -54717.80, 15906.51, -55036.34, 124076.77, 0.000, 0.000, 0.000, 17:01:22.270, 1578582082270
23, -18830.12, -10813.26, -9495.78, -9718.65, -133475.56, -153663.08, -56199.68, -162969.67, 0.000, 0.000, 0.000, 17:01:22.270, 1578582082270
24, -54616.29, -54736.54, -54592.88, -30689.32, -54711.66, 15889.43, -55034.64, 124076.85, 0.000, 0.000, 0.000, 17:01:22.270, 1578582082270
25, -18828.01, -10811.96, -9494.75, -9717.55, -133474.11, -153661.58, -56198.39, -162968.19, 0.000, 0.000, 0.000, 17:01:22.270, 1578582082270
26, -54565.70, -54668.54, -54542.21, -30691.76, -54650.55, 15896.16, -54959.81, 124077.37, 0.000, 0.000, 0.000, 17:01:22.270, 1578582082270
27, -18827.99, -10812.81, -9495.47, -9718.36, -133474.59, -153662.14, -56199.14, -162968.83, 0.000, -0.022, 0.980, 17:01:22.270, 1578582082270
28, -54585.21, -54688.84, -54566.84, -30696.32, -54677.42, 15904.85, -54975.30, 124077.44, 0.000, 0.000, 0.000, 17:01:22.270, 1578582082270
29, -18828.66, -10814.47, -9497.10, -9719.92, -133475.88, -153663.48, -56200.80, -162970.23, 0.000, 0.000, 0.000, 17:01:22.270, 1578582082270
30, -54577.57, -54660.12, -54553.43, -30693.86, -54660.36, 15894.48, -54941.32, 124077.66, 0.000, 0.000, 0.000, 17:01:22.270, 1578582082270
31, -18827.50, -10814.06, -9496.83, -9719.50, -133475.09, -153662.69, -56200.31, -162969.56, 0.000, 0.000, 0.000, 17:01:22.270, 1578582082270
32, -54555.38, -54621.49, -54524.02, -30692.72, -54642.88, 15850.45, -54897.96, 124079.09, 0.000, 0.000, 0.000, 17:01:22.270, 1578582082270
33, -18826.63, -10814.11, -9496.99, -9719.68, -133474.89, -153662.50, -56200.35, -162969.52, 0.000, 0.000, 0.000, 17:01:22.270, 1578582082270
34, -54510.09, -54555.49, -54478.44, -30699.18, -54615.41, 15883.69, -54865.66, 124078.28, 0.000, 0.000, 0.000, 17:01:22.270, 1578582082270
35, -18820.73, -10809.08, -9491.91, -9714.76, -133469.53, -153657.08, -56195.30, -162964.27, 0.000, 0.000, 0.000, 17:01:22.270, 1578582082270
36, -54541.72, -54582.04, -54511.77, -30696.32, -54633.25, 15857.44, -54919.15, 124077.77, 0.000, 0.000, 0.000, 17:01:22.271, 1578582082271
37, -18822.02, -10811.23, -9494.17, -9716.86, -133471.27, -153658.89, -56197.45, -162966.14, 0.002, -0.020, 0.978, 17:01:22.271, 1578582082271
38, -54602.98, -54697.85, -54596.10, -30695.65, -54704.11, 15869.00, -54976.66, 124078.24, 0.000, 0.000, 0.000, 17:01:22.271, 1578582082271
39, -18823.19, -10813.28, -9496.32, -9719.03, -133473.08, -153660.61, -56199.39, -162967.95, 0.000, 0.000, 0.000, 17:01:22.271, 1578582082271
40, -54640.69, -54732.63, -54634.66, -30692.19, -54734.32, 15901.77, -55007.02, 124075.20, 0.000, 0.000, 0.000, 17:01:22.271, 1578582082271
41, -18822.45, -10813.44, -9496.43, -9719.10, -133472.88, -153660.45, -56199.50, -162967.86, 0.000, 0.000, 0.000, 17:01:22.271, 1578582082271
42, -54605.78, -54696.44, -54600.35, -30685.23, -54695.28, 15885.41, -54965.02, 124075.55, 0.000, 0.000, 0.000, 17:01:22.271, 1578582082271
43, -18820.35, -10812.19, -9495.18, -9717.80, -133471.31, -153658.89, -56198.27, -162966.39, 0.000, 0.000, 0.000, 17:01:22.271, 1578582082271
44, -54540.51, -54629.18, -54535.01, -30683.63, -54643.22, 15899.49, -54891.48, 124077.44, 0.000, 0.000, 0.000, 17:01:22.271, 1578582082271
45, -18820.08, -10812.75, -9495.87, -9718.52, -133471.53, -153659.23, -56198.81, -162966.70, 0.000, 0.000, 0.000, 17:01:22.271, 1578582082271
46, -54566.53, -54596.68, -54532.09, -30703.43, -54645.34, 15871.84, -54910.50, 124078.04, 0.004, -0.026, 0.974, 17:01:22.271, 1578582082271
47, -18818.51, -10811.96, -9495.22, -9717.89, -133470.59, -153658.25, -56198.09, -162965.94, 0.000, 0.000, 0.000, 17:01:22.271, 1578582082271
48, -54619.82, -54774.65, -54596.50, -30695.67, -54718.90, 15874.79, -55024.88, 124078.40, 0.000, 0.000, 0.000, 17:01:22.271, 1578582082271
49, -18817.11, -10811.45, -9494.71, -9717.42, -133469.86, -153657.52, -56197.56, -162965.17, 0.000, 0.000, 0.000, 17:01:22.271, 1578582082271
50, -54562.37, -54721.41, -54528.80, -30699.31, -54654.17, 15870.54, -54954.51, 124079.91, 0.000, 0.000, 0.000, 17:01:22.271, 1578582082271
51, -18815.77, -10811.00, -9494.33, -9716.93, -133468.97, -153656.55, -56197.04, -162964.44, 0.000, 0.000, 0.000, 17:01:22.271, 1578582082271
52, -54604.91, -54760.83, -54573.19, -30696.41, -54694.45, 15897.54, -54990.39, 124078.53, 0.000, 0.000, 0.000, 17:01:22.271, 1578582082271
53, -18817.78, -10813.93, -9497.26, -9719.88, -133471.61, -153659.20, -56199.91, -162967.13, 0.000, 0.000, 0.000, 17:01:22.271, 1578582082271
54, -54578.24, -54727.60, -54544.69, -30690.53, -54656.65, 15895.04, -54951.47, 124078.98, 0.000, 0.000, 0.000, 17:01:22.272, 1578582082272
55, -18814.54, -10811.38, -9494.82, -9717.33, -133468.70, -153656.39, -56197.40, -162964.38, 0.000, 0.000, 0.000, 17:01:22.272, 1578582082272
56, -54521.00, -54647.20, -54484.05, -30700.32, -54598.47, 15890.39, -54863.83, 124079.07, 0.004, -0.022, 0.978, 17:01:22.272, 1578582082272
57, -18811.67, -10809.39, -9492.99, -9715.43, -133466.42, -153654.17, -56195.43, -162962.25, 0.000, 0.000, 0.000, 17:01:22.272, 1578582082272
58, -54531.91, -54608.62, -54488.19, -30700.46, -54607.28, 15864.49, -54877.35, 124079.05, 0.000, 0.000, 0.000, 17:01:22.272, 1578582082272
59, -18812.03, -10810.49, -9494.13, -9716.53, -133467.41, -153655.16, -56196.60, -162963.19, 0.000, 0.000, 0.000, 17:01:22.272, 1578582082272
60, -54560.45, -54611.14, -54523.73, -30702.22, -54636.91, 15882.17, -54943.67, 124079.85, 0.000, 0.000, 0.000, 17:01:22.272, 1578582082272
61, -18809.93, -10809.35, -9493.01, -9715.41, -133465.91, -153653.63, -56195.46, -162961.80, 0.000, 0.000, 0.000, 17:01:22.272, 1578582082272
62, -54545.70, -54583.72, -54520.95, -30687.94, -54636.76, 15886.19, -54910.25, 124079.60, 0.000, 0.000, 0.000, 17:01:22.272, 1578582082272
63, -18808.90, -10809.21, -9492.88, -9715.23, -133465.44, -153653.23, -56195.28, -162961.47, 0.000, 0.000, 0.000, 17:01:22.272, 1578582082272
64, -54519.41, -54556.43, -54497.06, -30708.32, -54620.38, 15880.09, -54877.62, 124079.58, 0.000, 0.000, 0.000, 17:01:22.272, 1578582082272
65, -18806.42, -10807.65, -9491.31, -9713.78, -133463.52, -153651.31, -56193.76, -162959.61, 0.000, 0.000, 0.000, 17:01:22.272, 1578582082272
66, -54507.34, -54520.15, -54476.32, -30696.86, -54607.57, 15877.00, -54861.24, 124078.40, 0.002, -0.020, 0.978, 17:01:22.272, 1578582082272
67, -18806.00, -10808.07, -9491.76, -9714.25, -133463.67, -153651.41, -56194.18, -162959.86, 0.000, 0.000, 0.000, 17:01:22.272, 1578582082272
68, -54507.59, -54560.29, -54465.52, -30715.56, -54598.43, 15891.20, -54894.65, 124081.81, 0.000, 0.000, 0.000, 17:01:22.273, 1578582082273
69, -18802.98, -10805.95, -9489.77, -9712.21, -133461.30, -153649.17, -56192.08, -162957.72, 0.000, 0.000, 0.000, 17:01:22.273, 1578582082273
70, -54497.89, -54503.21, -54452.89, -30721.94, -54588.52, 15866.41, -54827.73, 124082.91, 0.000, 0.000, 0.000, 17:01:22.273, 1578582082273
71, -18802.89, -10806.71, -9490.57, -9712.91, -133461.72, -153649.63, -56192.80, -162958.20, 0.000, 0.000, 0.000, 17:01:22.273, 1578582082273
72, -54524.04, -54535.98, -54512.06, -30701.01, -54637.94, 15912.12, -54855.05, 124081.81, 0.000, 0.000, 0.000, 17:01:22.273, 1578582082273
73, -18803.63, -10808.36, -9492.20, -9714.49, -133463.05, -153650.98, -56194.45, -162959.70, 0.000, 0.000, 0.000, 17:01:22.273, 1578582082273
74, -54556.54, -54566.21, -54545.00, -30698.87, -54675.90, 15875.13, -54880.21, 124081.15, 0.000, 0.000, 0.000, 17:01:22.273, 1578582082273
75, -18802.26, -10807.90, -9491.74, -9714.05, -133462.27, -153650.16, -56193.91, -162958.88, 0.000, 0.000, 0.000, 17:01:22.273, 1578582082273
76, -54531.77, -54585.17, -54517.07, -30698.24, -54638.34, 15891.84, -54877.55, 124080.79, 0.002, -0.020, 0.978, 17:01:22.273, 1578582082273
77, -18799.94, -10806.44, -9490.42, -9712.62, -133460.47, -153648.36, -56192.44, -162957.25, 0.000, 0.000, 0.000, 17:01:22.273, 1578582082273
78, -54546.48, -54605.76, -54506.85, -30704.14, -54629.63, 15876.85, -54940.14, 124082.40, 0.000, 0.000, 0.000, 17:01:22.273, 1578582082273
79, -18799.11, -10806.58, -9490.39, -9712.68, -133460.19, -153648.25, -56192.48, -162957.11, 0.000, 0.000, 0.000, 17:01:22.273, 1578582082273
80, -54541.45, -54602.47, -54518.34, -30715.63, -54647.82, 15885.74, -55006.39, 124083.00, 0.000, 0.000, 0.000, 17:01:22.274, 1578582082274
81, -18800.61, -10808.88, -9492.81, -9715.14, -133462.28, -153650.31, -56194.83, -162959.34, 0.000, 0.000, 0.000, 17:01:22.274, 1578582082274
82, -54649.59, -54708.20, -54628.73, -30712.73, -54752.00, 15892.89, -55108.45, 124081.19, 0.000, 0.000, 0.000, 17:01:22.274, 1578582082274
83, -18801.33, -10810.42, -9494.28, -9716.62, -133463.61, -153651.61, -56196.29, -162960.69, 0.000, 0.000, 0.000, 17:01:22.274, 1578582082274
84, -54604.44, -54662.60, -54585.13, -30706.24, -54701.04, 15869.69, -55056.52, 124080.74, 0.000, 0.000, 0.000, 17:01:22.274, 1578582082274
85, -18799.78, -10809.75, -9493.81, -9716.04, -133462.64, -153650.61, -56195.66, -162959.80, 0.000, 0.000, 0.000, 17:01:22.274, 1578582082274
86, -54540.96, -54597.29, -54522.16, -30704.34, -54645.43, 15893.79, -54984.46, 124083.49, 0.002, -0.022, 0.982, 17:01:22.274, 1578582082274
87, -18800.95, -10811.76, -9495.80, -9718.00, -133464.31, -153652.38, -56197.60, -162961.59, 0.000, 0.000, 0.000, 17:01:22.274, 1578582082274
88, -54550.53, -54603.21, -54530.97, -30696.23, -54646.88, 15898.59, -54983.28, 124083.56, 0.000, 0.000, 0.000, 17:01:22.274, 1578582082274
89, -18800.03, -10811.72, -9495.80, -9717.98, -133463.95, -153652.06, -56197.63, -162961.36, 0.000, 0.000, 0.000, 17:01:22.274, 1578582082274
90, -54559.45, -54569.55, -54530.57, -30684.47, -54633.83, 15905.30, -54944.59, 124083.11, 0.000, 0.000, 0.000, 17:01:22.274, 1578582082274
91, -18798.20, -10810.71, -9494.89, -9717.13, -133462.73, -153650.80, -56196.64, -162960.19, 0.000, 0.000, 0.000, 17:01:22.274, 1578582082274
92, -54543.53, -54548.78, -54502.31, -30703.83, -54604.21, 15876.91, -54886.54, 124083.45, 0.000, 0.000, 0.000, 17:01:22.274, 1578582082274
93, -18796.14, -10809.48, -9493.75, -9715.88, -133461.13, -153649.31, -56195.32, -162958.73, 0.000, 0.000, 0.000, 17:01:22.274, 1578582082274
94, -54543.20, -54541.61, -54499.09, -30700.05, -54607.23, 15868.73, -54878.67, 124082.17, 0.000, 0.000, 0.000, 17:01:22.274, 1578582082274
95, -18793.93, -10808.21, -9492.43, -9714.58, -133459.42, -153647.73, -56194.05, -162957.28, 0.000, -0.018, 0.982, 17:01:22.274, 1578582082274
96, -54597.66, -54587.32, -54564.96, -30686.69, -54682.91, 15892.94, -55037.01, 124081.84, 0.000, 0.000, 0.000, 17:01:22.274, 1578582082274
97, -18793.79, -10809.01, -9493.17, -9715.43, -133459.92, -153648.25, -56194.81, -162957.83, 0.000, 0.000, 0.000, 17:01:22.274, 1578582082274
98, -54523.26, -54513.22, -54480.01, -30713.98, -54597.93, 15871.35, -54926.30, 124083.20, 0.000, 0.000, 0.000, 17:01:22.274, 1578582082274
99, -18790.08, -10806.11, -9490.30, -9712.55, -133456.73, -153645.03, -56191.81, -162954.66, 0.000, 0.000, 0.000, 17:01:22.275, 1578582082275
100, -54556.94, -54619.17, -54530.61, -30702.65, -54641.95, 15888.83, -54950.24, 124082.64, 0.000, 0.000, 0.000, 17:01:22.275, 1578582082275
101, -18791.92, -10808.86, -9493.03, -9715.25, -133459.06, -153647.41, -56194.61, -162957.16, 0.000, 0.000, 0.000, 17:01:22.275, 1578582082275
102, -54575.22, -54635.84, -54549.30, -30691.80, -54658.39, 15887.98, -54961.46, 124083.36, 0.000, 0.000, 0.000, 17:01:22.275, 1578582082275
103, -18793.66, -10811.34, -9495.56, -9717.85, -133461.39, -153649.70, -56197.04, -162959.44, 0.000, 0.000, 0.000, 17:01:22.275, 1578582082275
104, -54556.32, -54597.55, -54522.03, -30686.33, -54635.44, 15891.11, -54919.84, 124083.91, 0.000, 0.000, 0.000, 17:01:22.275, 1578582082275
105, -18791.09, -10809.75, -9494.13, -9716.33, -133459.48, -153647.81, -56195.50, -162957.69, 0.002, -0.012, 0.984, 17:01:22.275, 1578582082275
106, -54579.27, -54568.72, -54545.41, -30687.04, -54657.28, 15902.84, -54953.62, 124083.18, 0.000, 0.000, 0.000, 17:01:22.275, 1578582082275
107, -18788.03, -10807.49, -9491.82, -9714.13, -133456.94, -153645.31, -56193.13, -162955.20, 0.000, 0.000, 0.000, 17:01:22.275, 1578582082275
108, -54549.88, -54627.35, -54528.73, -30698.15, -54642.44, 15888.54, -54924.07, 124083.60, 0.000, 0.000, 0.000, 17:01:22.275, 1578582082275
109, -18787.91, -10808.19, -9492.76, -9714.83, -133457.33, -153645.75, -56193.85, -162955.66, 0.000, 0.000, 0.000, 17:01:22.275, 1578582082275
110, -54568.21, -54668.59, -54547.75, -30689.88, -54658.71, 15892.47, -54933.05, 124083.60, 0.000, 0.000, 0.000, 17:01:22.276, 1578582082276
111, -18787.33, -10808.45, -9493.05, -9715.05, -133457.25, -153645.63, -56194.12, -162955.70, 0.000, 0.000, 0.000, 17:01:22.276, 1578582082276
112, -54614.74, -54702.47, -54598.67, -30693.44, -54711.88, 15866.52, -54996.89, 124082.11, 0.000, 0.000, 0.000, 17:01:22.276, 1578582082276
113, -18787.18, -10809.24, -9493.84, -9715.83, -133457.75, -153646.05, -56194.88, -162956.23, 0.000, 0.000, 0.000, 17:01:22.276, 1578582082276
114, -54553.61, -54642.61, -54538.63, -30713.20, -54644.13, 15858.20, -54931.80, 124083.18, 0.000, 0.000, 0.000, 17:01:22.276, 1578582082276
115, -18786.13, -10809.01, -9493.70, -9715.68, -133457.23, -153645.69, -56194.68, -162955.80, 0.002, -0.016, 0.980, 17:01:22.276, 1578582082276
116, -54533.25, -54618.12, -54518.77, -30714.76, -54618.36, 15866.90, -54901.94, 124084.86, 0.000, 0.000, 0.000, 17:01:22.276, 1578582082276
117, -18786.48, -10810.22, -9494.84, -9716.88, -133458.13, -153646.47, -56195.77, -162956.75, 0.000, 0.000, 0.000, 17:01:22.276, 1578582082276
118, -54503.57, -54556.00, -54477.82, -30720.71, -54592.95, 15858.05, -54842.53, 124084.97, 0.000, 0.000, 0.000, 17:01:22.276, 1578582082276
119, -18782.93, -10807.47, -9492.32, -9714.20, -133455.17, -153643.61, -56193.22, -162953.94, 0.000, 0.000, 0.000, 17:01:22.276, 1578582082276
120, -54525.43, -54654.21, -54509.84, -30725.42, -54631.15, 15824.99, -54971.05, 124083.85, 0.000, 0.000, 0.000, 17:01:22.276, 1578582082276
121, -18777.34, -10802.78, -9487.71, -9709.55, -133450.22, -153638.75, -56188.59, -162949.06, 0.000, 0.000, 0.000, 17:01:22.748, 1578582082748
122, -54506.96, -54605.89, -54476.00, -30734.12, -54597.38, 15826.11, -54917.07, 124083.70, 0.000, 0.000, 0.000, 17:01:22.748, 1578582082748
123, -18776.76, -10802.96, -9487.89, -9709.80, -133450.19, -153638.75, -56188.73, -162949.13, 0.000, 0.000, 0.000, 17:01:22.748, 1578582082748
124, -54511.12, -54590.31, -54482.93, -30727.08, -54597.60, 15826.31, -54895.79, 124085.28, 0.000, 0.000, 0.000, 17:01:22.748, 1578582082748
125, -18779.53, -10806.58, -9491.62, -9713.44, -133453.45, -153642.06, -56192.42, -162952.58, 0.004, -0.014, 0.974, 17:01:22.748, 1578582082748
126, -54575.34, -54635.77, -54550.57, -30710.40, -54652.07, 15843.63, -54937.81, 124086.20, 0.000, 0.000, 0.000, 17:01:22.748, 1578582082748
127, -18781.34, -10809.33, -9494.24, -9716.15, -133455.80, -153644.44, -56195.05, -162955.03, 0.000, 0.000, 0.000, 17:01:22.748, 1578582082748
128, -54556.89, -54612.29, -54539.11, -30715.25, -54630.59, 15855.01, -54907.46, 124087.47, 0.000, 0.000, 0.000, 17:01:22.749, 1578582082749
129, -18780.58, -10809.44, -9494.39, -9716.33, -133455.73, -153644.25, -56195.17, -162954.98, 0.000, 0.000, 0.000, 17:01:22.749, 1578582082749
130, -54529.79, -54564.72, -54496.32, -30716.68, -54599.21, 15856.46, -54857.19, 124087.09, 0.000, 0.000, 0.000, 17:01:22.749, 1578582082749
131, -18779.13, -10808.77, -9493.81, -9715.74, -133454.78, -153643.30, -56194.61, -162954.06, 0.000, 0.000, 0.000, 17:01:22.749, 1578582082749
132, -54594.34, -54601.13, -54552.63, -30713.93, -54658.35, 15835.65, -54941.14, 124086.55, 0.000, 0.000, 0.000, 17:01:22.749, 1578582082749
133, -18779.62, -10810.02, -9495.09, -9717.02, -133455.78, -153644.36, -56195.91, -162955.23, 0.000, 0.000, 0.000, 17:01:22.749, 1578582082749
134, -54613.02, -54603.03, -54574.57, -30708.55, -54670.80, 15838.29, -54944.63, 124087.56, 0.002, -0.014, 0.972, 17:01:22.749, 1578582082749
135, -18781.95, -10813.15, -9498.31, -9720.21, -133458.48, -153647.19, -56198.99, -162958.14, 0.000, 0.000, 0.000, 17:01:22.749, 1578582082749
136, -54668.77, -54659.63, -54638.93, -30706.51, -54726.30, 15849.29, -54996.71, 124086.89, 0.000, 0.000, 0.000, 17:01:22.749, 1578582082749
137, -18782.37, -10814.44, -9499.74, -9721.53, -133459.48, -153648.28, -56200.17, -162959.30, 0.000, 0.000, 0.000, 17:01:22.749, 1578582082749
138, -54639.22, -54627.84, -54624.64, -30712.57, -54703.39, 15856.46, -54958.36, 124086.04, 0.000, 0.000, 0.000, 17:01:22.749, 1578582082749
139, -18778.10, -10811.07, -9496.32, -9718.23, -133455.84, -153644.56, -56196.75, -162955.55, 0.000, 0.000, 0.000, 17:01:22.749, 1578582082749
140, -54535.84, -54530.30, -54509.44, -30707.63, -54593.55, 15839.16, -54851.31, 124087.13, 0.000, 0.000, 0.000, 17:01:22.749, 1578582082749
141, -18773.74, -10807.51, -9492.81, -9714.65, -133452.03, -153640.70, -56193.18, -162951.78, 0.000, 0.000, 0.000, 17:01:22.749, 1578582082749
142, -54552.07, -54614.72, -54527.95, -30704.43, -54616.89, 15837.95, -54923.89, 124088.43, 0.000, 0.000, 0.000, 17:01:22.749, 1578582082749
143, -18774.01, -10808.63, -9493.95, -9715.77, -133452.83, -153641.61, -56194.23, -162952.73, 0.000, 0.000, 0.000, 17:01:22.750, 1578582082750
144, -54612.39, -54689.13, -54590.11, -30705.91, -54685.29, 15843.97, -54993.67, 124088.48, 0.006, -0.016, 0.974, 17:01:22.750, 1578582082750
145, -18774.71, -10810.42, -9495.56, -9717.42, -133454.22, -153642.89, -56195.93, -162954.06, 0.000, 0.000, 0.000, 17:01:22.750, 1578582082750
146, -54571.47, -54649.21, -54553.12, -30708.30, -54668.03, 15854.23, -54947.02, 124088.68, 0.000, 0.000, 0.000, 17:01:22.750, 1578582082750
147, -18772.56, -10809.19, -9494.28, -9716.15, -133452.63, -153641.28, -56194.63, -162952.58, 0.000, 0.000, 0.000, 17:01:22.750, 1578582082750
148, -54576.36, -54632.45, -54554.23, -30712.50, -54660.07, 15834.60, -54925.07, 124087.85, 0.000, 0.000, 0.000, 17:01:22.750, 1578582082750
149, -18772.27, -10809.62, -9494.91, -9716.71, -133452.72, -153641.45, -56195.05, -162952.86, 0.000, 0.000, 0.000, 17:01:22.750, 1578582082750
150, -54610.25, -54665.35, -54596.08, -30706.96, -54691.10, 15847.83, -54953.62, 124087.60, 0.000, 0.000, 0.000, 17:01:22.750, 1578582082750
151, -18774.86, -10813.01, -9498.44, -9720.21, -133455.88, -153644.61, -56198.52, -162956.08, 0.000, 0.000, 0.000, 17:01:22.750, 1578582082750
152, -54578.29, -54598.27, -54544.29, -30701.86, -54638.08, 15849.82, -54886.96, 124089.88, 0.000, 0.000, 0.000, 17:01:22.750, 1578582082750
153, -18771.87, -10810.85, -9496.23, -9718.02, -133453.34, -153642.16, -56196.24, -162953.69, 0.000, 0.000, 0.000, 17:01:22.750, 1578582082750
154, -54582.18, -54658.08, -54569.46, -30696.79, -54655.04, 15847.54, -54956.34, 124091.18, 0.006, -0.018, 0.974, 17:01:22.750, 1578582082750
155, -18769.68, -10809.44, -9494.84, -9716.71, -133451.63, -153640.39, -56194.77, -162951.92, 0.000, 0.000, 0.000, 17:01:22.751, 1578582082751
156, -54556.18, -54646.19, -54550.19, -30687.63, -54627.13, 15863.90, -54935.85, 124090.16, 0.000, 0.000, 0.000, 17:01:22.751, 1578582082751
157, -18768.74, -10809.48, -9494.89, -9716.73, -133451.33, -153639.92, -56194.74, -162951.66, 0.000, 0.000, 0.000, 17:01:22.752, 1578582082752
158, -54571.87, -54649.01, -54561.19, -30680.16, -54644.13, 15868.98, -54933.63, 124088.12, 0.000, 0.000, 0.000, 17:01:22.752, 1578582082752
159, -18767.17, -10808.63, -9494.19, -9716.01, -133450.28, -153638.98, -56193.98, -162950.73, 0.000, 0.000, 0.000, 17:01:22.752, 1578582082752
160, -54575.22, -54618.63, -54565.28, -30682.62, -54655.33, 15864.46, -54896.48, 124090.40, 0.000, 0.000, 0.000, 17:01:22.752, 1578582082752
161, -18767.20, -10809.55, -9495.22, -9717.02, -133450.86, -153639.67, -56194.95, -162951.59, 0.000, 0.000, 0.000, 17:01:22.752, 1578582082752
162, -54504.91, -54548.47, -54497.13, -30671.42, -54581.66, 15864.80, -54821.41, 124090.51, 0.000, 0.000, 0.000, 17:01:22.752, 1578582082752
163, -18764.54, -10807.69, -9493.37, -9715.36, -133448.66, -153637.58, -56193.16, -162949.44, 0.000, 0.000, 0.000, 17:01:22.752, 1578582082752
164, -54518.09, -54538.75, -54484.12, -30683.80, -54586.89, 15853.94, -54842.30, 124091.61, 0.002, -0.020, 0.974, 17:01:22.752, 1578582082752
165, -18762.75, -10806.75, -9492.47, -9714.40, -133447.42, -153636.30, -56192.15, -162948.25, 0.000, 0.000, 0.000, 17:01:22.752, 1578582082752
166, -54526.52, -54597.42, -54499.32, -30667.55, -54603.90, 15878.19, -54894.68, 124091.43, 0.000, 0.000, 0.000, 17:01:22.753, 1578582082753
167, -18761.85, -10806.71, -9492.43, -9714.27, -133447.06, -153635.84, -56191.97, -162947.98, 0.000, 0.000, 0.000, 17:01:22.753, 1578582082753
168, -54551.66, -54612.04, -54538.05, -30678.06, -54650.89, 15853.64, -54950.36, 124091.92, 0.000, 0.000, 0.000, 17:01:22.753, 1578582082753
169, -18760.60, -10806.38, -9492.25, -9713.84, -133446.39, -153635.20, -56191.66, -162947.45, 0.000, 0.000, 0.000, 17:01:22.753, 1578582082753
170, -54517.85, -54556.27, -54499.09, -30669.92, -54615.46, 15845.87, -54888.98, 124092.34, 0.000, 0.000, 0.000, 17:01:22.753, 1578582082753
171, -18760.24, -10806.82, -9492.70, -9714.40, -133446.58, -153635.42, -56192.13, -162947.72, 0.000, 0.000, 0.000, 17:01:22.753, 1578582082753
172, -54564.45, -54605.80, -54551.20, -30662.75, -54658.86, 15856.06, -54940.18, 124092.55, 0.000, 0.000, 0.000, 17:01:22.753, 1578582082753
173, -18760.24, -10807.56, -9493.39, -9715.12, -133446.97, -153635.89, -56192.89, -162948.17, 0.000, -0.018, 0.980, 17:01:22.753, 1578582082753
174, -54537.09, -54585.51, -54523.55, -30676.90, -54620.22, 15842.89, -54913.41, 124092.30, 0.000, 0.000, 0.000, 17:01:22.753, 1578582082753
175, -18760.18, -10808.34, -9494.15, -9715.92, -133447.47, -153636.28, -56193.51, -162948.66, 0.000, 0.000, 0.000, 17:01:22.753, 1578582082753
176, -54656.65, -54740.61, -54653.03, -30658.99, -54736.76, 15865.92, -55039.13, 124093.39, 0.000, 0.000, 0.000, 17:01:22.754, 1578582082754
177, -18764.80, -10813.80, -9499.71, -9721.53, -133452.73, -153641.59, -56199.10, -162954.05, 0.000, 0.000, 0.000, 17:01:22.754, 1578582082754
178, -54651.27, -54739.22, -54651.89, -30682.78, -54728.29, 15835.27, -55031.47, 124092.63, 0.000, 0.000, 0.000, 17:01:22.754, 1578582082754
179, -18761.76, -10811.65, -9497.64, -9719.41, -133450.23, -153639.19, -56196.93, -162951.66, 0.000, 0.000, 0.000, 17:01:22.754, 1578582082754
180, -54620.89, -54708.24, -54623.53, -30677.66, -54691.48, 15852.19, -54994.97, 124094.18, 0.000, 0.000, 0.000, 17:01:22.754, 1578582082754
181, -18764.74, -10815.50, -9501.44, -9723.19, -133453.66, -153642.53, -56200.66, -162955.19, 0.000, 0.000, 0.000, 17:01:22.754, 1578582082754
182, -54664.83, -54748.79, -54668.92, -30690.17, -54728.76, 15848.75, -55031.22, 124093.17, 0.000, 0.000, 0.000, 17:01:22.754, 1578582082754
183, -18761.72, -10813.42, -9499.36, -9721.00, -133451.11, -153640.08, -56198.52, -162952.81, -0.002, -0.012, 0.976, 17:01:22.754, 1578582082754
184, -54530.27, -54600.06, -54519.34, -30699.27, -54616.08, 15836.39, -54873.89, 124095.72, 0.000, 0.000, 0.000, 17:01:22.754, 1578582082754
185, -18758.72, -10811.25, -9497.21, -9718.94, -133448.66, -153637.59, -56196.38, -162950.48, 0.000, 0.000, 0.000, 17:01:22.754, 1578582082754
186, -54505.58, -54557.14, -54475.80, -30696.32, -54591.59, 15809.10, -54828.04, 124094.45, 0.000, 0.000, 0.000, 17:01:22.754, 1578582082754
187, -18754.90, -10808.12, -9494.31, -9715.99, -133445.34, -153634.27, -56193.29, -162947.23, 0.000, 0.000, 0.000, 17:01:22.754, 1578582082754
188, -54522.68, -54610.12, -54487.29, -30686.15, -54605.80, 15830.09, -54885.85, 124094.40, 0.000, 0.000, 0.000, 17:01:22.754, 1578582082754
189, -18752.31, -10806.49, -9492.58, -9714.31, -133443.28, -153632.19, -56191.59, -162945.27, 0.000, 0.000, 0.000, 17:01:22.754, 1578582082754
190, -54562.39, -54580.16, -54508.53, -30687.67, -54624.31, 15836.12, -54882.58, 124095.07, 0.000, 0.000, 0.000, 17:01:22.755, 1578582082755
191, -18753.74, -10808.72, -9494.89, -9716.55, -133445.20, -153634.17, -56193.80, -162947.25, 0.000, 0.000, 0.000, 17:01:22.755, 1578582082755
192, -54596.04, -54655.64, -54574.75, -30680.83, -54677.19, 15842.25, -54952.95, 124096.57, 0.000, 0.000, 0.000, 17:01:22.755, 1578582082755
193, -18753.40, -10809.28, -9495.49, -9717.20, -133445.47, -153634.47, -56194.43, -162947.61, 0.002, -0.010, 0.974, 17:01:22.755, 1578582082755
194, -54624.11, -54682.18, -54604.15, -30681.14, -54697.42, 15844.75, -54974.18, 124095.20, 0.000, 0.000, 0.000, 17:01:22.755, 1578582082755
195, -18756.38, -10813.17, -9499.36, -9721.04, -133448.94, -153638.02, -56198.25, -162951.25, 0.000, 0.000, 0.000, 17:01:22.755, 1578582082755
196, -54623.88, -54679.61, -54604.55, -30704.43, -54690.67, 15832.46, -54965.80, 124096.92, 0.000, 0.000, 0.000, 17:01:22.755, 1578582082755
197, -18753.43, -10811.00, -9497.26, -9718.99, -133446.44, -153635.56, -56196.06, -162948.77, 0.000, 0.000, 0.000, 17:01:22.755, 1578582082755
198, -54534.23, -54576.16, -54507.66, -30703.21, -54610.65, 15828.66, -54871.07, 124096.44, 0.000, 0.000, 0.000, 17:01:22.755, 1578582082755
199, -18747.93, -10806.29, -9492.56, -9714.38, -133441.41, -153630.58, -56191.28, -162943.81, 0.000, 0.000, 0.000, 17:01:22.755, 1578582082755
200, -54492.34, -54574.71, -54459.00, -30707.25, -54594.96, 15832.86, -54864.77, 124096.86, 0.000, 0.000, 0.000, 17:01:22.755, 1578582082755
201, -18746.79, -10806.02, -9492.27, -9714.02, -133440.77, -153629.92, -56190.90, -162943.25, 0.000, 0.000, 0.000, 17:01:22.755, 1578582082755
202, -54526.36, -54599.79, -54487.94, -30704.46, -54625.88, 15835.27, -54882.32, 124098.60, 0.000, 0.000, 0.000, 17:01:22.755, 1578582082755
203, -18749.18, -10809.24, -9495.58, -9717.33, -133443.75, -153632.91, -56194.23, -162946.41, 0.004, -0.014, 0.976, 17:01:22.755, 1578582082755
204, -54570.17, -54639.20, -54541.45, -30702.02, -54667.96, 15840.35, -54917.14, 124097.02, 0.000, 0.000, 0.000, 17:01:22.755, 1578582082755
205, -18748.26, -10809.15, -9495.42, -9717.22, -133443.33, -153632.36, -56193.98, -162946.00, 0.000, 0.000, 0.000, 17:01:22.755, 1578582082755
206, -54527.77, -54587.70, -54495.29, -30694.31, -54613.58, 15853.26, -54865.04, 124099.61, 0.000, 0.000, 0.000, 17:01:22.756, 1578582082756
207, -18752.26, -10813.95, -9500.36, -9722.07, -133447.73, -153636.94, -56198.74, -162950.61, 0.000, 0.000, 0.000, 17:01:22.756, 1578582082756
208, -54638.77, -54682.20, -54610.12, -30675.44, -54717.34, 15858.43, -55009.61, 124100.13, 0.000, 0.000, 0.000, 17:01:22.756, 1578582082756
209, -18754.21, -10816.66, -9503.13, -9724.80, -133450.22, -153639.38, -56201.52, -162953.16, 0.000, 0.000, 0.000, 17:01:22.756, 1578582082756
210, -54623.19, -54668.68, -54599.12, -30689.95, -54697.98, 15849.62, -54996.11, 124099.45, 0.000, 0.000, 0.000, 17:01:22.756, 1578582082756
211, -18753.20, -10816.66, -9503.04, -9724.82, -133449.63, -153638.89, -56201.36, -162952.64, 0.000, 0.000, 0.000, 17:01:22.756, 1578582082756
212, -54623.44, -54667.36, -54600.21, -30694.02, -54691.66, 15838.13, -54990.05, 124099.70, -0.006, -0.014, 0.986, 17:01:22.756, 1578582082756
213, -18753.16, -10817.24, -9503.83, -9725.53, -133450.06, -153639.27, -56202.01, -162953.16, 0.000, 0.000, 0.000, 17:01:22.756, 1578582082756
214, -54582.87, -54625.47, -54559.85, -30711.25, -54652.16, 15830.56, -54941.21, 124100.19, 0.000, 0.000, 0.000, 17:01:22.756, 1578582082756
215, -18752.04, -10816.99, -9503.65, -9725.38, -133449.44, -153638.75, -56201.74, -162952.70, 0.000, 0.000, 0.000, 17:01:22.756, 1578582082756
216, -54565.41, -54605.64, -54542.50, -30702.98, -54648.61, 15836.77, -54915.53, 124100.99, 0.000, 0.000, 0.000, 17:01:22.756, 1578582082756
217, -18752.08, -10817.77, -9504.52, -9726.27, -133449.97, -153639.20, -56202.54, -162953.31, 0.000, 0.000, 0.000, 17:01:22.756, 1578582082756
218, -54592.37, -54630.81, -54570.69, -30690.06, -54670.73, 15860.91, -54935.56, 124098.87, 0.000, 0.000, 0.000, 17:01:22.756, 1578582082756
219, -18750.99, -10817.60, -9504.23, -9726.16, -133449.34, -153638.55, -56202.21, -162952.80, 0.000, 0.000, 0.000, 17:01:22.756, 1578582082756
220, -54539.13, -54546.99, -54500.95, -30707.83, -54601.62, 15833.01, -54855.56, 124099.88, 0.000, 0.000, 0.000, 17:01:22.756, 1578582082756
221, -18745.80, -10813.30, -9500.00, -9721.94, -133444.63, -153633.92, -56197.78, -162948.23, 0.000, 0.000, 0.000, 17:01:22.756, 1578582082756
222, -54554.68, -54584.59, -54527.86, -30692.70, -54648.00, 15850.29, -54939.91, 124101.06, -0.002, -0.016, 0.976, 17:01:22.757, 1578582082757
223, -18746.32, -10814.67, -9501.37, -9723.28, -133445.63, -153634.91, -56199.10, -162949.36, 0.000, 0.000, 0.000, 17:01:22.757, 1578582082757
224, -54584.30, -54636.85, -54573.66, -30694.51, -54696.75, 15848.86, -54987.64, 124101.22, 0.000, 0.000, 0.000, 17:01:22.757, 1578582082757
225, -18746.61, -10815.83, -9502.58, -9724.53, -133446.50, -153635.77, -56200.38, -162950.30, 0.000, 0.000, 0.000, 17:01:22.757, 1578582082757
226, -54547.64, -54597.17, -54527.77, -30705.06, -54648.67, 15836.25, -54946.26, 124101.71, 0.000, 0.000, 0.000, 17:01:22.757, 1578582082757
227, -18743.55, -10813.59, -9500.34, -9722.41, -133443.89, -153633.25, -56198.05, -162947.72, 0.000, 0.000, 0.000, 17:01:22.757, 1578582082757
228, -54573.13, -54696.57, -54570.60, -30691.02, -54677.93, 15846.56, -55036.86, 124100.59, 0.000, 0.000, 0.000, 17:01:22.757, 1578582082757
229, -18742.99, -10813.84, -9500.59, -9722.65, -133443.75, -153633.19, -56198.18, -162947.66, 0.000, 0.000, 0.000, 17:01:22.757, 1578582082757
230, -54548.36, -54653.88, -54527.44, -30705.35, -54642.73, 15852.35, -54992.49, 124103.72, 0.000, 0.000, 0.000, 17:01:22.757, 1578582082757
231, -18744.02, -10815.96, -9502.67, -9724.71, -133445.36, -153634.78, -56200.02, -162949.33, 0.000, 0.000, 0.000, 17:01:22.757, 1578582082757
232, -54563.76, -54683.03, -54544.85, -30688.52, -54666.73, 15854.92, -55017.88, 124103.79, 0.000, -0.024, 0.968, 17:01:22.757, 1578582082757
233, -18742.32, -10815.11, -9501.86, -9723.90, -133444.25, -153633.55, -56199.13, -162948.17, 0.000, 0.000, 0.000, 17:01:22.757, 1578582082757
234, -54559.02, -54676.77, -54541.43, -30699.83, -54654.26, 15832.08, -55006.25, 124102.49, 0.000, 0.000, 0.000, 17:01:22.757, 1578582082757
235, -18741.45, -10814.96, -9501.75, -9723.88, -133443.67, -153633.09, -56199.01, -162947.83, 0.000, 0.000, 0.000, 17:01:22.757, 1578582082757
236, -54513.20, -54605.78, -54485.57, -30698.20, -54593.15, 15838.45, -54927.93, 124103.36, 0.000, 0.000, 0.000, 17:01:22.757, 1578582082757
237, -18737.76, -10812.08, -9498.91, -9721.20, -133440.38, -153629.86, -56196.11, -162944.77, 0.000, 0.000, 0.000, 17:01:22.757, 1578582082757
238, -54516.59, -54591.32, -54499.39, -30702.91, -54622.63, 15843.85, -54907.68, 124102.11, 0.000, 0.000, 0.000, 17:01:22.758, 1578582082758
239, -18738.88, -10813.84, -9500.72, -9722.99, -133441.92, -153631.31, -56197.78, -162946.33, 0.000, 0.000, 0.000, 17:01:22.758, 1578582082758
240, -54542.90, -54597.75, -54526.50, -30696.97, -54656.18, 15853.33, -54937.43, 124102.58, 0.000, 0.000, 0.000, 17:01:22.758, 1578582082758
241, -18739.59, -10815.50, -9502.44, -9724.80, -133443.27, -153632.75, -56199.50, -162947.77, 0.000, 0.000, 0.000, 17:01:23.227, 1578582083227
242, -54557.23, -54613.74, -54547.38, -30691.45, -54670.78, 15853.73, -54962.22, 124102.00, 0.002, -0.016, 0.978, 17:01:23.227, 1578582083227
243, -18736.19, -10812.95, -9499.87, -9722.34, -133440.30, -153629.80, -56196.89, -162944.97, 0.000, 0.000, 0.000, 17:01:23.227, 1578582083227
244, -54497.95, -54513.31, -54476.86, -30705.22, -54604.97, 15835.34, -54854.84, 124102.13, 0.000, 0.000, 0.000, 17:01:23.228, 1578582083228
245, -18733.87, -10811.54, -9498.46, -9720.91, -133438.45, -153628.03, -56195.37, -162943.14, 0.000, 0.000, 0.000, 17:01:23.228, 1578582083228
246, -54490.67, -54529.02, -54475.49, -30695.78, -54608.64, 15861.20, -54847.67, 124102.11, 0.000, 0.000, 0.000, 17:01:23.228, 1578582083228
247, -18732.79, -10811.38, -9498.24, -9720.68, -133437.94, -153627.45, -56195.21, -162942.69, 0.000, 0.000, 0.000, 17:01:23.228, 1578582083228
248, -54578.38, -54631.06, -54570.35, -30685.61, -54690.11, 15853.09, -54955.32, 124102.78, 0.000, 0.000, 0.000, 17:01:23.228, 1578582083228
249, -18735.77, -10815.27, -9502.31, -9724.66, -133441.52, -153631.00, -56199.05, -162946.36, 0.000, 0.000, 0.000, 17:01:23.228, 1578582083228
250, -54531.06, -54584.10, -54531.68, -30692.63, -54646.68, 15846.98, -54902.75, 124104.46, 0.000, 0.000, 0.000, 17:01:23.228, 1578582083228
251, -18731.19, -10811.61, -9498.60, -9721.06, -133437.31, -153626.94, -56195.19, -162942.22, 0.000, 0.000, 0.000, 17:01:23.228, 1578582083228
252, -54506.54, -54555.60, -54485.80, -30691.13, -54613.91, 15845.93, -54872.64, 124103.12, 0.004, -0.014, 0.980, 17:01:23.228, 1578582083228
253, -18730.78, -10812.05, -9499.13, -9721.58, -133437.45, -153627.06, -56195.64, -162942.48, 0.000, 0.000, 0.000, 17:01:23.228, 1578582083228
254, -54526.14, -54636.29, -54501.66, -30682.06, -54631.75, 15871.53, -54942.13, 124103.09, 0.000, 0.000, 0.000, 17:01:23.228, 1578582083228
255, -18728.79, -10810.87, -9498.04, -9720.46, -133435.89, -153625.56, -56194.30, -162941.11, 0.000, 0.000, 0.000, 17:01:23.228, 1578582083228
0, -54538.57, -54635.21, -54513.91, -30680.72, -54646.26, 15873.27, -54935.82, 124102.31, 0.000, 0.000, 0.000, 17:01:23.228, 1578582083228
1, -18726.74, -10809.75, -9497.01, -9719.48, -133434.61, -153624.16, -56193.25, -162939.72, 0.000, 0.000, 0.000, 17:01:23.228, 1578582083228
2, -54489.93, -54568.25, -54474.53, -30679.65, -54594.89, 15872.87, -54861.75, 124103.43, 0.000, 0.000, 0.000, 17:01:23.228, 1578582083228
3, -18727.74, -10811.56, -9498.78, -9721.44, -133436.09, -153625.70, -56195.05, -162941.39, 0.000, 0.000, 0.000, 17:01:23.229, 1578582083229
4, -54526.32, -54585.75, -54505.31, -30689.17, -54615.79, 15869.09, -54882.41, 124103.34, 0.000, 0.000, 0.000, 17:01:23.229, 1578582083229
5, -18726.60, -10811.29, -9498.49, -9721.11, -133435.42, -153624.98, -56194.72, -162940.80, 0.002, -0.012, 0.982, 17:01:23.229, 1578582083229
6, -54551.33, -54613.71, -54538.90, -30697.64, -54645.54, 15858.94, -54930.86, 124104.05, 0.000, 0.000, 0.000, 17:01:23.229, 1578582083229
7, -18724.17, -10809.71, -9496.94, -9719.57, -133433.39, -153623.00, -56193.09, -162938.88, 0.000, 0.000, 0.000, 17:01:23.229, 1578582083229
8, -54526.65, -54562.06, -54513.58, -30704.10, -54611.39, 15836.43, -54872.61, 124104.34, 0.000, 0.000, 0.000, 17:01:23.229, 1578582083229
9, -18724.95, -10811.29, -9498.53, -9721.22, -133434.52, -153624.25, -56194.56, -162940.20, 0.000, 0.000, 0.000, 17:01:23.230, 1578582083230
10, -54612.29, -54645.97, -54610.56, -30680.65, -54698.50, 15875.17, -54953.73, 124103.45, 0.000, 0.000, 0.000, 17:01:23.231, 1578582083231
11, -18727.39, -10814.69, -9501.91, -9724.68, -133437.55, -153627.33, -56197.96, -162943.31, 0.000, 0.000, 0.000, 17:01:23.231, 1578582083231
12, -54634.16, -54666.38, -54633.54, -30660.98, -54713.98, 15893.45, -54969.75, 124102.94, 0.000, 0.000, 0.000, 17:01:23.231, 1578582083231
13, -18727.72, -10815.63, -9503.02, -9725.74, -133438.23, -153628.05, -56198.83, -162944.02, 0.000, 0.000, 0.000, 17:01:23.231, 1578582083231
14, -54571.76, -54590.09, -54566.33, -30674.73, -54642.73, 15874.25, -54896.46, 124105.09, 0.000, 0.000, 0.000, 17:01:23.231, 1578582083231
15, -18725.42, -10814.29, -9501.66, -9724.44, -133436.47, -153626.31, -56197.38, -162942.31, 0.004, -0.020, 0.972, 17:01:23.231, 1578582083231
16, -54553.70, -54543.21, -54534.95, -30674.10, -54626.25, 15880.65, -54876.04, 124106.09, 0.000, 0.000, 0.000, 17:01:23.231, 1578582083231
17, -18727.27, -10817.15, -9504.43, -9727.34, -133438.91, -153628.83, -56200.17, -162944.92, 0.000, 0.000, 0.000, 17:01:23.231, 1578582083231
18, -54628.45, -54640.69, -54612.06, -30674.62, -54696.86, 15884.65, -54963.16, 124106.80, 0.000, 0.000, 0.000, 17:01:23.231, 1578582083231
19, -18726.36, -10816.97, -9504.45, -9727.19, -133438.41, -153628.34, -56200.02, -162944.50, 0.000, 0.000, 0.000, 17:01:23.231, 1578582083231
20, -54586.63, -54614.09, -54576.10, -30697.24, -54664.43, 15864.11, -54926.53, 124105.60, 0.000, 0.000, 0.000, 17:01:23.231, 1578582083231
21, -18724.55, -10815.96, -9503.49, -9726.25, -133437.09, -153627.00, -56198.90, -162943.30, 0.000, 0.000, 0.000, 17:01:23.232, 1578582083232
22, -54498.16, -54512.50, -54474.60, -30712.86, -54594.18, 15858.12, -54817.05, 124107.09, 0.000, 0.000, 0.000, 17:01:23.232, 1578582083232
23, -18720.52, -10812.79, -9500.27, -9723.05, -133433.58, -153623.41, -56195.68, -162939.81, 0.000, 0.000, 0.000, 17:01:23.232, 1578582083232
24, -54485.32, -54500.28, -54436.02, -30709.28, -54573.66, 15865.02, -54819.30, 124107.30, 0.000, 0.000, 0.000, 17:01:23.232, 1578582083232
25, -18719.14, -10812.28, -9499.78, -9722.65, -133432.73, -153622.55, -56195.19, -162939.05, 0.004, -0.016, 0.972, 17:01:23.232, 1578582083232
26, -54492.99, -54562.06, -54448.47, -30700.66, -54589.46, 15861.45, -54877.73, 124107.27, 0.000, 0.000, 0.000, 17:01:23.232, 1578582083232
27, -18716.50, -10810.62, -9498.11, -9721.15, -133430.72, -153620.61, -56193.45, -162937.13, 0.000, 0.000, 0.000, 17:01:23.232, 1578582083232
28, -54494.51, -54544.11, -54446.07, -30703.16, -54580.07, 15869.94, -54863.63, 124107.32, 0.000, 0.000, 0.000, 17:01:23.232, 1578582083232
29, -18715.99, -10810.85, -9498.51, -9721.40, -133430.72, -153620.61, -56193.71, -162937.22, 0.000, 0.000, 0.000, 17:01:23.232, 1578582083232
30, -54527.21, -54620.04, -54483.89, -30698.18, -54607.84, 15870.30, -54941.59, 124106.70, 0.000, 0.000, 0.000, 17:01:23.232, 1578582083232
31, -18713.86, -10809.55, -9497.35, -9720.15, -133429.14, -153619.02, -56192.48, -162935.73, 0.000, 0.000, 0.000, 17:01:23.232, 1578582083232
32, -54579.56, -54603.77, -54535.08, -30691.89, -54641.32, 15874.05, -54919.38, 124108.19, 0.000, 0.000, 0.000, 17:01:23.232, 1578582083232
33, -18716.46, -10813.10, -9500.79, -9723.72, -133432.31, -153622.14, -56195.93, -162938.94, 0.000, 0.000, 0.000, 17:01:23.233, 1578582083233
34, -54631.39, -54663.83, -54602.63, -30702.11, -54698.18, 15870.48, -54976.77, 124106.56, 0.000, 0.000, 0.000, 17:01:23.233, 1578582083233
35, -18715.41, -10812.79, -9500.63, -9723.66, -133431.70, -153621.61, -56195.75, -162938.44, 0.002, -0.018, 0.976, 17:01:23.233, 1578582083233
36, -54568.63, -54595.61, -54537.88, -30703.38, -54640.07, 15874.23, -54903.44, 124107.38, 0.000, 0.000, 0.000, 17:01:23.233, 1578582083233
37, -18713.55, -10811.70, -9499.69, -9722.58, -133430.25, -153620.22, -56194.59, -162937.11, 0.000, 0.000, 0.000, 17:01:23.233, 1578582083233
38, -54539.68, -54589.53, -54505.11, -30699.27, -54603.81, 15872.04, -54899.13, 124108.28, 0.000, 0.000, 0.000, 17:01:23.233, 1578582083233
39, -18711.58, -10810.64, -9498.49, -9721.56, -133428.80, -153618.73, -56193.42, -162935.78, 0.000, 0.000, 0.000, 17:01:23.233, 1578582083233
40, -54559.33, -54673.19, -54533.58, -30689.44, -54632.33, 15883.64, -54967.96, 124109.38, 0.000, 0.000, 0.000, 17:01:23.233, 1578582083233
41, -18713.62, -10813.50, -9501.32, -9724.44, -133431.28, -153621.20, -56196.22, -162938.47, 0.000, 0.000, 0.000, 17:01:23.233, 1578582083233
42, -54564.36, -54683.77, -54541.25, -30697.17, -54633.43, 15879.08, -54970.80, 124109.22, 0.000, 0.000, 0.000, 17:01:23.233, 1578582083233
43, -18714.31, -10815.14, -9503.02, -9726.25, -133432.59, -153622.58, -56197.83, -162939.89, 0.000, 0.000, 0.000, 17:01:23.233, 1578582083233
44, -54562.80, -54675.56, -54536.91, -30700.86, -54646.08, 15880.31, -54956.77, 124111.21, 0.004, -0.016, 0.978, 17:01:23.233, 1578582083233
45, -18713.44, -10815.09, -9502.98, -9726.16, -133432.22, -153622.27, -56197.67, -162939.66, 0.000, 0.000, 0.000, 17:01:23.233, 1578582083233
46, -54528.13, -54591.74, -54491.88, -30699.79, -54612.24, 15869.96, -54867.56, 124111.86, 0.000, 0.000, 0.000, 17:01:23.233, 1578582083233
47, -18710.58, -10813.17, -9501.01, -9724.26, -133429.77, -153619.94, -56195.66, -162937.30, 0.000, 0.000, 0.000, 17:01:23.234, 1578582083234
48, -54564.09, -54590.56, -54517.87, -30701.06, -54631.66, 15873.29, -54867.99, 124110.13, 0.000, 0.000, 0.000, 17:01:23.234, 1578582083234
49, -18708.14, -10811.52, -9499.42, -9722.70, -133427.81, -153617.95, -56194.00, -162935.56, 0.000, 0.000, 0.000, 17:01:23.234, 1578582083234
50, -54590.09, -54642.23, -54553.27, -30706.80, -54663.31, 15871.12, -54938.20, 124109.71, 0.000, 0.000, 0.000, 17:01:23.234, 1578582083234
51, -18706.76, -10811.02, -9499.02, -9722.32, -133427.06, -153617.13, -56193.42, -162934.73, 0.000, 0.000, 0.000, 17:01:23.234, 1578582083234
52, -54557.25, -54614.05, -54524.55, -30715.14, -54627.44, 15868.22, -54904.27, 124109.09, 0.000, 0.000, 0.000, 17:01:23.234, 1578582083234
53, -18705.50, -10810.64, -9498.66, -9721.96, -133426.30, -153616.31, -56193.07, -162934.06, 0.000, 0.000, 0.000, 17:01:23.234, 1578582083234
54, -54540.63, -54596.41, -54510.25, -30704.23, -54621.45, 15869.47, -54881.09, 124110.23, 0.002, -0.016, 0.978, 17:01:23.234, 1578582083234
55, -18706.15, -10812.03, -9500.16, -9723.41, -133427.44, -153617.55, -56194.43, -162935.30, 0.000, 0.000, 0.000, 17:01:23.234, 1578582083234
56, -54516.80, -54571.20, -54487.38, -30701.95, -54607.81, 15887.87, -54851.40, 124109.66, 0.000, 0.000, 0.000, 17:01:23.234, 1578582083234
57, -18704.27, -10811.02, -9499.27, -9722.47, -133425.97, -153616.19, -56193.47, -162934.05, 0.000, 0.000, 0.000, 17:01:23.234, 1578582083234
58, -54513.29, -54566.02, -54484.19, -30709.93, -54618.56, 15887.80, -54840.20, 124107.27, 0.000, 0.000, 0.000, 17:01:23.234, 1578582083234
59, -18704.54, -10812.08, -9500.34, -9723.66, -133426.75, -153617.00, -56194.61, -162934.91, 0.000, 0.000, 0.000, 17:01:23.234, 1578582083234
60, -54496.68, -54522.21, -54458.55, -30700.32, -54599.54, 15871.10, -54799.68, 124109.63, 0.000, 0.000, 0.000, 17:01:23.234, 1578582083234
61, -18702.46, -10810.87, -9499.07, -9722.45, -133425.27, -153615.42, -56193.20, -162933.39, 0.000, 0.000, 0.000, 17:01:23.234, 1578582083234
62, -54496.41, -54474.55, -54443.62, -30686.04, -54564.20, 15882.61, -54788.62, 124111.12, 0.000, 0.000, 0.000, 17:01:23.235, 1578582083235
63, -18699.80, -10809.10, -9497.39, -9720.80, -133423.17, -153613.34, -56191.46, -162931.38, 0.000, 0.000, 0.000, 17:01:23.235, 1578582083235
64, -54515.01, -54590.80, -54493.89, -30698.00, -54593.39, 15878.19, -54903.26, 124113.40, 0.004, -0.018, 0.972, 17:01:23.235, 1578582083235
65, -18701.21, -10811.52, -9499.76, -9723.25, -133425.22, -153615.48, -56193.87, -162933.53, 0.000, 0.000, 0.000, 17:01:23.235, 1578582083235
66, -54546.03, -54627.71, -54532.71, -30699.72, -54630.70, 15890.46, -54934.48, 124113.42, 0.000, 0.000, 0.000, 17:01:23.235, 1578582083235
67, -18700.23, -10811.47, -9499.65, -9723.25, -133424.83, -153615.00, -56193.69, -162933.17, 0.000, 0.000, 0.000, 17:01:23.235, 1578582083235
68, -54516.75, -54581.28, -54497.86, -30704.03, -54615.64, 15866.61, -54882.02, 124113.31, 0.000, 0.000, 0.000, 17:01:23.235, 1578582083235
69, -18698.02, -10810.13, -9498.31, -9721.91, -133423.14, -153613.34, -56192.46, -162931.66, 0.000, 0.000, 0.000, 17:01:23.235, 1578582083235
70, -54527.35, -54587.68, -54517.38, -30704.32, -54628.40, 15873.60, -54883.45, 124112.05, 0.000, 0.000, 0.000, 17:01:23.235, 1578582083235
71, -18699.04, -10811.96, -9500.27, -9723.81, -133424.70, -153614.89, -56194.30, -162933.27, 0.000, 0.000, 0.000, 17:01:23.235, 1578582083235
72, -54494.00, -54530.79, -54467.15, -30712.50, -54586.71, 15864.51, -54829.70, 124114.80, 0.000, 0.000, 0.000, 17:01:23.235, 1578582083235
73, -18696.92, -10810.76, -9499.07, -9722.65, -133423.19, -153613.30, -56192.91, -162931.83, 0.000, 0.000, 0.000, 17:01:23.235, 1578582083235
74, -54523.19, -54574.64, -54487.98, -30706.80, -54606.38, 15876.29, -54931.29, 124114.38, 0.006, -0.016, 0.970, 17:01:23.235, 1578582083235
75, -18695.76, -10810.51, -9498.82, -9722.43, -133422.50, -153612.69, -56192.60, -162931.31, 0.000, 0.000, 0.000, 17:01:23.236, 1578582083236
76, -54595.56, -54650.08, -54571.29, -30696.77, -54693.20, 15882.32, -55004.78, 124112.41, 0.000, 0.000, 0.000, 17:01:23.236, 1578582083236
77, -18696.05, -10811.61, -9500.00, -9723.68, -133423.38, -153613.55, -56193.67, -162932.23, 0.000, 0.000, 0.000, 17:01:23.236, 1578582083236
78, -54536.73, -54586.49, -54510.49, -30707.05, -54638.12, 15879.33, -54935.24, 124113.24, 0.000, 0.000, 0.000, 17:01:23.237, 1578582083237
79, -18694.24, -10810.58, -9499.09, -9722.76, -133422.03, -153612.25, -56192.60, -162931.03, 0.000, 0.000, 0.000, 17:01:23.238, 1578582083238
80, -54516.93, -54539.44, -54474.06, -30696.28, -54595.43, 15890.97, -54887.10, 124117.49, 0.000, 0.000, 0.000, 17:01:23.238, 1578582083238
81, -18691.94, -10809.12, -9497.70, -9721.38, -133420.33, -153610.61, -56191.25, -162929.30, 0.000, 0.000, 0.000, 17:01:23.238, 1578582083238
82, -54484.50, -54517.29, -54428.95, -30711.68, -54547.17, 15874.52, -54859.23, 124117.76, 0.000, 0.000, 0.000, 17:01:23.238, 1578582083238
83, -18686.24, -10804.36, -9492.81, -9716.62, -133415.08, -153605.41, -56186.34, -162924.20, 0.008, -0.014, 0.972, 17:01:23.238, 1578582083238
84, -54522.05, -54565.43, -54490.60, -30704.39, -54606.11, 15871.97, -54911.68, 124117.06, 0.000, 0.000, 0.000, 17:01:23.239, 1578582083239
85, -18686.66, -10805.59, -9494.06, -9718.00, -133415.92, -153606.33, -56187.61, -162925.25, 0.000, 0.000, 0.000, 17:01:23.239, 1578582083239
86, -54558.62, -54606.94, -54536.98, -30712.68, -54660.56, 15871.35, -54949.26, 124117.11, 0.000, 0.000, 0.000, 17:01:23.239, 1578582083239
87, -18687.78, -10807.60, -9496.14, -9720.06, -133417.63, -153607.98, -56189.55, -162927.00, 0.000, 0.000, 0.000, 17:01:23.239, 1578582083239
88, -54526.43, -54574.33, -54507.27, -30721.02, -54639.15, 15867.08, -54910.28, 124118.02, 0.000, 0.000, 0.000, 17:01:23.239, 1578582083239
89, -18687.91, -10808.52, -9497.26, -9721.06, -133418.27, -153608.78, -56190.50, -162927.81, 0.000, 0.000, 0.000, 17:01:23.239, 1578582083239
90, -54619.68, -54664.83, -54602.43, -30706.63, -54725.88, 15884.92, -54997.74, 124115.92, 0.000, 0.000, 0.000, 17:01:23.239, 1578582083239
91, -18689.46, -10810.91, -9499.71, -9723.59, -133420.36, -153610.84, -56192.86, -162929.92, 0.000, 0.000, 0.000, 17:01:23.239, 1578582083239
92, -54564.85, -54598.43, -54543.91, -30714.09, -54657.81, 15870.54, -54924.02, 124117.35, 0.000, 0.000, 0.000, 17:01:23.239, 1578582083239
93, -18687.15, -10809.50, -9498.26, -9722.07, -133418.66, -153609.00, -56191.30, -162928.23, 0.008, -0.018, 0.972, 17:01:23.239, 1578582083239
94, -54553.12, -54577.75, -54539.08, -30717.02, -54642.05, 15862.74, -54897.36, 124115.14, 0.000, 0.000, 0.000, 17:01:23.240, 1578582083240
95, -18684.07, -10807.40, -9496.12, -9720.06, -133416.08, -153606.56, -56189.20, -162925.92, 0.000, 0.000, 0.000, 17:01:23.240, 1578582083240
96, -54501.35, -54521.02, -54486.06, -30729.02, -54597.33, 15854.72, -54835.18, 124115.41, 0.000, 0.000, 0.000, 17:01:23.240, 1578582083240
97, -18682.86, -10807.05, -9495.89, -9719.88, -133415.53, -153605.98, -56188.91, -162925.38, 0.000, 0.000, 0.000, 17:01:23.240, 1578582083240
98, -54508.17, -54509.73, -54492.77, -30718.74, -54613.25, 15868.98, -54835.80, 124115.50, 0.000, 0.000, 0.000, 17:01:23.240, 1578582083240
99, -18684.11, -10809.08, -9497.90, -9722.16, -133417.30, -153607.78, -56190.99, -162927.16, 0.000, 0.000, 0.000, 17:01:23.240, 1578582083240
100, -54500.52, -54496.39, -54483.76, -30718.43, -54600.91, 15867.39, -54828.52, 124118.07, 0.000, 0.000, 0.000, 17:01:23.240, 1578582083240
101, -18683.04, -10808.79, -9497.84, -9721.87, -133416.75, -153607.23, -56190.65, -162926.78, 0.000, 0.000, 0.000, 17:01:23.240, 1578582083240
102, -54494.51, -54498.54, -54475.22, -30706.09, -54591.43, 15866.00, -54846.22, 124117.53, 0.000, 0.000, 0.000, 17:01:23.240, 1578582083240
103, -18679.80, -10806.44, -9495.40, -9719.57, -133414.00, -153604.48, -56188.19, -162924.09, 0.006, -0.016, 0.976, 17:01:23.241, 1578582083241
104, -54485.75, -54483.92, -54478.64, -30704.10, -54581.62, 15872.67, -54825.81, 124117.51, 0.000, 0.000, 0.000, 17:01:23.241, 1578582083241
105, -18680.38, -10808.01, -9497.01, -9721.11, -133415.20, -153605.73, -56189.76, -162925.38, 0.000, 0.000, 0.000, 17:01:23.709, 1578582083709
106, -54495.03, -54493.51, -54491.61, -30703.43, -54585.57, 15886.50, -54831.02, 124117.04, 0.000, 0.000, 0.000, 17:01:23.709, 1578582083709
107, -18680.65, -10809.21, -9498.04, -9722.41, -133416.08, -153606.70, -56190.90, -162926.42, 0.000, 0.000, 0.000, 17:01:23.709, 1578582083709
108, -54513.00, -54505.73, -54504.73, -30717.02, -54597.62, 15856.51, -54841.43, 124115.84, 0.000, 0.000, 0.000, 17:01:23.709, 1578582083709
109, -18676.60, -10806.02, -9494.91, -9719.32, -133412.64, -153603.16, -56187.66, -162922.98, 0.000, 0.000, 0.000, 17:01:23.709, 1578582083709
110, -54505.40, -54580.12, -54472.36, -30698.29, -54592.23, 15875.57, -54892.66, 124117.40, 0.000, 0.000, 0.000, 17:01:23.709, 1578582083709
111, -18677.14, -10807.34, -9496.29, -9720.75, -133413.64, -153604.27, -56189.02, -162924.09, 0.000, 0.000, 0.000, 17:01:23.709, 1578582083709
112, -54597.40, -54736.00, -54586.36, -30693.26, -54697.67, 15881.52, -55034.87, 124116.91, 0.000, 0.000, 0.000, 17:01:23.709, 1578582083709
113, -18679.96, -10810.96, -9499.83, -9724.33, -133416.86, -153607.55, -56192.60, -162927.45, 0.004, -0.020, 0.974, 17:01:23.709, 1578582083709
114, -54581.91, -54717.83, -54570.93, -30715.90, -54673.93, 15862.25, -55011.35, 124119.23, 0.000, 0.000, 0.000, 17:01:23.709, 1578582083709
115, -18679.22, -10811.11, -9500.03, -9724.62, -133416.70, -153607.44, -56192.73, -162927.41, 0.000, 0.000, 0.000, 17:01:23.709, 1578582083709
116, -54518.77, -54644.76, -54499.39, -30722.14, -54602.29, 15865.45, -54931.51, 124119.08, 0.000, 0.000, 0.000, 17:01:23.710, 1578582083710
117, -18675.96, -10808.68, -9497.68, -9722.25, -133414.05, -153604.72, -56190.34, -162924.81, 0.000, 0.000, 0.000, 17:01:23.710, 1578582083710
118, -54490.60, -54598.83, -54457.50, -30715.81, -54584.68, 15865.83, -54880.17, 124119.68, 0.000, 0.000, 0.000, 17:01:23.710, 1578582083710
119, -18675.13, -10808.74, -9497.81, -9722.45, -133413.88, -153604.52, -56190.36, -162924.75, 0.000, 0.000, 0.000, 17:01:23.710, 1578582083710
120, -54540.02, -54631.04, -54510.18, -30714.02, -54636.38, 15872.20, -54926.68, 124118.98, 0.000, 0.000, 0.000, 17:01:23.710, 1578582083710
121, -18676.11, -10810.58, -9499.74, -9724.35, -133415.28, -153606.13, -56192.21, -162926.33, 0.000, 0.000, 0.000, 17:01:23.710, 1578582083710
122, -54527.04, -54590.67, -54492.37, -30721.51, -54609.11, 15871.46, -54883.16, 124120.82, 0.004, -0.018, 0.980, 17:01:23.710, 1578582083710
123, -18674.81, -10810.26, -9499.36, -9724.08, -133414.70, -153605.47, -56191.86, -162925.77, 0.000, 0.000, 0.000, 17:01:23.710, 1578582083710
124, -54519.97, -54573.19, -54488.59, -30722.09, -54603.43, 15864.33, -54866.96, 124119.05, 0.000, 0.000, 0.000, 17:01:23.710, 1578582083710
125, -18670.50, -10806.91, -9495.94, -9720.77, -133410.98, -153601.73, -56188.35, -162922.08, 0.000, 0.000, 0.000, 17:01:23.710, 1578582083710
126, -54469.39, -54515.12, -54436.22, -30716.75, -54550.35, 15875.01, -54815.30, 124121.09, 0.000, 0.000, 0.000, 17:01:23.710, 1578582083710
127, -18667.71, -10805.03, -9494.17, -9719.01, -133408.80, -153599.63, -56186.52, -162920.00, 0.000, 0.000, 0.000, 17:01:23.710, 1578582083710
128, -54486.84, -54533.11, -54465.45, -30710.04, -54572.14, 15874.23, -54869.44, 124120.17, 0.000, 0.000, 0.000, 17:01:23.710, 1578582083710
129, -18667.33, -10805.44, -9494.80, -9719.52, -133409.06, -153599.95, -56187.10, -162920.31, 0.000, 0.000, 0.000, 17:01:23.711, 1578582083711
130, -54540.71, -54608.06, -54527.75, -30702.69, -54622.30, 15879.21, -54943.34, 124120.95, 0.000, 0.000, 0.000, 17:01:23.711, 1578582083711
131, -18670.12, -10809.01, -9498.22, -9723.17, -133412.22, -153603.22, -56190.61, -162923.72, 0.000, 0.000, 0.000, 17:01:23.711, 1578582083711
132, -54556.36, -54625.38, -54549.05, -30698.78, -54635.91, 15885.90, -54955.43, 124120.82, 0.004, -0.020, 0.976, 17:01:23.712, 1578582083712
133, -18666.72, -10806.62, -9495.85, -9720.86, -133409.52, -153600.48, -56188.19, -162921.06, 0.000, 0.000, 0.000, 17:01:23.712, 1578582083712
134, -54445.25, -54491.65, -54425.09, -30717.24, -54522.36, 15866.65, -54827.66, 124121.96, 0.000, 0.000, 0.000, 17:01:23.712, 1578582083712
135, -18661.85, -10802.69, -9491.89, -9716.95, -133405.20, -153596.13, -56184.21, -162916.78, 0.000, 0.000, 0.000, 17:01:23.712, 1578582083712
136, -54470.28, -54552.74, -54455.31, -30715.39, -54564.38, 15870.95, -54938.71, 124122.48, 0.000, 0.000, 0.000, 17:01:23.712, 1578582083712
137, -18662.61, -10804.23, -9493.55, -9718.61, -133406.58, -153597.50, -56185.85, -162918.19, 0.000, 0.000, 0.000, 17:01:23.712, 1578582083712
138, -54547.22, -54665.39, -54549.12, -30716.08, -54650.10, 15873.90, -55045.77, 124122.05, 0.000, 0.000, 0.000, 17:01:23.712, 1578582083712
139, -18665.20, -10807.78, -9497.08, -9722.11, -133409.73, -153600.72, -56189.29, -162921.39, 0.000, 0.000, 0.000, 17:01:23.712, 1578582083712
140, -54570.93, -54685.84, -54573.61, -30708.55, -54666.98, 15882.37, -55061.91, 124121.55, 0.000, 0.000, 0.000, 17:01:23.712, 1578582083712
141, -18665.96, -10809.39, -9498.71, -9723.77, -133411.09, -153602.03, -56190.92, -162922.83, 0.000, 0.000, 0.000, 17:01:23.713, 1578582083713
142, -54590.98, -54703.68, -54593.91, -30713.31, -54679.63, 15875.79, -55074.05, 124122.56, 0.004, -0.014, 0.978, 17:01:23.713, 1578582083713
143, -18667.88, -10812.16, -9501.55, -9726.67, -133413.63, -153604.53, -56193.74, -162925.38, 0.000, 0.000, 0.000, 17:01:23.713, 1578582083713
144, -54565.66, -54678.47, -54570.24, -30711.99, -54655.63, 15884.11, -55042.38, 124124.22, 0.000, 0.000, 0.000, 17:01:23.713, 1578582083713
145, -18665.81, -10811.00, -9500.36, -9725.49, -133412.08, -153603.02, -56192.46, -162924.03, 0.000, 0.000, 0.000, 17:01:23.713, 1578582083713
146, -54486.15, -54579.85, -54472.09, -30718.40, -54585.19, 15865.65, -54936.16, 124123.01, 0.000, 0.000, 0.000, 17:01:23.713, 1578582083713
147, -18660.24, -10806.38, -9495.83, -9720.97, -133407.05, -153598.09, -56187.86, -162919.11, 0.000, 0.000, 0.000, 17:01:23.713, 1578582083713
148, -54477.12, -54535.17, -54451.95, -30709.78, -54579.43, 15868.75, -54885.45, 124122.38, 0.000, 0.000, 0.000, 17:01:23.713, 1578582083713
149, -18660.29, -10807.20, -9496.70, -9721.85, -133407.52, -153598.55, -56188.62, -162919.72, 0.000, 0.000, 0.000, 17:01:23.713, 1578582083713
150, -54511.70, -54551.42, -54494.00, -30701.08, -54617.38, 15880.96, -54896.84, 124122.54, 0.000, 0.000, 0.000, 17:01:23.713, 1578582083713
151, -18659.21, -10806.98, -9496.47, -9721.58, -133406.92, -153598.02, -56188.26, -162919.31, 0.000, 0.000, 0.000, 17:01:23.713, 1578582083713
152, -54495.43, -54527.23, -54485.91, -30704.84, -54622.34, 15878.75, -54867.12, 124123.13, 0.004, -0.020, 0.982, 17:01:23.713, 1578582083713
153, -18659.68, -10808.39, -9497.95, -9723.05, -133408.08, -153599.14, -56189.60, -162920.47, 0.000, 0.000, 0.000, 17:01:23.713, 1578582083713
154, -54499.30, -54573.05, -54486.78, -30707.70, -54615.77, 15885.90, -54881.73, 124123.48, 0.000, 0.000, 0.000, 17:01:23.713, 1578582083713
155, -18658.81, -10808.41, -9497.97, -9723.30, -133407.72, -153598.97, -56189.69, -162920.25, 0.000, 0.000, 0.000, 17:01:23.713, 1578582083713
156, -54480.36, -54600.93, -54466.13, -30709.33, -54590.74, 15875.57, -54881.11, 124124.59, 0.000, 0.000, 0.000, 17:01:23.714, 1578582083714
157, -18656.42, -10806.98, -9496.56, -9721.85, -133405.95, -153597.14, -56188.24, -162918.53, 0.000, 0.000, 0.000, 17:01:23.714, 1578582083714
158, -54480.36, -54576.88, -54472.00, -30710.22, -54594.89, 15881.99, -54938.04, 124124.89, 0.000, 0.000, 0.000, 17:01:23.714, 1578582083714
159, -18657.20, -10808.54, -9498.17, -9723.43, -133407.23, -153598.44, -56189.73, -162919.84, 0.000, 0.000, 0.000, 17:01:23.714, 1578582083714
160, -54549.77, -54607.03, -54523.41, -30716.77, -54649.48, 15872.67, -54967.90, 124124.95, 0.000, 0.000, 0.000, 17:01:23.714, 1578582083714
161, -18656.17, -10808.41, -9498.02, -9723.30, -133406.77, -153597.98, -56189.58, -162919.48, 0.000, -0.022, 0.976, 17:01:23.714, 1578582083714
162, -54515.05, -54567.25, -54492.23, -30724.13, -54616.24, 15871.21, -54922.19, 124123.75, 0.000, 0.000, 0.000, 17:01:23.714, 1578582083714
163, -18652.82, -10806.04, -9495.76, -9721.06, -133404.14, -153595.30, -56187.25, -162916.94, 0.000, 0.000, 0.000, 17:01:23.714, 1578582083714
164, -54486.20, -54484.36, -54458.39, -30711.56, -54583.25, 15869.76, -54832.54, 124126.34, 0.000, 0.000, 0.000, 17:01:23.714, 1578582083714
165, -18654.97, -10809.06, -9498.78, -9724.13, -133406.81, -153598.09, -56190.25, -162919.78, 0.000, 0.000, 0.000, 17:01:23.714, 1578582083714
166, -54555.09, -54555.80, -54540.33, -30709.33, -54667.78, 15877.47, -54901.71, 124125.36, 0.000, 0.000, 0.000, 17:01:23.714, 1578582083714
167, -18654.83, -10809.75, -9499.51, -9724.98, -133407.28, -153598.50, -56190.96, -162920.27, 0.000, 0.000, 0.000, 17:01:23.714, 1578582083714
168, -54489.66, -54503.45, -54466.48, -30718.13, -54584.19, 15874.48, -54855.71, 124128.15, 0.000, 0.000, 0.000, 17:01:23.714, 1578582083714
169, -18652.51, -10808.12, -9497.99, -9723.52, -133405.33, -153596.67, -56189.40, -162918.63, 0.000, 0.000, 0.000, 17:01:23.714, 1578582083714
170, -54537.16, -54551.87, -54508.19, -30708.90, -54628.71, 15882.28, -54900.29, 124126.38, 0.000, 0.000, 0.000, 17:01:23.714, 1578582083714
171, -18651.68, -10808.34, -9498.15, -9723.59, -133405.20, -153596.47, -56189.47, -162918.38, 0.002, -0.016, 0.972, 17:01:23.714, 1578582083714
172, -54526.61, -54528.00, -54496.03, -30709.62, -54607.93, 15877.27, -54871.34, 124127.95, 0.000, 0.000, 0.000, 17:01:23.714, 1578582083714
173, -18654.52, -10811.99, -9501.82, -9727.43, -133408.58, -153599.80, -56193.13, -162921.81, 0.000, 0.000, 0.000, 17:01:23.715, 1578582083715
174, -54572.36, -54555.44, -54542.19, -30707.45, -54643.69, 15887.06, -54898.16, 124127.55, 0.000, 0.000, 0.000, 17:01:23.715, 1578582083715
175, -18652.42, -10810.76, -9500.61, -9726.16, -133407.08, -153598.28, -56191.95, -162920.42, 0.000, 0.000, 0.000, 17:01:23.715, 1578582083715
176, -54516.68, -54534.41, -54496.12, -30712.68, -54602.85, 15874.16, -54884.19, 124129.54, 0.000, 0.000, 0.000, 17:01:23.715, 1578582083715
177, -18650.12, -10809.30, -9499.20, -9724.75, -133405.28, -153596.58, -56190.52, -162918.70, 0.000, 0.000, 0.000, 17:01:23.715, 1578582083715
178, -54554.28, -54583.16, -54541.00, -30711.90, -54653.95, 15879.64, -54927.62, 124126.74, 0.000, 0.000, 0.000, 17:01:23.715, 1578582083715
179, -18651.77, -10811.90, -9501.75, -9727.41, -133407.55, -153598.83, -56192.98, -162921.06, 0.000, 0.000, 0.000, 17:01:23.715, 1578582083715
180, -54620.96, -54647.22, -54608.59, -30699.07, -54713.92, 15889.72, -54988.46, 124127.15, 0.000, 0.000, 0.000, 17:01:23.715, 1578582083715
181, -18652.93, -10814.02, -9503.85, -9729.54, -133409.31, -153600.64, -56195.05, -162922.98, 0.006, -0.012, 0.974, 17:01:23.715, 1578582083715
182, -54539.64, -54566.62, -54529.40, -30714.74, -54636.69, 15873.92, -54900.98, 124126.27, 0.000, 0.000, 0.000, 17:01:23.715, 1578582083715
183, -18646.70, -10808.57, -9498.46, -9724.13, -133403.50, -153594.91, -56189.63, -162917.23, 0.000, 0.000, 0.000, 17:01:23.715, 1578582083715
184, -54489.08, -54516.73, -54479.09, -30719.37, -54600.50, 15873.65, -54842.89, 124125.60, 0.000, 0.000, 0.000, 17:01:23.715, 1578582083715
185, -18646.61, -10809.35, -9499.33, -9725.02, -133404.06, -153595.34, -56190.45, -162917.77, 0.000, 0.000, 0.000, 17:01:23.715, 1578582083715
186, -54455.66, -54472.27, -54440.11, -30720.44, -54564.90, 15873.58, -54795.86, 124126.23, 0.000, 0.000, 0.000, 17:01:23.715, 1578582083715
187, -18645.22, -10808.95, -9498.89, -9724.64, -133403.23, -153594.61, -56189.91, -162917.05, 0.000, 0.000, 0.000, 17:01:23.715, 1578582083715
188, -54486.89, -54551.02, -54472.85, -30710.16, -54594.47, 15880.13, -54841.61, 124125.78, 0.000, 0.000, 0.000, 17:01:23.715, 1578582083715
189, -18642.25, -10806.84, -9496.72, -9722.47, -133400.80, -153592.17, -56187.72, -162914.64, 0.000, 0.000, 0.000, 17:01:23.715, 1578582083715
190, -54485.57, -54560.18, -54461.70, -30710.47, -54585.39, 15880.67, -54839.46, 124126.99, 0.000, 0.000, 0.000, 17:01:23.716, 1578582083716
191, -18642.56, -10808.03, -9497.93, -9723.79, -133401.67, -153593.00, -56188.95, -162915.59, 0.004, -0.014, 0.976, 17:01:23.716, 1578582083716
192, -54531.77, -54688.93, -54528.13, -30714.07, -54637.03, 15878.32, -54975.03, 124127.48, 0.000, 0.000, 0.000, 17:01:23.716, 1578582083716
193, -18641.76, -10808.12, -9498.11, -9723.95, -133401.47, -153592.88, -56189.18, -162915.69, 0.000, 0.000, 0.000, 17:01:23.716, 1578582083716
194, -54528.18, -54635.64, -54513.78, -30714.00, -54622.10, 15881.34, -54951.65, 124129.80, 0.000, 0.000, 0.000, 17:01:23.716, 1578582083716
195, -18644.24, -10811.38, -9501.53, -9727.41, -133404.42, -153595.94, -56192.39, -162918.80, 0.000, 0.000, 0.000, 17:01:23.716, 1578582083716
196, -54589.75, -54696.41, -54593.44, -30718.72, -54694.65, 15878.77, -55056.14, 124129.76, 0.000, 0.000, 0.000, 17:01:23.716, 1578582083716
197, -18641.76, -10809.91, -9499.96, -9725.89, -133402.58, -153594.05, -56190.79, -162916.92, 0.000, 0.000, 0.000, 17:01:23.716, 1578582083716
198, -54526.48, -54632.40, -54531.59, -30720.68, -54624.49, 15869.76, -54985.58, 124128.82, 0.000, 0.000, 0.000, 17:01:23.716, 1578582083716
199, -18639.72, -10808.74, -9498.82, -9724.82, -133401.20, -153592.58, -56189.58, -162915.48, 0.000, 0.000, 0.000, 17:01:23.716, 1578582083716
200, -54489.91, -54594.71, -54495.68, -30721.64, -54590.25, 15877.67, -54941.93, 124128.64, 0.000, 0.000, 0.000, 17:01:23.716, 1578582083716
201, -18637.22, -10807.07, -9497.21, -9723.21, -133399.14, -153590.66, -56187.88, -162913.64, 0.004, -0.016, 0.978, 17:01:23.716, 1578582083716
202, -54490.96, -54526.86, -54451.04, -30726.29, -54560.14, 15868.02, -54864.61, 124129.05, 0.000, 0.000, 0.000, 17:01:23.716, 1578582083716
203, -18634.89, -10805.64, -9495.80, -9721.87, -133397.36, -153588.94, -56186.47, -162911.95, 0.000, 0.000, 0.000, 17:01:23.716, 1578582083716
204, -54560.16, -54584.43, -54522.32, -30722.34, -54630.52, 15864.46, -54874.49, 124128.66, 0.000, 0.000, 0.000, 17:01:23.716, 1578582083716
205, -18635.10, -10806.73, -9496.85, -9722.96, -133398.00, -153589.63, -56187.43, -162912.73, 0.000, 0.000, 0.000, 17:01:23.716, 1578582083716
206, -54525.36, -54570.82, -54504.75, -30718.74, -54620.13, 15881.50, -54852.09, 124128.91, 0.000, 0.000, 0.000, 17:01:23.717, 1578582083717
207, -18633.55, -10806.02, -9496.18, -9722.25, -133397.02, -153588.53, -56186.83, -162911.83, 0.000, 0.000, 0.000, 17:01:23.717, 1578582083717
208, -54547.51, -54585.98, -54518.07, -30705.10, -54640.09, 15900.87, -54858.98, 124131.37, 0.000, 0.000, 0.000, 17:01:23.717, 1578582083717
209, -18636.46, -10809.71, -9499.92, -9726.12, -133400.59, -153592.08, -56190.56, -162915.48, 0.000, 0.000, 0.000, 17:01:23.717, 1578582083717
210, -54579.96, -54677.17, -54569.61, -30706.07, -54684.28, 15889.36, -54925.01, 124129.47, 0.010, -0.016, 0.972, 17:01:23.717, 1578582083717
211, -18633.06, -10807.20, -9497.48, -9723.68, -133397.78, -153589.38, -56188.08, -162912.77, 0.000, 0.000, 0.000, 17:01:23.717, 1578582083717
212, -54559.55, -54655.80, -54550.04, -30715.23, -54668.18, 15887.96, -54897.89, 124129.31, 0.000, 0.000, 0.000, 17:01:23.717, 1578582083717
213, -18632.23, -10807.22, -9497.48, -9723.75, -133397.52, -153589.05, -56188.08, -162912.56, 0.000, 0.000, 0.000, 17:01:23.717, 1578582083717
214, -54498.87, -54588.14, -54486.80, -30719.32, -54596.75, 15873.83, -54826.77, 124129.13, 0.000, 0.000, 0.000, 17:01:23.717, 1578582083717
215, -18628.46, -10804.56, -9494.71, -9721.00, -133394.33, -153585.92, -56185.22, -162909.45, 0.000, 0.000, 0.000, 17:01:23.717, 1578582083717
216, -54535.35, -54594.16, -54511.19, -30716.84, -54618.09, 15874.25, -54879.63, 124127.66, 0.000, 0.000, 0.000, 17:01:23.717, 1578582083717
217, -18629.62, -10806.60, -9496.70, -9723.14, -133396.06, -153587.69, -56187.23, -162911.25, 0.000, 0.000, 0.000, 17:01:23.717, 1578582083717
218, -54539.35, -54582.13, -54507.70, -30724.17, -54616.02, 15871.26, -54870.69, 124129.60, 0.000, 0.000, 0.000, 17:01:23.717, 1578582083717
219, -18629.53, -10807.40, -9497.73, -9723.99, -133396.66, -153588.36, -56188.13, -162912.03, 0.000, 0.000, 0.000, 17:01:23.717, 1578582083717
220, -54517.98, -54552.89, -54493.33, -30709.22, -54598.80, 15878.88, -54835.82, 124129.42, 0.008, -0.014, 0.972, 17:01:23.718, 1578582083718
221, -18628.41, -10807.00, -9497.46, -9723.72, -133396.02, -153587.70, -56187.81, -162911.41, 0.000, 0.000, 0.000, 17:01:23.718, 1578582083718
222, -54538.48, -54571.76, -54516.71, -30712.32, -54623.50, 15885.90, -54850.02, 124128.30, 0.000, 0.000, 0.000, 17:01:23.718, 1578582083718
223, -18629.64, -10809.01, -9499.51, -9725.76, -133397.73, -153589.42, -56189.82, -162913.08, 0.000, 0.000, 0.000, 17:01:23.718, 1578582083718
224, -54536.78, -54568.47, -54516.04, -30708.97, -54614.12, 15881.54, -54842.06, 124128.76, 0.000, 0.000, 0.000, 17:01:23.718, 1578582083718
225, -18628.97, -10809.33, -9499.85, -9726.09, -133397.67, -153589.41, -56190.09, -162913.19, 0.000, 0.000, 0.000, 17:01:24.190, 1578582084190
226, -54501.89, -54524.93, -54475.00, -30715.30, -54583.11, 15876.40, -54797.00, 124129.05, 0.000, 0.000, 0.000, 17:01:24.190, 1578582084190
227, -18627.45, -10808.59, -9499.13, -9725.47, -133396.70, -153588.27, -56189.33, -162912.25, 0.000, 0.000, 0.000, 17:01:24.190, 1578582084190
228, -54522.52, -54547.02, -54499.99, -30714.27, -54611.84, 15877.96, -54876.84, 124130.74, 0.000, 0.000, 0.000, 17:01:24.190, 1578582084190
229, -18627.90, -10809.95, -9500.56, -9726.83, -133397.75, -153589.34, -56190.72, -162913.45, 0.000, 0.000, 0.000, 17:01:24.191, 1578582084191
230, -54506.25, -54532.44, -54490.24, -30717.31, -54596.48, 15874.61, -54883.75, 124129.94, 0.010, -0.016, 0.980, 17:01:24.191, 1578582084191
231, -18624.88, -10807.92, -9498.49, -9724.62, -133395.36, -153587.06, -56188.51, -162911.13, 0.000, 0.000, 0.000, 17:01:24.191, 1578582084191
232, -54481.10, -54499.65, -54462.93, -30722.52, -54585.82, 15872.04, -54844.56, 124129.47, 0.000, 0.000, 0.000, 17:01:24.191, 1578582084191
233, -18625.60, -10809.35, -9499.96, -9726.21, -133396.50, -153588.20, -56189.98, -162912.38, 0.000, 0.000, 0.000, 17:01:24.191, 1578582084191
234, -54512.89, -54505.89, -54488.45, -30724.04, -54626.59, 15873.27, -54845.21, 124130.09, 0.000, 0.000, 0.000, 17:01:24.191, 1578582084191
235, -18626.04, -10810.69, -9501.41, -9727.72, -133397.63, -153589.27, -56191.39, -162913.55, 0.000, 0.000, 0.000, 17:01:24.192, 1578582084192
236, -54497.57, -54473.28, -54459.11, -30714.85, -54602.54, 15880.15, -54807.44, 124130.25, 0.000, 0.000, 0.000, 17:01:24.192, 1578582084192
237, -18622.87, -10808.32, -9499.16, -9725.36, -133395.05, -153586.66, -56189.16, -162911.02, 0.000, 0.000, 0.000, 17:01:24.192, 1578582084192
238, -54533.74, -54536.76, -54494.47, -30714.67, -54622.10, 15883.57, -54890.23, 124130.01, 0.000, 0.000, 0.000, 17:01:24.192, 1578582084192
239, -18623.09, -10809.35, -9500.27, -9726.52, -133395.70, -153587.48, -56190.05, -162911.73, 0.000, 0.000, 0.000, 17:01:24.192, 1578582084192
240, -54545.99, -54582.13, -54520.86, -30711.54, -54636.00, 15875.08, -54934.15, 124129.98, 0.008, -0.014, 0.982, 17:01:24.192, 1578582084192
241, -18621.21, -10808.45, -9499.22, -9725.53, -133394.45, -153586.20, -56189.02, -162910.61, 0.000, 0.000, 0.000, 17:01:24.192, 1578582084192
242, -54530.12, -54563.76, -54513.00, -30703.56, -54619.46, 15884.45, -54909.67, 124131.52, 0.000, 0.000, 0.000, 17:01:24.192, 1578582084192
243, -18623.12, -10811.25, -9502.04, -9728.55, -133397.06, -153588.78, -56191.95, -162913.23, 0.000, 0.000, 0.000, 17:01:24.192, 1578582084192
244, -54534.99, -54566.86, -54518.70, -30702.53, -54631.11, 15881.07, -54908.18, 124130.45, 0.000, 0.000, 0.000, 17:01:24.192, 1578582084192
245, -18620.79, -10809.66, -9500.63, -9727.10, -133395.20, -153586.94, -56190.29, -162911.47, 0.000, 0.000, 0.000, 17:01:24.192, 1578582084192
246, -54469.46, -54483.96, -54440.93, -30715.52, -54552.54, 15867.01, -54823.13, 124131.21, 0.000, 0.000, 0.000, 17:01:24.192, 1578582084192
247, -18616.57, -10806.40, -9497.32, -9723.86, -133391.52, -153583.30, -56187.03, -162907.91, 0.000, 0.000, 0.000, 17:01:24.192, 1578582084192
248, -54481.91, -54618.59, -54470.91, -30704.28, -54592.10, 15886.48, -54925.01, 124131.21, 0.000, 0.000, 0.000, 17:01:24.192, 1578582084192
249, -18614.96, -10805.55, -9496.67, -9723.14, -133390.42, -153582.16, -56186.20, -162907.06, 0.006, -0.012, 0.982, 17:01:24.192, 1578582084192
250, -54510.02, -54643.13, -54483.70, -30702.73, -54614.00, 15890.32, -54938.02, 124130.66, 0.000, 0.000, 0.000, 17:01:24.192, 1578582084192
251, -18616.41, -10807.85, -9498.98, -9725.49, -133392.48, -153584.22, -56188.44, -162909.13, 0.000, 0.000, 0.000, 17:01:24.193, 1578582084193
252, -54545.23, -54660.07, -54515.52, -30695.25, -54638.82, 15893.57, -54949.68, 124130.77, 0.000, 0.000, 0.000, 17:01:24.193, 1578582084193
253, -18614.87, -10807.20, -9498.40, -9724.93, -133391.61, -153583.30, -56187.84, -162908.25, 0.000, 0.000, 0.000, 17:01:24.193, 1578582084193
254, -54500.12, -54594.34, -54474.21, -30718.05, -54585.80, 15878.66, -54877.75, 124132.17, 0.000, 0.000, 0.000, 17:01:24.193, 1578582084193
255, -18615.38, -10808.59, -9499.76, -9726.45, -133392.61, -153584.52, -56189.24, -162909.48, 0.000, 0.000, 0.000, 17:01:24.193, 1578582084193
0, -54520.89, -54606.98, -54497.89, -30719.79, -54599.75, 15870.59, -54888.37, 124132.48, 0.000, 0.000, 0.000, 17:01:24.193, 1578582084193
1, -18616.48, -10810.62, -9501.82, -9728.48, -133394.31, -153586.13, -56191.14, -162911.20, 0.000, 0.000, 0.000, 17:01:24.193, 1578582084193
2, -54532.44, -54604.50, -54511.95, -30709.89, -54604.77, 15883.89, -54917.34, 124132.58, 0.000, 0.000, 0.000, 17:01:24.193, 1578582084193
3, -18613.28, -10808.36, -9499.60, -9726.36, -133391.72, -153583.61, -56188.93, -162908.78, 0.006, -0.012, 0.984, 17:01:24.193, 1578582084193
4, -54454.66, -54528.46, -54436.55, -30721.11, -54547.38, 15877.87, -54836.43, 124133.02, 0.000, 0.000, 0.000, 17:01:24.193, 1578582084193
5, -18614.82, -10810.64, -9501.95, -9728.75, -133393.73, -153585.72, -56191.32, -162910.80, 0.000, 0.000, 0.000, 17:01:24.193, 1578582084193
6, -54551.93, -54621.65, -54535.77, -30699.29, -54644.76, 15908.88, -54926.93, 124132.91, 0.000, 0.000, 0.000, 17:01:24.193, 1578582084193
7, -18617.57, -10814.29, -9505.68, -9732.53, -133397.03, -153588.95, -56194.92, -162914.34, 0.000, 0.000, 0.000, 17:01:24.193, 1578582084193
8, -54496.37, -54538.93, -54463.11, -30716.86, -54574.55, 15878.10, -54846.04, 124133.23, 0.000, 0.000, 0.000, 17:01:24.193, 1578582084193
9, -18610.49, -10808.19, -9499.54, -9726.41, -133390.58, -153582.56, -56188.73, -162907.78, 0.000, 0.000, 0.000, 17:01:24.193, 1578582084193
10, -54464.74, -54523.75, -54441.29, -30711.59, -54557.90, 15877.25, -54865.91, 124134.81, 0.000, 0.000, 0.000, 17:01:24.194, 1578582084194
11, -18611.58, -10810.15, -9501.53, -9728.42, -133392.23, -153584.17, -56190.68, -162909.61, 0.000, 0.000, 0.000, 17:01:24.194, 1578582084194
12, -54480.54, -54584.43, -54474.39, -30712.62, -54582.46, 15885.38, -54913.29, 124135.20, 0.000, 0.000, 0.000, 17:01:24.194, 1578582084194
13, -18610.08, -10809.46, -9500.94, -9727.79, -133391.39, -153583.25, -56190.00, -162908.72, 0.006, -0.020, 0.984, 17:01:24.194, 1578582084194
14, -54462.59, -54536.82, -54433.20, -30714.92, -54569.01, 15879.95, -54859.52, 124135.13, 0.000, 0.000, 0.000, 17:01:24.194, 1578582084194
15, -18608.43, -10808.70, -9500.16, -9727.01, -133390.22, -153582.19, -56189.18, -162907.70, 0.000, 0.000, 0.000, 17:01:24.194, 1578582084194
16, -54497.48, -54558.04, -54472.16, -30714.83, -54610.27, 15878.12, -54875.83, 124134.86, 0.000, 0.000, 0.000, 17:01:24.194, 1578582084194
17, -18610.60, -10811.67, -9503.29, -9730.14, -133392.88, -153584.91, -56192.17, -162910.50, 0.000, 0.000, 0.000, 17:01:24.194, 1578582084194
18, -54485.77, -54529.38, -54441.43, -30714.60, -54574.35, 15883.10, -54838.73, 124135.52, 0.000, 0.000, 0.000, 17:01:24.194, 1578582084194
19, -18606.96, -10808.90, -9500.63, -9727.57, -133389.91, -153581.95, -56189.42, -162907.55, 0.000, 0.000, 0.000, 17:01:24.194, 1578582084194
20, -54524.35, -54594.27, -54479.94, -30703.90, -54607.93, 15896.09, -54871.74, 124136.47, 0.000, 0.000, 0.000, 17:01:24.194, 1578582084194
21, -18609.19, -10812.16, -9503.72, -9730.54, -133392.70, -153584.78, -56192.60, -162910.45, 0.000, 0.000, 0.000, 17:01:24.194, 1578582084194
22, -54577.55, -54653.03, -54542.05, -30687.54, -54661.77, 15911.85, -54925.32, 124135.66, 0.000, 0.000, 0.000, 17:01:24.194, 1578582084194
23, -18607.16, -10810.87, -9502.49, -9729.40, -133391.09, -153583.19, -56191.23, -162909.00, 0.006, -0.016, 0.976, 17:01:24.194, 1578582084194
24, -54456.52, -54532.11, -54427.43, -30705.42, -54548.43, 15884.09, -54797.29, 124134.95, 0.000, 0.000, 0.000, 17:01:24.194, 1578582084194
25, -18603.87, -10808.45, -9500.12, -9727.05, -133388.48, -153580.59, -56188.91, -162906.45, 0.000, 0.000, 0.000, 17:01:24.195, 1578582084195
26, -54485.73, -54559.29, -54473.37, -30716.32, -54589.69, 15895.38, -54819.98, 124134.25, 0.000, 0.000, 0.000, 17:01:24.195, 1578582084195
27, -18605.66, -10811.07, -9502.75, -9729.76, -133390.83, -153582.83, -56191.57, -162908.83, 0.000, 0.000, 0.000, 17:01:24.195, 1578582084195
28, -54511.48, -54557.61, -54486.13, -30738.10, -54608.64, 15885.09, -54830.77, 124135.82, 0.000, 0.000, 0.000, 17:01:24.195, 1578582084195
29, -18606.29, -10812.66, -9504.32, -9731.32, -133392.08, -153584.06, -56193.04, -162910.06, 0.000, 0.000, 0.000, 17:01:24.195, 1578582084195
30, -54522.36, -54547.84, -54488.77, -30748.85, -54618.83, 15885.36, -54841.86, 124134.63, 0.000, 0.000, 0.000, 17:01:24.195, 1578582084195
31, -18601.26, -10808.54, -9500.16, -9727.30, -133387.52, -153579.66, -56188.89, -162905.67, 0.000, 0.000, 0.000, 17:01:24.195, 1578582084195
32, -54479.09, -54529.29, -54444.51, -30767.24, -54576.41, 15884.83, -54868.01, 124134.63, 0.012, -0.016, 0.972, 17:01:24.195, 1578582084195
33, -18599.60, -10807.76, -9499.36, -9726.56, -133386.38, -153578.47, -56187.99, -162904.63, 0.000, 0.000, 0.000, 17:01:24.195, 1578582084195
34, -54490.87, -54536.76, -54456.87, -30762.17, -54591.74, 15891.04, -54879.81, 124135.86, 0.000, 0.000, 0.000, 17:01:24.195, 1578582084195
35, -18597.99, -10806.98, -9498.73, -9725.85, -133385.27, -153577.41, -56187.32, -162903.67, 0.000, 0.000, 0.000, 17:01:24.195, 1578582084195
36, -54478.22, -54495.70, -54444.27, -30762.97, -54570.11, 15885.14, -54836.25, 124135.91, 0.000, 0.000, 0.000, 17:01:24.195, 1578582084195
37, -18597.61, -10807.38, -9499.29, -9726.34, -133385.53, -153577.63, -56187.75, -162904.09, 0.000, 0.000, 0.000, 17:01:24.195, 1578582084195
38, -54516.39, -54556.70, -54495.47, -30756.36, -54604.50, 15884.04, -54904.71, 124137.34, 0.000, 0.000, 0.000, 17:01:24.195, 1578582084195
39, -18595.94, -10806.53, -9498.42, -9725.49, -133384.44, -153576.53, -56186.94, -162903.08, 0.000, 0.000, 0.000, 17:01:24.195, 1578582084195
40, -54471.07, -54507.59, -54454.91, -30754.64, -54556.20, 15882.52, -54849.19, 124137.38, 0.000, 0.000, 0.000, 17:01:24.196, 1578582084196
41, -18593.86, -10805.32, -9497.21, -9724.28, -133382.94, -153575.02, -56185.64, -162901.47, 0.000, 0.000, 0.000, 17:01:24.196, 1578582084196
42, -54502.27, -54522.36, -54472.12, -30744.02, -54578.55, 15899.96, -54858.09, 124136.78, 0.006, -0.012, 0.972, 17:01:24.196, 1578582084196
43, -18595.13, -10807.56, -9499.54, -9726.67, -133384.95, -153576.97, -56188.04, -162903.58, 0.000, 0.000, 0.000, 17:01:24.196, 1578582084196
44, -54471.31, -54488.97, -54441.07, -30767.11, -54555.98, 15879.15, -54819.68, 124136.60, 0.000, 0.000, 0.000, 17:01:24.196, 1578582084196
45, -18593.03, -10806.26, -9498.24, -9725.38, -133383.22, -153575.36, -56186.63, -162902.06, 0.000, 0.000, 0.000, 17:01:24.196, 1578582084196
46, -54486.89, -54535.48, -54441.85, -30759.20, -54567.18, 15885.61, -54844.92, 124138.77, 0.000, 0.000, 0.000, 17:01:24.196, 1578582084196
47, -18593.70, -10807.74, -9499.78, -9726.85, -133384.45, -153576.59, -56188.06, -162903.23, 0.000, 0.000, 0.000, 17:01:24.196, 1578582084196
48, -54530.12, -54584.99, -54478.31, -30753.65, -54619.30, 15889.36, -54888.68, 124139.88, 0.000, 0.000, 0.000, 17:01:24.196, 1578582084196
49, -18592.76, -10807.72, -9499.78, -9726.88, -133384.13, -153576.27, -56188.04, -162903.08, 0.000, 0.000, 0.000, 17:01:24.196, 1578582084196
50, -54572.59, -54660.45, -54533.56, -30746.41, -54665.23, 15893.52, -54960.90, 124136.84, 0.000, 0.000, 0.000, 17:01:24.196, 1578582084196
51, -18590.75, -10806.51, -9498.55, -9725.69, -133382.53, -153574.81, -56186.76, -162901.63, 0.000, 0.000, 0.000, 17:01:24.196, 1578582084196
52, -54524.89, -54595.81, -54480.41, -30754.01, -54602.36, 15887.57, -54896.42, 124138.19, 0.004, -0.020, 0.974, 17:01:24.196, 1578582084196
53, -18591.33, -10807.98, -9499.92, -9727.05, -133383.69, -153575.86, -56188.15, -162902.77, 0.000, 0.000, 0.000, 17:01:24.196, 1578582084196
54, -54509.24, -54574.20, -54486.24, -30753.36, -54596.61, 15886.48, -54883.79, 124140.06, 0.000, 0.000, 0.000, 17:01:24.196, 1578582084196
55, -18591.11, -10808.61, -9500.74, -9727.72, -133384.09, -153576.38, -56188.84, -162903.22, 0.000, 0.000, 0.000, 17:01:24.197, 1578582084197
56, -54464.47, -54488.90, -54435.91, -30770.80, -54545.99, 15882.19, -54790.38, 124141.65, 0.000, 0.000, 0.000, 17:01:24.197, 1578582084197
57, -18586.88, -10805.19, -9497.28, -9724.33, -133380.41, -153572.77, -56185.49, -162899.69, 0.000, 0.000, 0.000, 17:01:24.197, 1578582084197
58, -54437.76, -54446.25, -54401.95, -30771.69, -54543.60, 15885.52, -54781.62, 124138.63, 0.000, 0.000, 0.000, 17:01:24.197, 1578582084197
59, -18584.18, -10803.49, -9495.54, -9722.58, -133378.36, -153570.63, -56183.75, -162897.72, 0.000, 0.000, 0.000, 17:01:24.197, 1578582084197
60, -54499.59, -54508.66, -54461.27, -30762.41, -54607.66, 15895.33, -54871.65, 124138.05, 0.000, 0.000, 0.000, 17:01:24.197, 1578582084197
61, -18585.92, -10805.95, -9498.17, -9725.11, -133380.61, -153572.95, -56186.34, -162900.02, 0.000, 0.000, 0.000, 17:01:24.197, 1578582084197
62, -54506.98, -54616.57, -54474.13, -30758.19, -54609.27, 15892.49, -54863.85, 124139.04, 0.006, -0.016, 0.980, 17:01:24.197, 1578582084197
63, -18585.38, -10806.26, -9498.51, -9725.31, -133380.66, -153572.84, -56186.65, -162900.17, 0.000, 0.000, 0.000, 17:01:24.197, 1578582084197
64, -54523.39, -54606.79, -54482.78, -30753.52, -54612.82, 15892.25, -54842.55, 124139.84, 0.000, 0.000, 0.000, 17:01:24.197, 1578582084197
65, -18586.17, -10808.07, -9500.25, -9727.19, -133382.11, -153574.31, -56188.37, -162901.75, 0.000, 0.000, 0.000, 17:01:24.197, 1578582084197
66, -54504.57, -54566.20, -54470.46, -30744.82, -54599.54, 15897.70, -54813.70, 124142.01, 0.000, 0.000, 0.000, 17:01:24.197, 1578582084197
67, -18586.32, -10809.17, -9501.32, -9728.28, -133382.75, -153575.03, -56189.45, -162902.56, 0.000, 0.000, 0.000, 17:01:24.197, 1578582084197
68, -54472.36, -54531.93, -54446.75, -30747.13, -54565.48, 15886.68, -54819.06, 124142.26, 0.000, 0.000, 0.000, 17:01:24.197, 1578582084197
69, -18583.02, -10806.67, -9498.91, -9725.78, -133380.03, -153572.28, -56186.90, -162899.95, 0.000, 0.000, 0.000, 17:01:24.197, 1578582084197
70, -54505.09, -54563.02, -54481.26, -30756.07, -54591.56, 15890.75, -54845.59, 124140.04, 0.000, 0.000, 0.000, 17:01:24.198, 1578582084198
71, -18582.35, -10806.78, -9499.07, -9726.00, -133379.88, -153572.13, -56187.05, -162899.86, 0.004, -0.018, 0.978, 17:01:24.198, 1578582084198
72, -54452.31, -54481.93, -54415.86, -30755.71, -54530.34, 15885.85, -54773.48, 124139.15, 0.000, 0.000, 0.000, 17:01:24.198, 1578582084198
73, -18578.48, -10803.76, -9496.21, -9723.14, -133376.72, -153569.00, -56184.17, -162896.78, 0.000, 0.000, 0.000, 17:01:24.198, 1578582084198
74, -54527.10, -54615.08, -54501.84, -30731.84, -54618.92, 15912.97, -54957.35, 124139.95, 0.000, 0.000, 0.000, 17:01:24.198, 1578582084198
75, -18579.91, -10805.93, -9498.35, -9725.42, -133378.59, -153570.97, -56186.43, -162898.72, 0.000, 0.000, 0.000, 17:01:24.198, 1578582084198
76, -54474.53, -54600.95, -54463.64, -30754.79, -54578.27, 15884.67, -54938.60, 124141.02, 0.000, 0.000, 0.000, 17:01:24.198, 1578582084198
77, -18575.44, -10802.29, -9494.71, -9721.71, -133374.67, -153566.83, -56182.61, -162894.81, 0.000, 0.000, 0.000, 17:01:24.198, 1578582084198
78, -54452.13, -54543.64, -54429.36, -30756.96, -54545.99, 15881.52, -54874.71, 124140.78, 0.000, 0.000, 0.000, 17:01:24.198, 1578582084198
79, -18576.24, -10804.03, -9496.47, -9723.43, -133376.05, -153568.39, -56184.37, -162896.30, 0.000, 0.000, 0.000, 17:01:24.198, 1578582084198
80, -54428.82, -54507.05, -54415.86, -30763.93, -54537.47, 15878.90, -54832.45, 124142.34, 0.000, 0.000, 0.000, 17:01:24.198, 1578582084198
81, -18575.10, -10803.78, -9496.21, -9723.19, -133375.48, -153567.78, -56184.21, -162895.86, 0.002, -0.016, 0.982, 17:01:24.198, 1578582084198
82, -54453.36, -54515.05, -54441.23, -30764.20, -54569.61, 15885.56, -54834.53, 124142.45, 0.000, 0.000, 0.000, 17:01:24.198, 1578582084198
83, -18574.43, -10803.96, -9496.41, -9723.41, -133375.41, -153567.70, -56184.30, -162895.80, 0.000, 0.000, 0.000, 17:01:24.198, 1578582084198
84, -54470.73, -54508.71, -54440.51, -30741.34, -54575.02, 15906.17, -54824.71, 124140.76, 0.000, 0.000, 0.000, 17:01:24.199, 1578582084199
85, -18572.71, -10803.07, -9495.56, -9722.49, -133374.17, -153566.56, -56183.48, -162894.61, 0.000, 0.000, 0.000, 17:01:24.199, 1578582084199
86, -54412.04, -54448.49, -54370.97, -30755.31, -54511.81, 15889.85, -54782.63, 124141.92, 0.000, 0.000, 0.000, 17:01:24.199, 1578582084199
87, -18569.70, -10800.92, -9493.39, -9720.37, -133371.69, -153564.09, -56181.33, -162892.27, 0.000, 0.000, 0.000, 17:01:24.199, 1578582084199
88, -54428.80, -54532.24, -54398.71, -30759.08, -54528.66, 15884.58, -54793.46, 124142.48, 0.000, 0.000, 0.000, 17:01:24.199, 1578582084199
89, -18565.60, -10797.57, -9490.04, -9717.02, -133368.09, -153560.55, -56178.11, -162888.83, 0.000, 0.000, 0.000, 17:01:24.199, 1578582084199
90, -54462.28, -54535.01, -54416.80, -30749.41, -54530.79, 15887.84, -54824.69, 124141.23, 0.000, 0.000, 0.000, 17:01:24.673, 1578582084673
91, -18567.75, -10800.68, -9493.19, -9720.01, -133370.91, -153563.34, -56181.22, -162891.80, 0.002, -0.014, 0.980, 17:01:24.674, 1578582084674
92, -54590.34, -54739.58, -54576.79, -30736.62, -54675.63, 15899.60, -55032.70, 124140.55, 0.000, 0.000, 0.000, 17:01:24.674, 1578582084674
93, -18566.59, -10800.38, -9492.90, -9719.77, -133370.39, -153562.77, -56180.84, -162891.23, 0.000, 0.000, 0.000, 17:01:24.674, 1578582084674
94, -54505.51, -54634.66, -54482.31, -30751.15, -54587.29, 15881.76, -54920.13, 124141.90, 0.000, 0.000, 0.000, 17:01:24.674, 1578582084674
95, -18566.54, -10801.17, -9493.81, -9720.55, -133370.84, -153563.28, -56181.64, -162891.80, 0.000, 0.000, 0.000, 17:01:24.674, 1578582084674
96, -54555.82, -54660.63, -54521.80, -30733.76, -54636.25, 15897.01, -54941.75, 124144.67, 0.000, 0.000, 0.000, 17:01:24.674, 1578582084674
97, -18568.91, -10804.39, -9496.96, -9723.70, -133373.91, -153566.22, -56184.91, -162894.84, 0.000, 0.000, 0.000, 17:01:24.675, 1578582084675
98, -54537.16, -54644.83, -54507.34, -30733.78, -54614.00, 15895.60, -54919.96, 124142.95, 0.000, 0.000, 0.000, 17:01:24.675, 1578582084675
99, -18565.76, -10802.04, -9494.64, -9721.33, -133371.27, -153563.59, -56182.56, -162892.33, 0.000, 0.000, 0.000, 17:01:24.675, 1578582084675
100, -54515.12, -54621.54, -54486.33, -30728.33, -54584.99, 15904.25, -54890.32, 124142.68, 0.000, 0.000, 0.000, 17:01:24.675, 1578582084675
101, -18565.52, -10802.75, -9495.27, -9721.94, -133371.56, -153563.91, -56183.14, -162892.59, 0.000, -0.020, 0.976, 17:01:24.675, 1578582084675
102, -54438.25, -54531.15, -54404.75, -30748.56, -54522.36, 15892.31, -54807.41, 124143.69, 0.000, 0.000, 0.000, 17:01:24.675, 1578582084675
103, -18563.62, -10801.61, -9494.31, -9720.91, -133370.11, -153562.58, -56182.07, -162891.34, 0.000, 0.000, 0.000, 17:01:24.675, 1578582084675
104, -54484.59, -54564.43, -54455.91, -30756.85, -54583.79, 15901.50, -54886.43, 124144.52, 0.000, 0.000, 0.000, 17:01:24.676, 1578582084676
105, -18562.94, -10801.79, -9494.35, -9721.11, -133370.03, -153562.45, -56182.23, -162891.34, 0.000, 0.000, 0.000, 17:01:24.676, 1578582084676
106, -54443.35, -54497.06, -54409.13, -30799.16, -54530.95, 15864.89, -54816.06, 124143.87, 0.000, 0.000, 0.000, 17:01:24.676, 1578582084676
107, -18559.35, -10799.04, -9491.67, -9718.40, -133366.97, -153559.50, -56179.54, -162888.41, 0.000, 0.000, 0.000, 17:01:24.676, 1578582084676
108, -54477.79, -54591.41, -54451.62, -30783.29, -54587.27, 15889.41, -54922.44, 124143.41, 0.000, 0.000, 0.000, 17:01:24.676, 1578582084676
109, -18561.96, -10802.40, -9495.22, -9721.82, -133370.17, -153562.73, -56182.96, -162891.66, 0.000, 0.000, 0.000, 17:01:24.676, 1578582084676
110, -54553.12, -54685.62, -54533.49, -30763.08, -54661.23, 15903.20, -55013.52, 124144.76, 0.000, -0.020, 0.972, 17:01:24.676, 1578582084676
111, -18563.88, -10805.26, -9497.97, -9724.68, -133372.75, -153565.16, -56185.82, -162894.20, 0.000, 0.000, 0.000, 17:01:24.676, 1578582084676
112, -54517.36, -54649.10, -54499.54, -30759.53, -54619.23, 15894.71, -54971.32, 124144.94, 0.000, 0.000, 0.000, 17:01:24.677, 1578582084677
113, -18563.39, -10805.64, -9498.42, -9725.11, -133372.77, -153565.22, -56186.18, -162894.41, 0.000, 0.000, 0.000, 17:01:24.677, 1578582084677
114, -54517.80, -54647.11, -54500.39, -30748.56, -54611.25, 15904.18, -54962.49, 124144.96, 0.000, 0.000, 0.000, 17:01:24.677, 1578582084677
115, -18562.99, -10806.08, -9498.80, -9725.60, -133372.88, -153565.38, -56186.56, -162894.59, 0.000, 0.000, 0.000, 17:01:24.677, 1578582084677
116, -54518.12, -54625.65, -54496.25, -30748.02, -54597.80, 15896.87, -54935.31, 124145.30, 0.000, 0.000, 0.000, 17:01:24.677, 1578582084677
117, -18562.83, -10806.71, -9499.49, -9726.21, -133373.34, -153565.73, -56187.25, -162895.08, 0.000, 0.000, 0.000, 17:01:24.677, 1578582084677
118, -54546.39, -54654.91, -54532.96, -30744.44, -54633.20, 15900.34, -54958.94, 124143.62, 0.000, 0.000, 0.000, 17:01:24.677, 1578582084677
119, -18561.94, -10806.58, -9499.47, -9726.03, -133372.88, -153565.28, -56187.16, -162894.66, 0.000, 0.000, 0.000, 17:01:24.677, 1578582084677
120, -54464.27, -54573.37, -54452.49, -30770.46, -54565.99, 15880.22, -54870.38, 124144.47, 0.002, -0.018, 0.976, 17:01:24.677, 1578582084677
121, -18558.29, -10803.96, -9496.83, -9723.46, -133369.97, -153562.36, -56184.46, -162891.73, 0.000, 0.000, 0.000, 17:01:24.678, 1578582084678
122, -54447.66, -54555.53, -54437.65, -30765.23, -54547.64, 15890.37, -54848.36, 124143.30, 0.000, 0.000, 0.000, 17:01:24.678, 1578582084678
123, -18558.18, -10804.68, -9497.57, -9724.06, -133370.22, -153562.73, -56185.06, -162892.22, 0.000, 0.000, 0.000, 17:01:24.678, 1578582084678
124, -54422.18, -54471.31, -54388.07, -30761.65, -54497.24, 15895.49, -54763.56, 124145.70, 0.000, 0.000, 0.000, 17:01:24.678, 1578582084678
125, -18556.51, -10803.96, -9496.85, -9723.39, -133369.30, -153561.78, -56184.39, -162891.33, 0.000, 0.000, 0.000, 17:01:24.678, 1578582084678
126, -54484.43, -54481.91, -54455.82, -30761.05, -54561.93, 15906.37, -54841.48, 124144.63, 0.000, 0.000, 0.000, 17:01:24.678, 1578582084678
127, -18555.14, -10803.51, -9496.43, -9723.01, -133368.61, -153561.11, -56183.99, -162890.67, 0.000, 0.000, 0.000, 17:01:24.678, 1578582084678
128, -54484.45, -54470.80, -54458.01, -30766.59, -54565.03, 15879.62, -54831.46, 124145.59, 0.000, 0.000, 0.000, 17:01:24.678, 1578582084678
129, -18554.12, -10803.22, -9496.14, -9722.67, -133367.98, -153560.53, -56183.66, -162890.13, 0.000, 0.000, 0.000, 17:01:24.678, 1578582084678
130, -54457.99, -54446.32, -54433.47, -30762.97, -54549.90, 15879.80, -54800.20, 124144.71, 0.004, -0.014, 0.972, 17:01:24.679, 1578582084679
131, -18552.80, -10802.62, -9495.60, -9722.25, -133367.17, -153559.77, -56183.14, -162889.42, 0.000, 0.000, 0.000, 17:01:24.679, 1578582084679
132, -54433.31, -54412.66, -54405.22, -30776.65, -54530.25, 15872.82, -54762.40, 124145.02, 0.000, 0.000, 0.000, 17:01:24.679, 1578582084679
133, -18552.28, -10803.00, -9496.07, -9722.56, -133367.22, -153559.83, -56183.43, -162889.61, 0.000, 0.000, 0.000, 17:01:24.679, 1578582084679
134, -54472.25, -54525.11, -54431.55, -30758.73, -54554.79, 15889.81, -54841.16, 124147.82, 0.000, 0.000, 0.000, 17:01:24.679, 1578582084679
135, -18551.93, -10803.49, -9496.63, -9723.01, -133367.33, -153559.94, -56183.93, -162889.88, 0.000, 0.000, 0.000, 17:01:24.679, 1578582084679
136, -54541.34, -54669.86, -54531.82, -30739.93, -54641.07, 15903.42, -54967.61, 124146.37, 0.000, 0.000, 0.000, 17:01:24.679, 1578582084679
137, -18551.03, -10803.49, -9496.54, -9723.01, -133367.11, -153559.75, -56184.04, -162889.78, 0.000, 0.000, 0.000, 17:01:24.679, 1578582084679
138, -54522.96, -54651.91, -54515.52, -30747.71, -54616.78, 15894.06, -54944.36, 124145.38, 0.000, 0.000, 0.000, 17:01:24.679, 1578582084679
139, -18550.45, -10803.69, -9496.79, -9723.32, -133367.02, -153559.66, -56184.17, -162889.61, 0.000, 0.000, 0.000, 17:01:24.679, 1578582084679
140, -54489.55, -54612.62, -54479.18, -30768.92, -54573.59, 15878.50, -54898.52, 124146.48, 0.010, -0.018, 0.976, 17:01:24.679, 1578582084679
141, -18547.48, -10801.66, -9494.77, -9721.29, -133364.66, -153557.22, -56182.02, -162887.44, 0.000, 0.000, 0.000, 17:01:24.679, 1578582084679
142, -54443.37, -54513.46, -54419.63, -30765.48, -54526.48, 15878.23, -54839.55, 124147.35, 0.000, 0.000, 0.000, 17:01:24.680, 1578582084680
143, -18546.47, -10801.37, -9494.66, -9721.09, -133364.19, -153556.80, -56181.96, -162887.11, 0.000, 0.000, 0.000, 17:01:24.680, 1578582084680
144, -54462.46, -54522.63, -54449.25, -30734.61, -54567.94, 15903.91, -54924.02, 124148.06, 0.000, 0.000, 0.000, 17:01:24.680, 1578582084680
145, -18545.82, -10801.68, -9494.93, -9721.33, -133364.14, -153556.72, -56182.20, -162887.02, 0.000, 0.000, 0.000, 17:01:24.680, 1578582084680
146, -54461.36, -54495.94, -54429.09, -30734.83, -54557.57, 15902.82, -54891.75, 124147.84, 0.000, 0.000, 0.000, 17:01:24.680, 1578582084680
147, -18542.98, -10799.60, -9492.94, -9719.34, -133361.83, -153554.48, -56180.21, -162884.89, 0.000, 0.000, 0.000, 17:01:24.680, 1578582084680
148, -54470.17, -54503.63, -54433.31, -30731.08, -54546.70, 15897.48, -54847.31, 124148.11, 0.000, 0.000, 0.000, 17:01:24.680, 1578582084680
149, -18543.56, -10801.03, -9494.35, -9720.73, -133362.94, -153555.66, -56181.60, -162886.09, 0.000, 0.000, 0.000, 17:01:24.680, 1578582084680
150, -54482.49, -54549.25, -54462.32, -30739.39, -54569.55, 15883.77, -54869.71, 124149.41, 0.004, -0.014, 0.980, 17:01:24.680, 1578582084680
151, -18542.58, -10800.94, -9494.26, -9720.57, -133362.53, -153555.25, -56181.46, -162885.73, 0.000, 0.000, 0.000, 17:01:24.680, 1578582084680
152, -54452.87, -54513.33, -54439.37, -30724.37, -54547.55, 15902.21, -54827.48, 124150.70, 0.000, 0.000, 0.000, 17:01:24.680, 1578582084680
153, -18541.44, -10800.70, -9494.10, -9720.33, -133361.97, -153554.77, -56181.27, -162885.30, 0.000, 0.000, 0.000, 17:01:24.680, 1578582084680
154, -54444.45, -54503.86, -54431.91, -30740.02, -54531.88, 15885.56, -54812.96, 124149.36, 0.000, 0.000, 0.000, 17:01:24.680, 1578582084680
155, -18539.74, -10799.89, -9493.30, -9719.59, -133360.83, -153553.64, -56180.46, -162884.23, 0.000, 0.000, 0.000, 17:01:24.680, 1578582084680
156, -54434.12, -54458.68, -54395.92, -30746.16, -54508.53, 15877.27, -54763.18, 124148.54, 0.000, 0.000, 0.000, 17:01:24.681, 1578582084681
157, -18538.29, -10799.38, -9492.88, -9719.07, -133360.06, -153552.92, -56179.90, -162883.59, 0.000, 0.000, 0.000, 17:01:24.681, 1578582084681
158, -54471.36, -54461.03, -54423.25, -30733.09, -54533.96, 15888.22, -54799.23, 124150.37, 0.000, 0.000, 0.000, 17:01:24.681, 1578582084681
159, -18537.73, -10799.56, -9493.10, -9719.25, -133360.05, -153552.83, -56180.21, -162883.59, 0.000, -0.014, 0.974, 17:01:24.682, 1578582084682
160, -54506.61, -54609.02, -54483.71, -30720.06, -54577.10, 15904.92, -54917.54, 124152.05, 0.000, 0.000, 0.000, 17:01:24.682, 1578582084682
161, -18538.38, -10801.06, -9494.57, -9720.75, -133361.34, -153554.06, -56181.62, -162884.88, 0.000, 0.000, 0.000, 17:01:24.682, 1578582084682
162, -54510.23, -54619.82, -54498.13, -30731.41, -54582.42, 15887.51, -54921.07, 124152.11, 0.000, 0.000, 0.000, 17:01:24.682, 1578582084682
163, -18537.11, -10800.59, -9494.22, -9720.53, -133360.58, -153553.42, -56181.22, -162884.27, 0.000, 0.000, 0.000, 17:01:24.682, 1578582084682
164, -54470.04, -54554.82, -54439.71, -30732.48, -54533.02, 15890.79, -54850.80, 124151.80, 0.000, 0.000, 0.000, 17:01:24.682, 1578582084682
165, -18534.89, -10799.18, -9492.92, -9719.01, -133358.95, -153551.72, -56179.83, -162882.75, 0.000, 0.000, 0.000, 17:01:24.682, 1578582084682
166, -54551.15, -54592.82, -54515.28, -30720.71, -54611.34, 15898.17, -54921.45, 124151.04, 0.000, 0.000, 0.000, 17:01:24.682, 1578582084682
167, -18534.65, -10799.87, -9493.57, -9719.70, -133359.33, -153552.02, -56180.53, -162883.08, 0.000, 0.000, 0.000, 17:01:24.682, 1578582084682
168, -54527.14, -54573.82, -54498.58, -30741.22, -54590.98, 15872.53, -54902.12, 124149.63, 0.000, 0.000, 0.000, 17:01:24.682, 1578582084682
169, -18532.41, -10798.53, -9492.20, -9718.36, -133357.59, -153550.44, -56179.16, -162881.58, 0.002, -0.016, 0.972, 17:01:24.682, 1578582084682
170, -54465.72, -54492.28, -54422.20, -30739.57, -54533.58, 15874.61, -54814.93, 124152.47, 0.000, 0.000, 0.000, 17:01:24.682, 1578582084682
171, -18530.91, -10798.02, -9491.65, -9717.91, -133356.77, -153549.53, -56178.54, -162880.80, 0.000, 0.000, 0.000, 17:01:24.682, 1578582084682
172, -54474.21, -54515.39, -54442.41, -30726.88, -54545.41, 15878.79, -54827.93, 124152.67, 0.000, 0.000, 0.000, 17:01:24.682, 1578582084682
173, -18526.80, -10794.62, -9488.36, -9714.56, -133353.28, -153545.95, -56175.25, -162877.27, 0.000, 0.000, 0.000, 17:01:24.683, 1578582084683
174, -54449.90, -54469.99, -54427.37, -30710.74, -54544.91, 15892.83, -54811.82, 124151.91, 0.000, 0.000, 0.000, 17:01:24.683, 1578582084683
175, -18528.57, -10797.14, -9490.97, -9717.02, -133355.52, -153548.25, -56177.84, -162879.61, 0.000, 0.000, 0.000, 17:01:24.683, 1578582084683
176, -54446.99, -54465.86, -54424.37, -30714.20, -54540.18, 15890.26, -54810.57, 124155.98, 0.000, 0.000, 0.000, 17:01:24.683, 1578582084683
177, -18531.54, -10801.03, -9494.80, -9720.93, -133359.05, -153551.86, -56181.73, -162883.33, 0.000, 0.000, 0.000, 17:01:24.683, 1578582084683
178, -54493.42, -54576.34, -54473.46, -30701.68, -54588.46, 15905.25, -54893.27, 124157.16, 0.000, 0.000, 0.000, 17:01:24.683, 1578582084683
179, -18529.64, -10799.94, -9493.75, -9719.88, -133357.66, -153550.48, -56180.57, -162882.00, 0.002, -0.022, 0.974, 17:01:24.683, 1578582084683
180, -54435.55, -54529.63, -54424.73, -30705.02, -54542.50, 15895.98, -54837.77, 124156.85, 0.000, 0.000, 0.000, 17:01:24.683, 1578582084683
181, -18527.27, -10798.44, -9492.27, -9718.23, -133355.89, -153548.64, -56179.03, -162880.28, 0.000, 0.000, 0.000, 17:01:24.683, 1578582084683
182, -54439.35, -54498.85, -54416.35, -30714.83, -54528.02, 15879.44, -54802.07, 124156.96, 0.000, 0.000, 0.000, 17:01:24.683, 1578582084683
183, -18528.34, -10800.50, -9494.26, -9720.24, -133357.56, -153550.41, -56181.04, -162882.13, 0.000, 0.000, 0.000, 17:01:24.683, 1578582084683
184, -54477.55, -54529.00, -54468.02, -30698.85, -54568.61, 15896.81, -54828.22, 124157.61, 0.000, 0.000, 0.000, 17:01:24.683, 1578582084683
185, -18529.01, -10801.93, -9495.76, -9721.80, -133358.75, -153551.58, -56182.63, -162883.34, 0.000, 0.000, 0.000, 17:01:24.683, 1578582084683
186, -54502.25, -54554.59, -54495.94, -30699.65, -54587.72, 15895.49, -54848.21, 124156.49, 0.000, 0.000, 0.000, 17:01:24.683, 1578582084683
187, -18528.66, -10802.40, -9496.36, -9722.27, -133359.05, -153551.81, -56183.14, -162883.61, 0.000, 0.000, 0.000, 17:01:24.683, 1578582084683
188, -54438.88, -54486.33, -54430.05, -30697.77, -54536.29, 15895.67, -54775.70, 124156.74, 0.000, 0.000, 0.000, 17:01:24.683, 1578582084683
189, -18527.23, -10801.77, -9495.74, -9721.60, -133358.08, -153550.80, -56182.40, -162882.81, 0.002, -0.014, 0.984, 17:01:24.684, 1578582084684
190, -54501.57, -54528.35, -54492.28, -30694.96, -54599.83, 15897.92, -54881.04, 124156.52, 0.000, 0.000, 0.000, 17:01:24.684, 1578582084684
191, -18528.23, -10803.54, -9497.57, -9723.46, -133359.59, -153552.48, -56184.17, -162884.38, 0.000, 0.000, 0.000, 17:01:24.684, 1578582084684
192, -54509.58, -54536.87, -54505.31, -30685.70, -54604.77, 15898.79, -54901.00, 124154.68, 0.000, 0.000, 0.000, 17:01:24.684, 1578582084684
193, -18524.39, -10800.59, -9494.62, -9720.59, -133356.25, -153549.17, -56181.20, -162881.25, 0.000, 0.000, 0.000, 17:01:24.684, 1578582084684
194, -54443.73, -54453.18, -54407.61, -30701.68, -54514.00, 15878.28, -54785.15, 124156.63, 0.000, 0.000, 0.000, 17:01:24.684, 1578582084684
195, -18522.51, -10799.45, -9493.48, -9719.59, -133354.91, -153547.89, -56180.15, -162880.00, 0.000, 0.000, 0.000, 17:01:24.684, 1578582084684
196, -54476.21, -54520.24, -54461.05, -30689.23, -54564.65, 15887.13, -54911.93, 124158.05, 0.000, 0.000, 0.000, 17:01:24.684, 1578582084684
197, -18522.49, -10800.34, -9494.37, -9720.37, -133355.44, -153548.45, -56180.93, -162880.67, 0.000, 0.000, 0.000, 17:01:24.685, 1578582084685
198, -54487.56, -54530.21, -54475.13, -30686.20, -54569.64, 15898.33, -54918.64, 124157.48, 0.002, -0.014, 0.976, 17:01:24.685, 1578582084685
199, -18522.62, -10801.28, -9495.45, -9721.31, -133356.14, -153549.13, -56181.98, -162881.42, 0.000, 0.000, 0.000, 17:01:24.685, 1578582084685
200, -54452.36, -54518.72, -54425.60, -30689.12, -54523.30, 15894.93, -54830.70, 124159.16, 0.000, 0.000, 0.000, 17:01:24.685, 1578582084685
201, -18518.26, -10797.77, -9492.03, -9717.82, -133352.31, -153545.30, -56178.47, -162877.73, 0.000, 0.000, 0.000, 17:01:24.685, 1578582084685
202, -54515.55, -54596.19, -54476.32, -30685.41, -54580.21, 15896.09, -54842.75, 124157.12, 0.000, 0.000, 0.000, 17:01:24.685, 1578582084685
203, -18519.85, -10800.25, -9494.39, -9720.28, -133354.55, -153547.45, -56180.91, -162879.86, 0.000, 0.000, 0.000, 17:01:24.685, 1578582084685
204, -54532.91, -54606.85, -54507.48, -30699.38, -54601.31, 15882.75, -54849.75, 124159.64, 0.000, 0.000, 0.000, 17:01:24.685, 1578582084685
205, -18522.29, -10803.58, -9497.77, -9723.70, -133357.61, -153550.47, -56184.17, -162883.03, 0.000, 0.000, 0.000, 17:01:24.685, 1578582084685
206, -54524.84, -54599.21, -54502.65, -30680.43, -54587.79, 15893.92, -54836.63, 124158.75, 0.000, 0.000, 0.000, 17:01:24.685, 1578582084685
207, -18518.38, -10800.50, -9494.71, -9720.57, -133354.19, -153547.06, -56181.13, -162879.69, 0.000, 0.000, 0.000, 17:01:24.685, 1578582084685
208, -54449.47, -54491.67, -54417.18, -30692.59, -54511.12, 15884.11, -54750.24, 124159.40, 0.006, -0.014, 0.972, 17:01:24.685, 1578582084685
209, -18516.18, -10798.98, -9493.37, -9719.23, -133352.47, -153545.38, -56179.72, -162878.05, 0.000, 0.000, 0.000, 17:01:24.686, 1578582084686
210, -54443.95, -54480.09, -54425.67, -30696.86, -54526.72, 15880.51, -54769.93, 124159.51, 0.000, 0.000, 0.000, 17:01:25.150, 1578582085150
211, -18514.69, -10798.37, -9492.81, -9718.69, -133351.52, -153544.41, -56179.05, -162877.27, 0.000, 0.000, 0.000, 17:01:25.150, 1578582085150
212, -54402.07, -54426.88, -54379.42, -30683.09, -54484.81, 15885.41, -54725.38, 124160.13, 0.000, 0.000, 0.000, 17:01:25.150, 1578582085150
213, -18515.11, -10799.71, -9494.04, -9719.90, -133352.56, -153545.45, -56180.35, -162878.31, 0.000, 0.000, 0.000, 17:01:25.151, 1578582085151
214, -54445.34, -54458.70, -54427.82, -30675.67, -54534.63, 15894.91, -54840.00, 124160.88, 0.000, 0.000, 0.000, 17:01:25.151, 1578582085151
215, -18515.49, -10800.94, -9495.40, -9721.15, -133353.45, -153546.42, -56181.62, -162879.28, 0.000, 0.000, 0.000, 17:01:25.151, 1578582085151
216, -54426.99, -54436.46, -54394.31, -30683.29, -54516.11, 15891.24, -54796.33, 124161.81, 0.000, 0.000, 0.000, 17:01:25.151, 1578582085151
217, -18512.45, -10798.64, -9493.17, -9719.05, -133350.97, -153543.98, -56179.39, -162876.94, 0.000, 0.000, 0.000, 17:01:25.151, 1578582085151
218, -54417.20, -54499.21, -54371.27, -30682.42, -54506.58, 15889.43, -54774.82, 124162.57, 0.004, -0.014, 0.970, 17:01:25.151, 1578582085151
219, -18510.71, -10797.57, -9492.14, -9718.11, -133349.70, -153542.70, -56178.40, -162875.77, 0.000, 0.000, 0.000, 17:01:25.151, 1578582085151
220, -54486.04, -54567.36, -54459.18, -30657.90, -54591.79, 15904.88, -54837.34, 124161.68, 0.000, 0.000, 0.000, 17:01:25.151, 1578582085151
221, -18510.78, -10798.64, -9493.23, -9719.03, -133350.44, -153543.50, -56179.30, -162876.59, 0.000, 0.000, 0.000, 17:01:25.151, 1578582085151
222, -54441.92, -54488.28, -54399.23, -30689.97, -54528.71, 15870.16, -54773.33, 124161.12, 0.000, 0.000, 0.000, 17:01:25.151, 1578582085151
223, -18504.88, -10793.61, -9488.18, -9713.89, -133344.95, -153538.03, -56174.13, -162871.20, 0.000, 0.000, 0.000, 17:01:25.151, 1578582085151
224, -54424.11, -54476.72, -54381.99, -30697.95, -54504.50, 15865.58, -54802.18, 124163.45, 0.000, 0.000, 0.000, 17:01:25.151, 1578582085151
225, -18503.51, -10793.17, -9487.71, -9713.53, -133344.20, -153537.28, -56173.75, -162870.67, 0.000, 0.000, 0.000, 17:01:25.152, 1578582085152
226, -54582.87, -54714.97, -54574.66, -30663.51, -54685.87, 15904.16, -55047.09, 124161.43, 0.000, 0.000, 0.000, 17:01:25.152, 1578582085152
227, -18510.51, -10800.90, -9495.51, -9721.40, -133351.80, -153544.77, -56181.60, -162878.31, 0.000, 0.000, 0.000, 17:01:25.152, 1578582085152
228, -54641.50, -54770.15, -54634.64, -30680.65, -54737.43, 15884.80, -55099.17, 124163.09, 0.004, -0.012, 0.972, 17:01:25.152, 1578582085152
229, -18511.24, -10802.33, -9497.12, -9722.90, -133353.13, -153546.17, -56183.12, -162879.66, 0.000, 0.000, 0.000, 17:01:25.152, 1578582085152
230, -54593.69, -54722.61, -54589.66, -30670.21, -54683.38, 15888.85, -55045.84, 124163.73, 0.000, 0.000, 0.000, 17:01:25.152, 1578582085152
231, -18509.48, -10801.46, -9496.18, -9722.00, -133351.86, -153544.88, -56182.09, -162878.50, 0.000, 0.000, 0.000, 17:01:25.152, 1578582085152
232, -54584.99, -54712.93, -54582.46, -30682.53, -54667.92, 15881.50, -55031.45, 124164.14, 0.000, 0.000, 0.000, 17:01:25.152, 1578582085152
233, -18510.87, -10803.63, -9498.35, -9724.28, -133353.75, -153546.80, -56184.28, -162880.33, 0.000, 0.000, 0.000, 17:01:25.153, 1578582085153
234, -54602.88, -54729.05, -54599.97, -30681.01, -54679.32, 15880.65, -55041.75, 124162.62, 0.000, 0.000, 0.000, 17:01:25.153, 1578582085153
235, -18508.88, -10802.42, -9497.32, -9723.14, -133352.22, -153545.38, -56183.21, -162878.98, 0.000, 0.000, 0.000, 17:01:25.153, 1578582085153
236, -54575.74, -54699.66, -54573.48, -30681.23, -54644.80, 15880.80, -55006.68, 124161.45, 0.000, 0.000, 0.000, 17:01:25.153, 1578582085153
237, -18506.19, -10800.50, -9495.54, -9721.24, -133350.02, -153543.16, -56181.31, -162876.86, 0.002, -0.014, 0.974, 17:01:25.153, 1578582085153
238, -54487.18, -54592.32, -54467.87, -30684.32, -54550.21, 15884.20, -54893.22, 124163.11, 0.000, 0.000, 0.000, 17:01:25.153, 1578582085153
239, -18504.23, -10799.51, -9494.51, -9720.19, -133348.72, -153541.80, -56180.13, -162875.61, 0.000, 0.000, 0.000, 17:01:25.153, 1578582085153
240, -54457.18, -54526.79, -54423.37, -30686.84, -54513.11, 15879.24, -54821.68, 124164.80, 0.000, 0.000, 0.000, 17:01:25.153, 1578582085153
241, -18502.55, -10798.57, -9493.55, -9719.28, -133347.48, -153540.55, -56179.27, -162874.52, 0.000, 0.000, 0.000, 17:01:25.153, 1578582085153
242, -54454.30, -54518.43, -54434.88, -30685.03, -54546.08, 15881.63, -54807.14, 124162.69, 0.000, 0.000, 0.000, 17:01:25.153, 1578582085153
243, -18501.50, -10798.42, -9493.34, -9719.16, -133347.08, -153540.14, -56179.07, -162874.16, 0.000, 0.000, 0.000, 17:01:25.154, 1578582085154
244, -54468.00, -54518.18, -54444.64, -30689.21, -54569.01, 15871.37, -54802.52, 124163.11, 0.000, 0.000, 0.000, 17:01:25.154, 1578582085154
245, -18499.58, -10797.32, -9492.29, -9718.09, -133345.63, -153538.89, -56178.00, -162872.91, 0.000, 0.000, 0.000, 17:01:25.154, 1578582085154
246, -54401.30, -54434.36, -54380.70, -30688.83, -54513.42, 15871.10, -54716.04, 124162.80, 0.000, 0.000, 0.000, 17:01:25.154, 1578582085154
247, -18497.03, -10795.62, -9490.57, -9716.37, -133343.58, -153536.83, -56176.14, -162870.88, 0.004, -0.014, 0.976, 17:01:25.154, 1578582085154
248, -54428.60, -54434.50, -54397.28, -30685.95, -54525.87, 15876.20, -54758.66, 124163.18, 0.000, 0.000, 0.000, 17:01:25.154, 1578582085154
249, -18493.97, -10793.39, -9488.47, -9714.27, -133341.19, -153534.38, -56174.02, -162868.55, 0.000, 0.000, 0.000, 17:01:25.154, 1578582085154
250, -54422.76, -54503.30, -54410.00, -30686.06, -54519.21, 15876.26, -54847.69, 124164.70, 0.000, 0.000, 0.000, 17:01:25.154, 1578582085154
251, -18494.62, -10794.89, -9489.92, -9715.72, -133342.36, -153535.61, -56175.54, -162869.78, 0.000, 0.000, 0.000, 17:01:25.154, 1578582085154
252, -54499.21, -54594.67, -54504.30, -30688.23, -54603.72, 15881.92, -54934.71, 124165.48, 0.000, 0.000, 0.000, 17:01:25.154, 1578582085154
253, -18496.38, -10797.52, -9492.54, -9718.31, -133344.73, -153537.92, -56178.11, -162872.17, 0.000, 0.000, 0.000, 17:01:25.154, 1578582085154
254, -54436.93, -54524.35, -54438.88, -30691.78, -54545.88, 15878.23, -54859.02, 124166.10, 0.000, 0.000, 0.000, 17:01:25.154, 1578582085154
255, -18491.75, -10793.81, -9488.87, -9714.60, -133340.72, -153533.92, -56174.40, -162868.28, 0.000, 0.000, 0.000, 17:01:25.154, 1578582085154
0, -54414.49, -54464.23, -54411.88, -30686.17, -54507.50, 15880.53, -54792.80, 124165.23, 0.000, 0.000, 0.000, 17:01:25.155, 1578582085155
1, -18490.79, -10793.50, -9488.78, -9714.45, -133340.22, -153533.48, -56174.22, -162867.88, 0.002, -0.018, 0.978, 17:01:25.155, 1578582085155
2, -54403.96, -54457.77, -54412.30, -30684.99, -54502.60, 15881.14, -54780.93, 124164.92, 0.000, 0.000, 0.000, 17:01:25.155, 1578582085155
3, -18489.85, -10793.43, -9488.70, -9714.43, -133339.84, -153533.14, -56174.18, -162867.64, 0.000, 0.000, 0.000, 17:01:25.155, 1578582085155
4, -54386.51, -54431.50, -54387.43, -30687.85, -54485.64, 15876.98, -54748.32, 124165.05, 0.000, 0.000, 0.000, 17:01:25.155, 1578582085155
5, -18489.70, -10794.10, -9489.30, -9715.05, -133340.17, -153533.53, -56174.78, -162868.08, 0.000, 0.000, 0.000, 17:01:25.155, 1578582085155
6, -54425.40, -54434.83, -54395.83, -30692.79, -54511.12, 15878.63, -54748.43, 124164.56, 0.000, 0.000, 0.000, 17:01:25.155, 1578582085155
7, -18487.73, -10792.92, -9488.16, -9713.93, -133338.75, -153532.09, -56173.73, -162866.73, 0.000, 0.000, 0.000, 17:01:25.155, 1578582085155
8, -54428.91, -54422.83, -54388.27, -30696.61, -54527.04, 15874.45, -54760.41, 124165.41, 0.000, 0.000, 0.000, 17:01:25.156, 1578582085156
9, -18488.78, -10794.77, -9490.10, -9715.79, -133340.25, -153533.70, -56175.61, -162868.44, 0.000, 0.000, 0.000, 17:01:25.156, 1578582085156
10, -54477.91, -54551.75, -54450.84, -30685.50, -54582.78, 15885.79, -54876.41, 124166.30, 0.000, 0.000, 0.000, 17:01:25.156, 1578582085156
11, -18488.76, -10795.69, -9491.11, -9716.68, -133340.88, -153534.27, -56176.53, -162869.11, 0.002, -0.020, 0.978, 17:01:25.156, 1578582085156
12, -54474.21, -54533.63, -54433.89, -30688.23, -54571.67, 15884.02, -54853.37, 124167.98, 0.000, 0.000, 0.000, 17:01:25.156, 1578582085156
13, -18488.80, -10796.50, -9491.91, -9717.67, -133341.41, -153534.80, -56177.29, -162869.67, 0.000, 0.000, 0.000, 17:01:25.156, 1578582085156
14, -54455.04, -54504.75, -54412.77, -30696.97, -54541.70, 15878.70, -54820.31, 124167.69, 0.000, 0.000, 0.000, 17:01:25.156, 1578582085156
15, -18486.93, -10795.47, -9490.84, -9716.57, -133340.02, -153533.41, -56176.21, -162868.42, 0.000, 0.000, 0.000, 17:01:25.156, 1578582085156
16, -54447.46, -54507.34, -54413.82, -30684.79, -54534.88, 15891.40, -54818.77, 124167.55, 0.000, 0.000, 0.000, 17:01:25.156, 1578582085156
17, -18485.94, -10795.13, -9490.62, -9716.35, -133339.50, -153532.94, -56175.96, -162867.88, 0.000, 0.000, 0.000, 17:01:25.156, 1578582085156
18, -54408.57, -54445.18, -54367.15, -30696.86, -54505.55, 15878.43, -54750.82, 124167.18, 0.000, 0.000, 0.000, 17:01:25.157, 1578582085157
19, -18483.13, -10793.21, -9488.76, -9714.56, -133337.41, -153530.80, -56174.07, -162865.83, 0.000, 0.000, 0.000, 17:01:25.157, 1578582085157
20, -54426.47, -54422.65, -54378.93, -30693.17, -54519.43, 15882.08, -54728.69, 124165.92, 0.002, -0.016, 0.976, 17:01:25.157, 1578582085157
21, -18479.59, -10790.66, -9486.10, -9711.83, -133334.44, -153527.88, -56171.30, -162862.89, 0.000, 0.000, 0.000, 17:01:25.157, 1578582085157
22, -54492.68, -54559.04, -54463.84, -30680.54, -54592.55, 15897.68, -54885.13, 124166.77, 0.000, 0.000, 0.000, 17:01:25.157, 1578582085157
23, -18482.10, -10793.88, -9489.41, -9715.10, -133337.50, -153530.89, -56174.65, -162866.11, 0.000, 0.000, 0.000, 17:01:25.157, 1578582085157
24, -54499.61, -54591.88, -54482.38, -30684.65, -54600.39, 15892.85, -54911.02, 124167.67, 0.000, 0.000, 0.000, 17:01:25.157, 1578582085157
25, -18483.30, -10795.85, -9491.38, -9717.02, -133339.06, -153532.56, -56176.59, -162867.86, 0.000, 0.000, 0.000, 17:01:25.157, 1578582085157
26, -54532.84, -54622.81, -54517.22, -30674.06, -54627.59, 15901.03, -54938.20, 124167.58, 0.000, 0.000, 0.000, 17:01:25.157, 1578582085157
27, -18482.03, -10795.60, -9491.09, -9716.77, -133338.52, -153532.03, -56176.37, -162867.44, 0.000, 0.000, 0.000, 17:01:25.157, 1578582085157
28, -54452.22, -54541.74, -54436.42, -30698.40, -54539.95, 15885.41, -54849.95, 124167.67, 0.000, 0.000, 0.000, 17:01:25.157, 1578582085157
29, -18479.79, -10794.19, -9489.63, -9715.43, -133336.88, -153530.31, -56174.83, -162865.72, 0.000, 0.000, 0.000, 17:01:25.158, 1578582085158
30, -54434.30, -54502.76, -54413.46, -30681.21, -54507.16, 15898.84, -54850.60, 124167.76, 0.002, -0.016, 0.974, 17:01:25.158, 1578582085158
31, -18478.95, -10794.10, -9489.70, -9715.41, -133336.47, -153530.03, -56174.78, -162865.53, 0.000, 0.000, 0.000, 17:01:25.158, 1578582085158
32, -54428.13, -54467.87, -54401.06, -30651.30, -54506.00, 15932.86, -54850.29, 124168.81, 0.000, 0.000, 0.000, 17:01:25.158, 1578582085158
33, -18476.69, -10792.74, -9488.29, -9714.00, -133334.77, -153528.36, -56173.42, -162863.88, 0.000, 0.000, 0.000, 17:01:25.158, 1578582085158
34, -54418.92, -54561.93, -54384.14, -30674.68, -54517.11, 15907.27, -54872.70, 124170.77, 0.000, 0.000, 0.000, 17:01:25.158, 1578582085158
35, -18474.14, -10790.97, -9486.53, -9712.28, -133332.73, -153526.27, -56171.56, -162861.91, 0.000, 0.000, 0.000, 17:01:25.158, 1578582085158
36, -54415.70, -54606.32, -54389.95, -30602.89, -54524.87, 15971.95, -54884.04, 124169.21, 0.000, 0.000, 0.000, 17:01:25.158, 1578582085158
37, -18473.67, -10791.44, -9487.04, -9712.73, -133332.86, -153526.38, -56172.03, -162862.16, 0.000, 0.000, 0.000, 17:01:25.158, 1578582085158
38, -54398.73, -54553.25, -54365.18, -30634.56, -54496.30, 15943.16, -54824.89, 124169.99, 0.000, 0.000, 0.000, 17:01:25.158, 1578582085158
39, -18471.64, -10790.19, -9485.92, -9711.47, -133331.34, -153524.94, -56170.74, -162860.80, 0.000, 0.000, 0.000, 17:01:25.159, 1578582085159
40, -54442.14, -54574.09, -54419.93, -30635.26, -54536.18, 15935.72, -54841.88, 124169.44, 0.002, -0.016, 0.974, 17:01:25.159, 1578582085159
41, -18472.80, -10792.11, -9487.89, -9713.46, -133332.98, -153526.66, -56172.75, -162862.52, 0.000, 0.000, 0.000, 17:01:25.159, 1578582085159
42, -54453.77, -54572.34, -54429.02, -30640.71, -54539.64, 15917.73, -54841.81, 124168.67, 0.000, 0.000, 0.000, 17:01:25.159, 1578582085159
43, -18469.56, -10789.72, -9485.61, -9711.18, -133330.31, -153524.00, -56170.36, -162859.97, 0.000, 0.000, 0.000, 17:01:25.159, 1578582085159
44, -54430.03, -54522.12, -54410.07, -30693.28, -54522.54, 15863.39, -54838.75, 124170.13, 0.000, 0.000, 0.000, 17:01:25.159, 1578582085159
45, -18470.83, -10791.80, -9487.71, -9713.29, -133332.13, -153525.77, -56172.50, -162861.91, 0.000, 0.000, 0.000, 17:01:25.159, 1578582085159
46, -54458.17, -54538.21, -54430.52, -30617.42, -54541.72, 15923.67, -54855.00, 124169.32, 0.000, 0.000, 0.000, 17:01:25.160, 1578582085160
47, -18470.14, -10791.80, -9487.78, -9713.26, -133331.92, -153525.55, -56172.52, -162861.67, 0.000, 0.000, 0.000, 17:01:25.160, 1578582085160
48, -54480.63, -54534.34, -54441.65, -30623.23, -54553.68, 15917.88, -54845.66, 124170.24, 0.000, 0.000, 0.000, 17:01:25.160, 1578582085160
49, -18472.33, -10794.84, -9490.82, -9716.33, -133334.67, -153528.34, -56175.63, -162864.45, 0.000, 0.000, 0.000, 17:01:25.160, 1578582085160
50, -54518.96, -54571.00, -54489.04, -30690.17, -54590.71, 15857.82, -54878.31, 124170.66, 0.002, -0.018, 0.980, 17:01:25.160, 1578582085160
51, -18470.65, -10793.90, -9489.92, -9715.50, -133333.41, -153527.02, -56174.65, -162863.41, 0.000, 0.000, 0.000, 17:01:25.160, 1578582085160
52, -54413.64, -54465.86, -54384.07, -30677.50, -54491.99, 15869.18, -54764.92, 124169.48, 0.000, 0.000, 0.000, 17:01:25.161, 1578582085161
53, -18465.89, -10789.95, -9486.01, -9711.52, -133329.20, -153522.89, -56170.65, -162859.20, 0.000, 0.000, 0.000, 17:01:25.161, 1578582085161
54, -54399.56, -54425.16, -54365.12, -30656.38, -54477.50, 15883.66, -54721.41, 124169.13, 0.000, 0.000, 0.000, 17:01:25.161, 1578582085161
55, -18465.74, -10790.53, -9486.64, -9712.10, -133329.56, -153523.23, -56171.25, -162859.61, 0.000, 0.000, 0.000, 17:01:25.161, 1578582085161
56, -54415.36, -54446.50, -54381.19, -30635.03, -54487.98, 15907.87, -54783.14, 124171.13, 0.000, 0.000, 0.000, 17:01:25.161, 1578582085161
57, -18468.20, -10793.84, -9489.92, -9715.39, -133332.55, -153526.27, -56174.56, -162862.83, 0.000, 0.000, 0.000, 17:01:25.161, 1578582085161
58, -54471.40, -54592.73, -54450.86, -30602.58, -54561.05, 15937.35, -54858.49, 124173.81, 0.000, 0.000, 0.000, 17:01:25.161, 1578582085161
59, -18470.43, -10796.96, -9492.99, -9718.54, -133335.34, -153529.14, -56177.64, -162865.72, 0.000, 0.000, 0.000, 17:01:25.161, 1578582085161
60, -54433.80, -54545.68, -54408.73, -30681.41, -54514.81, 15860.66, -54803.46, 124174.51, 0.004, -0.014, 0.974, 17:01:25.161, 1578582085161
61, -18468.13, -10795.40, -9491.60, -9717.20, -133333.63, -153527.42, -56176.19, -162864.11, 0.000, 0.000, 0.000, 17:01:25.161, 1578582085161
62, -54431.59, -54510.79, -54404.37, -30644.84, -54514.00, 15893.05, -54789.58, 124173.88, 0.000, 0.000, 0.000, 17:01:25.161, 1578582085161
63, -18466.65, -10794.77, -9491.04, -9716.48, -133332.63, -153526.58, -56175.54, -162863.19, 0.000, 0.000, 0.000, 17:01:25.161, 1578582085161
64, -54444.51, -54523.55, -54427.90, -30636.80, -54541.61, 15905.63, -54835.11, 124173.62, 0.000, 0.000, 0.000, 17:01:25.161, 1578582085161
65, -18465.80, -10794.69, -9490.93, -9716.39, -133332.17, -153526.08, -56175.41, -162862.81, 0.000, 0.000, 0.000, 17:01:25.161, 1578582085161
66, -54425.02, -54483.00, -54389.97, -30624.88, -54506.87, 15912.30, -54788.04, 124172.41, 0.000, 0.000, 0.000, 17:01:25.162, 1578582085162
67, -18462.32, -10792.09, -9488.34, -9713.78, -133329.31, -153523.17, -56172.77, -162859.92, 0.000, 0.000, 0.000, 17:01:25.162, 1578582085162
68, -54403.65, -54425.58, -54360.25, -30640.22, -54479.18, 15902.97, -54724.20, 124172.23, 0.000, 0.000, 0.000, 17:01:25.162, 1578582085162
69, -18463.35, -10793.88, -9490.24, -9715.72, -133330.86, -153524.72, -56174.54, -162861.59, 0.000, -0.016, 0.980, 17:01:25.162, 1578582085162
70, -54489.39, -54485.64, -54453.30, -30635.81, -54568.96, 15914.80, -54811.24, 124173.13, 0.000, 0.000, 0.000, 17:01:25.162, 1578582085162
71, -18462.45, -10793.79, -9490.15, -9715.52, -133330.44, -153524.31, -56174.38, -162861.23, 0.000, 0.000, 0.000, 17:01:25.162, 1578582085162
72, -54437.23, -54431.08, -54402.40, -30642.36, -54509.49, 15909.90, -54764.86, 124171.02, 0.000, 0.000, 0.000, 17:01:25.162, 1578582085162
73, -18459.61, -10791.76, -9488.09, -9713.55, -133328.06, -153521.95, -56172.37, -162858.97, 0.000, 0.000, 0.000, 17:01:25.162, 1578582085162
74, -54434.25, -54451.04, -54394.98, -30646.54, -54503.12, 15915.22, -54788.86, 124172.32, 0.000, 0.000, 0.000, 17:01:25.632, 1578582085632
75, -18457.78, -10790.91, -9487.20, -9712.59, -133326.77, -153520.67, -56171.32, -162857.83, 0.000, 0.000, 0.000, 17:01:25.632, 1578582085632
76, -54455.84, -54517.36, -54428.60, -30662.23, -54544.51, 15900.14, -54861.66, 124173.21, 0.000, 0.000, 0.000, 17:01:25.632, 1578582085632
