%OpenBCI Raw EEG Data
%Number of channels = 8
%Sample Rate = 250.0 Hz
%First Column = SampleIndex
%Last Column = Timestamp 
%Other Columns = EEG data in microvolts followed by Accel Data (in G) interleaved with Aux Data
0, 93749.98, 93749.98, 93749.98, -13575.15, -92660.70, 10326.06, -92815.52, -92388.66, 0.000, 0.000, 0.000, 15:31:28.367, 1578576688367
1, -93750.01, -91127.74, -93750.01, -93750.01, -93750.01, -93750.01, -93750.01, -93750.01, -0.016, -0.018, 0.976, 15:31:28.383, 1578576688383
2, 187500.00, 187500.00, 187500.00, -27044.11, -185117.56, 20840.27, -185383.80, -184520.94, 0.000, 0.000, 0.000, 15:31:28.863, 1578576688863
3, -187500.02, -182253.25, -187500.02, -187500.02, -187500.02, -187500.02, -187500.02, -187500.02, 0.000, 0.000, 0.000, 15:31:28.863, 1578576688863
4, 187500.00, 187500.00, 187500.00, -27039.08, -185128.08, 20841.41, -185384.72, -184524.59, 0.000, 0.000, 0.000, 15:31:28.863, 1578576688863
5, -187500.02, -182251.56, -187500.02, -187500.02, -187500.02, -187500.02, -187500.02, -187500.02, 0.000, 0.000, 0.000, 15:31:28.863, 1578576688863
6, 187500.00, 187500.00, 187500.00, -27042.82, -185094.50, 20835.71, -185361.33, -184531.61, 0.000, 0.000, 0.000, 15:31:28.863, 1578576688863
7, -187500.02, -182246.16, -187500.02, -187500.02, -187500.02, -187500.02, -187500.02, -187500.02, 0.000, 0.000, 0.000, 15:31:28.863, 1578576688863
8, 187500.00, 187500.00, 187500.00, -27028.33, -185106.39, 20842.93, -185409.95, -184516.69, -0.018, -0.018, 0.986, 15:31:28.863, 1578576688863
9, -187500.02, -182243.63, -187500.02, -187500.02, -187500.02, -187500.02, -187500.02, -187500.02, 0.000, 0.000, 0.000, 15:31:28.864, 1578576688864
10, 187500.00, 187500.00, 187500.00, -27028.82, -185083.34, 20841.95, -185369.61, -184515.19, 0.000, 0.000, 0.000, 15:31:28.864, 1578576688864
11, -187500.02, -182239.05, -187500.02, -187500.02, -187500.02, -187500.02, -187500.02, -187500.02, 0.000, 0.000, 0.000, 15:31:28.864, 1578576688864
12, 187500.00, 187500.00, 187500.00, -27017.22, -185066.33, 20845.08, -185323.50, -184536.73, 0.000, 0.000, 0.000, 15:31:28.864, 1578576688864
13, -187500.02, -182231.89, -187500.02, -187500.02, -187500.02, -187500.02, -187500.02, -187500.02, 0.000, 0.000, 0.000, 15:31:28.864, 1578576688864
14, 187500.00, 187500.00, 187500.00, -27022.88, -185080.33, 20846.38, -185326.13, -184509.94, 0.000, 0.000, 0.000, 15:31:28.864, 1578576688864
15, -187500.02, -182228.92, -187500.02, -187500.02, -187500.02, -187500.02, -187500.02, -187500.02, 0.000, 0.000, 0.000, 15:31:28.864, 1578576688864
16, 187500.00, 187500.00, 187500.00, -27024.69, -185078.81, 20848.75, -185370.03, -184512.03, 0.000, 0.000, 0.000, 15:31:28.864, 1578576688864
17, -187500.02, -182224.84, -187500.02, -187500.02, -187500.02, -187500.02, -187500.02, -187500.02, -0.018, -0.014, 0.974, 15:31:28.864, 1578576688864
18, 187500.00, 187500.00, 187500.00, -27023.73, -185093.45, 20849.91, -185361.61, -184511.41, 0.000, 0.000, 0.000, 15:31:28.864, 1578576688864
19, -187500.02, -182220.67, -187500.02, -187500.02, -187500.02, -187500.02, -187500.02, -187500.02, 0.000, 0.000, 0.000, 15:31:28.864, 1578576688864
20, 187500.00, 187500.00, 187500.00, -27028.96, -185080.59, 20845.46, -185358.77, -184525.92, 0.000, 0.000, 0.000, 15:31:28.864, 1578576688864
21, -187500.02, -182216.84, -187500.02, -187500.02, -187500.02, -187500.02, -187500.02, -187500.02, 0.000, 0.000, 0.000, 15:31:28.864, 1578576688864
22, 187500.00, 187500.00, 187500.00, -27027.33, -185062.72, 20836.25, -185353.20, -184509.47, 0.000, 0.000, 0.000, 15:31:28.864, 1578576688864
23, -187500.02, -182210.55, -187500.02, -187500.02, -187500.02, -187500.02, -187500.02, -187500.02, 0.000, 0.000, 0.000, 15:31:28.864, 1578576688864
24, 187500.00, 187500.00, 187500.00, -27021.80, -185069.22, 20842.60, -185382.75, -184516.50, 0.000, 0.000, 0.000, 15:31:28.864, 1578576688864
25, -187500.02, -182208.58, -187500.02, -187500.02, -187500.02, -187500.02, -187500.02, -187500.02, 0.000, 0.000, 0.000, 15:31:28.865, 1578576688865
26, 187500.00, 187500.00, 187500.00, -27010.96, -185075.80, 20855.12, -185384.17, -184503.45, 0.000, 0.000, 0.000, 15:31:28.865, 1578576688865
27, -187500.02, -182202.70, -187500.02, -187500.02, -187500.02, -187500.02, -187500.02, -187500.02, -0.016, -0.012, 0.976, 15:31:28.865, 1578576688865
28, 187500.00, 187500.00, 187500.00, -27028.33, -185047.83, 20847.47, -185322.36, -184530.77, 0.000, 0.000, 0.000, 15:31:28.865, 1578576688865
29, -187500.02, -182198.23, -187500.02, -187500.02, -187500.02, -187500.02, -187500.02, -187500.02, 0.000, 0.000, 0.000, 15:31:28.865, 1578576688865
30, 187500.00, 187500.00, 187500.00, -27035.80, -185053.28, 20851.40, -185300.11, -184488.30, 0.000, 0.000, 0.000, 15:31:28.865, 1578576688865
31, -187500.02, -182192.81, -187500.02, -187500.02, -187500.02, -187500.02, -187500.02, -187500.02, 0.000, 0.000, 0.000, 15:31:28.865, 1578576688865
32, 187500.00, 187500.00, 187500.00, -27019.35, -185031.80, 20859.09, -185289.61, -184521.05, 0.000, 0.000, 0.000, 15:31:28.865, 1578576688865
33, -187500.02, -182185.80, -187500.02, -187500.02, -187500.02, -187500.02, -187500.02, -187500.02, 0.000, 0.000, 0.000, 15:31:28.865, 1578576688865
34, 187500.00, 187500.00, 187500.00, -27024.71, -185043.00, 20868.39, -185303.11, -184493.77, 0.000, 0.000, 0.000, 15:31:28.865, 1578576688865
35, -187500.02, -182183.20, -187500.02, -187500.02, -187500.02, -187500.02, -187500.02, -187500.02, 0.000, 0.000, 0.000, 15:31:28.865, 1578576688865
36, 187500.00, 187500.00, 187500.00, -27021.83, -185089.84, 20881.00, -185391.28, -184477.59, 0.000, 0.000, 0.000, 15:31:28.865, 1578576688865
37, -187500.02, -182178.98, -187500.02, -187500.02, -187500.02, -187500.02, -187500.02, -187500.02, -0.018, -0.016, 0.978, 15:31:28.865, 1578576688865
38, 187500.00, 187500.00, 187500.00, -27049.14, -185041.66, 20871.63, -185346.38, -184520.73, 0.000, 0.000, 0.000, 15:31:28.865, 1578576688865
39, -187500.02, -182173.84, -187500.02, -187500.02, -187500.02, -187500.02, -187500.02, -187500.02, 0.000, 0.000, 0.000, 15:31:28.865, 1578576688865
40, 187500.00, 187500.00, 187500.00, -27050.33, -185067.63, 20882.79, -185343.75, -184487.47, 0.000, 0.000, 0.000, 15:31:28.865, 1578576688865
41, -187500.02, -182171.83, -187500.02, -187500.02, -187500.02, -187500.02, -187500.02, -187500.02, 0.000, 0.000, 0.000, 15:31:28.865, 1578576688865
42, 187500.00, 187500.00, 187500.00, -27056.56, -185086.70, 20888.60, -185347.67, -184498.73, 0.000, 0.000, 0.000, 15:31:28.865, 1578576688865
43, -187500.02, -182167.25, -187500.02, -187500.02, -187500.02, -187500.02, -187500.02, -187500.02, 0.000, 0.000, 0.000, 15:31:28.866, 1578576688866
44, 187500.00, 187500.00, 187500.00, -27059.69, -185057.66, 20887.99, -185296.25, -184501.75, 0.000, 0.000, 0.000, 15:31:28.866, 1578576688866
45, -187500.02, -182164.31, -187500.02, -187500.02, -187500.02, -187500.02, -187500.02, -187500.02, 0.000, 0.000, 0.000, 15:31:28.866, 1578576688866
46, 187500.00, 187500.00, 187500.00, -27072.92, -185055.86, 20889.76, -185283.97, -184481.23, 0.000, 0.000, 0.000, 15:31:28.866, 1578576688866
47, -187500.02, -182160.28, -187500.02, -187500.02, -187500.02, -187500.02, -187500.02, -187500.02, -0.022, -0.016, 0.974, 15:31:28.866, 1578576688866
48, 187500.00, 187500.00, 187500.00, -27061.72, -185036.72, 20889.87, -185322.42, -184482.33, 0.000, 0.000, 0.000, 15:31:28.866, 1578576688866
49, -187500.02, -182155.84, -187500.02, -187500.02, -187500.02, -187500.02, -187500.02, -187500.02, 0.000, 0.000, 0.000, 15:31:28.866, 1578576688866
50, 187500.00, 187500.00, 187500.00, -27079.79, -185029.66, 20878.38, -185326.52, -184500.55, 0.000, 0.000, 0.000, 15:31:28.866, 1578576688866
51, -187500.02, -182150.70, -187500.02, -187500.02, -187500.02, -187500.02, -187500.02, -187500.02, 0.000, 0.000, 0.000, 15:31:28.866, 1578576688866
52, 187500.00, 187500.00, 187500.00, -27085.40, -185063.72, 20888.22, -185319.63, -184471.88, 0.000, 0.000, 0.000, 15:31:28.866, 1578576688866
53, -187500.02, -182147.25, -187500.02, -187500.02, -187500.02, -187500.02, -187500.02, -187500.02, 0.000, 0.000, 0.000, 15:31:28.866, 1578576688866
54, 187500.00, 187500.00, 187500.00, -27076.50, -185077.83, 20893.43, -185344.09, -184474.63, 0.000, 0.000, 0.000, 15:31:28.866, 1578576688866
55, -187500.02, -182146.19, -187500.02, -187500.02, -187500.02, -187500.02, -187500.02, -187500.02, 0.000, 0.000, 0.000, 15:31:28.866, 1578576688866
56, 187500.00, 187500.00, 187500.00, -27082.38, -185123.48, 20895.24, -185379.14, -184454.64, -0.020, -0.018, 0.972, 15:31:28.866, 1578576688866
57, -187500.02, -182144.25, -187500.02, -187500.02, -187500.02, -187500.02, -187500.02, -187500.02, 0.000, 0.000, 0.000, 15:31:28.866, 1578576688866
58, 187500.00, 187500.00, 187500.00, -27077.13, -185061.59, 20884.42, -185295.80, -184512.34, 0.000, 0.000, 0.000, 15:31:28.867, 1578576688867
59, -187500.02, -182134.80, -187500.02, -187500.02, -187500.02, -187500.02, -187500.02, -187500.02, 0.000, 0.000, 0.000, 15:31:28.867, 1578576688867
60, 187500.00, 187500.00, 187500.00, -27104.24, -185031.72, 20878.74, -185329.80, -184487.30, 0.000, 0.000, 0.000, 15:31:28.867, 1578576688867
61, -187500.02, -182130.52, -187500.02, -187500.02, -187500.02, -187500.02, -187500.02, -187500.02, 0.000, 0.000, 0.000, 15:31:28.869, 1578576688869
62, 187500.00, 187500.00, 187500.00, -27103.90, -185037.44, 20885.00, -185377.69, -184478.17, 0.000, 0.000, 0.000, 15:31:28.869, 1578576688869
63, -187500.02, -182124.89, -187500.02, -187500.02, -187500.02, -187500.02, -187500.02, -187500.02, 0.000, 0.000, 0.000, 15:31:28.869, 1578576688869
64, 187500.00, 187500.00, 187500.00, -27108.02, -185030.13, 20876.80, -185320.97, -184482.80, 0.000, 0.000, 0.000, 15:31:28.869, 1578576688869
65, -187500.02, -182118.34, -187500.02, -187500.02, -187500.02, -187500.02, -187500.02, -187500.02, 0.000, 0.000, 0.000, 15:31:28.869, 1578576688869
66, 187500.00, 187500.00, 187500.00, -27096.86, -185055.83, 20872.86, -185325.06, -184457.19, -0.018, -0.018, 0.972, 15:31:28.869, 1578576688869
67, -187500.02, -182112.94, -187500.02, -187500.02, -187500.02, -187500.02, -187500.02, -187500.02, 0.000, 0.000, 0.000, 15:31:28.869, 1578576688869
68, 187500.00, 187500.00, 187500.00, -27097.78, -185024.83, 20873.58, -185301.44, -184478.95, 0.000, 0.000, 0.000, 15:31:28.869, 1578576688869
69, -187500.02, -182108.48, -187500.02, -187500.02, -187500.02, -187500.02, -187500.02, -187500.02, 0.000, 0.000, 0.000, 15:31:28.869, 1578576688869
70, 187500.00, 187500.00, 187500.00, -27098.43, -185008.22, 20875.99, -185310.27, -184479.22, 0.000, 0.000, 0.000, 15:31:28.869, 1578576688869
71, -187500.02, -182104.03, -187500.02, -187500.02, -187500.02, -187500.02, -187500.02, -187500.02, 0.000, 0.000, 0.000, 15:31:28.869, 1578576688869
72, 187500.00, 187500.00, 187500.00, -27110.38, -185019.67, 20876.17, -185338.22, -184467.67, 0.000, 0.000, 0.000, 15:31:28.869, 1578576688869
73, -187500.02, -182100.08, -187500.02, -187500.02, -187500.02, -187500.02, -187500.02, -187500.02, 0.000, 0.000, 0.000, 15:31:28.869, 1578576688869
74, 187500.00, 187500.00, 187500.00, -27107.17, -185024.16, 20882.25, -185306.86, -184451.55, 0.000, 0.000, 0.000, 15:31:28.870, 1578576688870
75, -187500.02, -182095.28, -187500.02, -187500.02, -187500.02, -187500.02, -187500.02, -187500.02, 0.000, 0.000, 0.000, 15:31:28.870, 1578576688870
76, 187500.00, 187500.00, 187500.00, -27106.85, -184996.31, 20869.60, -185236.36, -184482.38, -0.018, -0.018, 0.970, 15:31:28.870, 1578576688870
77, -187500.02, -182088.75, -187500.02, -187500.02, -187500.02, -187500.02, -187500.02, -187500.02, 0.000, 0.000, 0.000, 15:31:28.870, 1578576688870
78, 187500.00, 187500.00, 187500.00, -27102.09, -185023.06, 20878.09, -185304.30, -184467.69, 0.000, 0.000, 0.000, 15:31:28.870, 1578576688870
79, -187500.02, -182085.55, -187500.02, -187500.02, -187500.02, -187500.02, -187500.02, -187500.02, 0.000, 0.000, 0.000, 15:31:28.870, 1578576688870
80, 187500.00, 187500.00, 187500.00, -27107.81, -185022.28, 20867.92, -185289.92, -184445.27, 0.000, 0.000, 0.000, 15:31:28.870, 1578576688870
81, -187500.02, -182080.67, -187500.02, -187500.02, -187500.02, -187500.02, -187500.02, -187500.02, 0.000, 0.000, 0.000, 15:31:28.870, 1578576688870
82, 187500.00, 187500.00, 187500.00, -27092.62, -185028.47, 20882.47, -185330.73, -184455.02, 0.000, 0.000, 0.000, 15:31:28.870, 1578576688870
83, -187500.02, -182077.97, -187500.02, -187500.02, -187500.02, -187500.02, -187500.02, -187500.02, 0.000, 0.000, 0.000, 15:31:28.870, 1578576688870
84, 187500.00, 187500.00, 187500.00, -27085.91, -185014.81, 20877.33, -185319.27, -184468.31, 0.000, 0.000, 0.000, 15:31:28.870, 1578576688870
85, -187500.02, -182074.13, -187500.02, -187500.02, -187500.02, -187500.02, -187500.02, -187500.02, 0.000, 0.000, 0.000, 15:31:28.871, 1578576688871
86, 187500.00, 187500.00, 187500.00, -27094.36, -184992.94, 20875.34, -185270.94, -184456.30, -0.020, -0.012, 0.974, 15:31:28.871, 1578576688871
87, -187500.02, -182070.64, -187500.02, -187500.02, -187500.02, -187500.02, -187500.02, -187500.02, 0.000, 0.000, 0.000, 15:31:28.871, 1578576688871
88, 187500.00, 187500.00, 187500.00, -27075.92, -185008.67, 20883.73, -185253.95, -184448.88, 0.000, 0.000, 0.000, 15:31:28.871, 1578576688871
89, -187500.02, -182066.19, -187500.02, -187500.02, -187500.02, -187500.02, -187500.02, -187500.02, 0.000, 0.000, 0.000, 15:31:28.871, 1578576688871
90, 187500.00, 187500.00, 187500.00, -27055.98, -185020.14, 20876.01, -185260.44, -184437.77, 0.000, 0.000, 0.000, 15:31:28.871, 1578576688871
91, -187500.02, -182061.66, -187500.02, -187500.02, -187500.02, -187500.02, -187500.02, -187500.02, 0.000, 0.000, 0.000, 15:31:28.871, 1578576688871
92, 187500.00, 187500.00, 187500.00, -27032.69, -184985.94, 20893.67, -185233.77, -184466.06, 0.000, 0.000, 0.000, 15:31:28.871, 1578576688871
93, -187500.02, -182057.23, -187500.02, -187500.02, -187500.02, -187500.02, -187500.02, -187500.02, 0.000, 0.000, 0.000, 15:31:28.871, 1578576688871
94, 187500.00, 187500.00, 187500.00, -27023.57, -185002.25, 20901.94, -185289.78, -184455.13, 0.000, 0.000, 0.000, 15:31:28.871, 1578576688871
95, -187500.02, -182053.13, -187500.02, -187500.02, -187500.02, -187500.02, -187500.02, -187500.02, -0.020, -0.014, 0.974, 15:31:28.871, 1578576688871
96, 187500.00, 187500.00, 187500.00, -27021.96, -184997.14, 20898.75, -185262.52, -184442.72, 0.000, 0.000, 0.000, 15:31:28.871, 1578576688871
97, -187500.02, -182046.53, -187500.02, -187500.02, -187500.02, -187500.02, -187500.02, -187500.02, 0.000, 0.000, 0.000, 15:31:28.871, 1578576688871
98, 187500.00, 187500.00, 187500.00, -27020.29, -184966.53, 20901.92, -185205.23, -184451.97, 0.000, 0.000, 0.000, 15:31:28.871, 1578576688871
99, -187500.02, -182041.94, -187500.02, -187500.02, -187500.02, -187500.02, -187500.02, -187500.02, 0.000, 0.000, 0.000, 15:31:28.871, 1578576688871
100, 187500.00, 187500.00, 187500.00, -27007.88, -184984.80, 20909.03, -185273.94, -184450.64, 0.000, 0.000, 0.000, 15:31:28.872, 1578576688872
101, -187500.02, -182037.08, -187500.02, -187500.02, -187500.02, -187500.02, -187500.02, -187500.02, 0.000, 0.000, 0.000, 15:31:28.872, 1578576688872
102, 187500.00, 187500.00, 187500.00, -27000.44, -184988.22, 20906.46, -185257.44, -184428.84, 0.000, 0.000, 0.000, 15:31:28.872, 1578576688872
103, -187500.02, -182033.55, -187500.02, -187500.02, -187500.02, -187500.02, -187500.02, -187500.02, 0.000, 0.000, 0.000, 15:31:28.872, 1578576688872
104, 187500.00, 187500.00, 187500.00, -27008.77, -184977.83, 20902.72, -185226.58, -184450.09, 0.000, 0.000, 0.000, 15:31:28.872, 1578576688872
105, -187500.02, -182029.67, -187500.02, -187500.02, -187500.02, -187500.02, -187500.02, -187500.02, -0.018, -0.016, 0.974, 15:31:28.872, 1578576688872
106, 187500.00, 187500.00, 187500.00, -26992.26, -184989.83, 20906.35, -185291.55, -184418.00, 0.000, 0.000, 0.000, 15:31:28.872, 1578576688872
107, -187500.02, -182027.06, -187500.02, -187500.02, -187500.02, -187500.02, -187500.02, -187500.02, 0.000, 0.000, 0.000, 15:31:28.872, 1578576688872
108, 187500.00, 187500.00, 187500.00, -26994.00, -184995.84, 20903.02, -185279.02, -184436.16, 0.000, 0.000, 0.000, 15:31:28.872, 1578576688872
109, -187500.02, -182020.95, -187500.02, -187500.02, -187500.02, -187500.02, -187500.02, -187500.02, 0.000, 0.000, 0.000, 15:31:28.872, 1578576688872
110, 187500.00, 187500.00, 187500.00, -26994.07, -184985.48, 20901.07, -185235.05, -184433.09, 0.000, 0.000, 0.000, 15:31:28.873, 1578576688873
111, -187500.02, -182016.13, -187500.02, -187500.02, -187500.02, -187500.02, -187500.02, -187500.02, 0.000, 0.000, 0.000, 15:31:28.873, 1578576688873
112, 187500.00, 187500.00, 187500.00, -26968.92, -184963.27, 20910.82, -185217.52, -184431.44, 0.000, 0.000, 0.000, 15:31:28.873, 1578576688873
113, -187500.02, -182010.97, -187500.02, -187500.02, -187500.02, -187500.02, -187500.02, -187500.02, 0.000, 0.000, 0.000, 15:31:28.873, 1578576688873
114, 187500.00, 187500.00, 187500.00, -26982.55, -184959.30, 20901.67, -185247.45, -184440.38, 0.000, 0.000, 0.000, 15:31:28.873, 1578576688873
115, -187500.02, -182003.25, -187500.02, -187500.02, -187500.02, -187500.02, -187500.02, -187500.02, -0.016, -0.012, 0.976, 15:31:28.873, 1578576688873
116, 187500.00, 187500.00, 187500.00, -26965.63, -184955.61, 20908.34, -185252.86, -184408.70, 0.000, 0.000, 0.000, 15:31:28.873, 1578576688873
117, -187500.02, -181997.70, -187500.02, -187500.02, -187500.02, -187500.02, -187500.02, -187500.02, 0.000, 0.000, 0.000, 15:31:28.873, 1578576688873
118, 187500.00, 187500.00, 187500.00, -26967.65, -184971.47, 20906.28, -185247.61, -184407.89, 0.000, 0.000, 0.000, 15:31:28.874, 1578576688874
119, -187500.02, -181994.58, -187500.02, -187500.02, -187500.02, -187500.02, -187500.02, -187500.02, 0.000, 0.000, 0.000, 15:31:28.874, 1578576688874
120, 187500.00, 187500.00, 187500.00, -26972.68, -184969.70, 20907.02, -185234.80, -184423.20, 0.000, 0.000, 0.000, 15:31:28.874, 1578576688874
121, -187500.02, -181991.36, -187500.02, -187500.02, -187500.02, -187500.02, -187500.02, -187500.02, 0.000, 0.000, 0.000, 15:31:28.874, 1578576688874
122, 187500.00, 187500.00, 187500.00, -26960.74, -184993.09, 20905.70, -185284.11, -184399.19, 0.000, 0.000, 0.000, 15:31:29.344, 1578576689344
123, -187500.02, -181987.47, -187500.02, -187500.02, -187500.02, -187500.02, -187500.02, -187500.02, 0.000, 0.000, 0.000, 15:31:29.344, 1578576689344
124, 187500.00, 187500.00, 187500.00, -26968.99, -184967.03, 20906.23, -185246.31, -184422.20, 0.000, 0.000, 0.000, 15:31:29.344, 1578576689344
125, -187500.02, -181981.81, -187500.02, -187500.02, -187500.02, -187500.02, -187500.02, -187500.02, -0.016, -0.010, 0.976, 15:31:29.344, 1578576689344
126, 187500.00, 187500.00, 187500.00, -26977.68, -184965.23, 20908.25, -185203.08, -184403.30, 0.000, 0.000, 0.000, 15:31:29.344, 1578576689344
127, -187500.02, -181975.64, -187500.02, -187500.02, -187500.02, -187500.02, -187500.02, -187500.02, 0.000, 0.000, 0.000, 15:31:29.344, 1578576689344
128, 187500.00, 187500.00, 187500.00, -26978.17, -184975.94, 20916.63, -185243.41, -184396.14, 0.000, 0.000, 0.000, 15:31:29.344, 1578576689344
129, -187500.02, -181973.45, -187500.02, -187500.02, -187500.02, -187500.02, -187500.02, -187500.02, 0.000, 0.000, 0.000, 15:31:29.344, 1578576689344
130, 187500.00, 187500.00, 187500.00, -26976.92, -185000.95, 20916.18, -185288.95, -184387.89, 0.000, 0.000, 0.000, 15:31:29.345, 1578576689345
131, -187500.02, -181969.84, -187500.02, -187500.02, -187500.02, -187500.02, -187500.02, -187500.02, 0.000, 0.000, 0.000, 15:31:29.345, 1578576689345
132, 187500.00, 187500.00, 187500.00, -27004.82, -184970.09, 20908.25, -185230.95, -184423.08, 0.000, 0.000, 0.000, 15:31:29.345, 1578576689345
133, -187500.02, -181966.03, -187500.02, -187500.02, -187500.02, -187500.02, -187500.02, -187500.02, 0.000, 0.000, 0.000, 15:31:29.345, 1578576689345
134, 187500.00, 187500.00, 187500.00, -27002.81, -184967.98, 20918.24, -185238.16, -184384.27, -0.016, -0.010, 0.976, 15:31:29.345, 1578576689345
135, -187500.02, -181961.56, -187500.02, -187500.02, -187500.02, -187500.02, -187500.02, -187500.02, 0.000, 0.000, 0.000, 15:31:29.345, 1578576689345
136, 187500.00, 187500.00, 187500.00, -27001.09, -184967.98, 20927.29, -185252.56, -184388.78, 0.000, 0.000, 0.000, 15:31:29.345, 1578576689345
137, -187500.02, -181958.17, -187500.02, -187500.02, -187500.02, -187500.02, -187500.02, -187500.02, 0.000, 0.000, 0.000, 15:31:29.345, 1578576689345
138, 187500.00, 187500.00, 187500.00, -27012.64, -184972.34, 20927.98, -185264.89, -184376.31, 0.000, 0.000, 0.000, 15:31:29.345, 1578576689345
139, -187500.02, -181955.22, -187500.02, -187500.02, -187500.02, -187500.02, -187500.02, -187500.02, 0.000, 0.000, 0.000, 15:31:29.345, 1578576689345
140, 187500.00, 187500.00, 187500.00, -27033.99, -184976.66, 20922.39, -185274.16, -184405.47, 0.000, 0.000, 0.000, 15:31:29.345, 1578576689345
141, -187500.02, -181953.09, -187500.02, -187500.02, -187500.02, -187500.02, -187500.02, -187500.02, 0.000, 0.000, 0.000, 15:31:29.345, 1578576689345
142, 187500.00, 187500.00, 187500.00, -27044.47, -184945.97, 20923.22, -185240.98, -184400.30, 0.000, 0.000, 0.000, 15:31:29.345, 1578576689345
143, -187500.02, -181947.27, -187500.02, -187500.02, -187500.02, -187500.02, -187500.02, -187500.02, 0.000, 0.000, 0.000, 15:31:29.345, 1578576689345
144, 187500.00, 187500.00, 187500.00, -27019.06, -184946.75, 20935.76, -185265.72, -184383.31, -0.016, -0.012, 0.978, 15:31:29.345, 1578576689345
145, -187500.02, -181942.20, -187500.02, -187500.02, -187500.02, -187500.02, -187500.02, -187500.02, 0.000, 0.000, 0.000, 15:31:29.346, 1578576689346
146, 187500.00, 187500.00, 187500.00, -27061.55, -184969.58, 20928.96, -185262.41, -184382.73, 0.000, 0.000, 0.000, 15:31:29.346, 1578576689346
147, -187500.02, -181938.92, -187500.02, -187500.02, -187500.02, -187500.02, -187500.02, -187500.02, 0.000, 0.000, 0.000, 15:31:29.346, 1578576689346
148, 187500.00, 187500.00, 187500.00, -27060.81, -184966.95, 20921.12, -185234.58, -184408.64, 0.000, 0.000, 0.000, 15:31:29.346, 1578576689346
149, -187500.02, -181936.20, -187500.02, -187500.02, -187500.02, -187500.02, -187500.02, -187500.02, 0.000, 0.000, 0.000, 15:31:29.346, 1578576689346
150, 187500.00, 187500.00, 187500.00, -27069.55, -184977.94, 20921.68, -185238.16, -184385.34, 0.000, 0.000, 0.000, 15:31:29.346, 1578576689346
151, -187500.02, -181934.13, -187500.02, -187500.02, -187500.02, -187500.02, -187500.02, -187500.02, 0.000, 0.000, 0.000, 15:31:29.346, 1578576689346
152, 187500.00, 187500.00, 187500.00, -27083.14, -184952.08, 20918.10, -185214.91, -184396.16, 0.000, 0.000, 0.000, 15:31:29.346, 1578576689346
153, -187500.02, -181929.20, -187500.02, -187500.02, -187500.02, -187500.02, -187500.02, -187500.02, 0.000, 0.000, 0.000, 15:31:29.346, 1578576689346
154, 187500.00, 187500.00, 187500.00, -27104.42, -184962.20, 20909.25, -185248.80, -184390.36, -0.018, -0.018, 0.972, 15:31:29.346, 1578576689346
155, -187500.02, -181924.39, -187500.02, -187500.02, -187500.02, -187500.02, -187500.02, -187500.02, 0.000, 0.000, 0.000, 15:31:29.346, 1578576689346
156, 187500.00, 187500.00, 187500.00, -27115.30, -184938.91, 20905.43, -185204.56, -184386.58, 0.000, 0.000, 0.000, 15:31:29.346, 1578576689346
157, -187500.02, -181920.59, -187500.02, -187500.02, -187500.02, -187500.02, -187500.02, -187500.02, 0.000, 0.000, 0.000, 15:31:29.346, 1578576689346
158, 187500.00, 187500.00, 187500.00, -27115.41, -184938.69, 20910.39, -185178.83, -184387.56, 0.000, 0.000, 0.000, 15:31:29.346, 1578576689346
159, -187500.02, -181916.06, -187500.02, -187500.02, -187500.02, -187500.02, -187500.02, -187500.02, 0.000, 0.000, 0.000, 15:31:29.346, 1578576689346
160, 187500.00, 187500.00, 187500.00, -27141.32, -184940.34, 20892.71, -185165.47, -184371.33, 0.000, 0.000, 0.000, 15:31:29.347, 1578576689347
161, -187500.02, -181912.03, -187500.02, -187500.02, -187500.02, -187500.02, -187500.02, -187500.02, 0.000, 0.000, 0.000, 15:31:29.347, 1578576689347
162, 187500.00, 187500.00, 187500.00, -27148.34, -184948.30, 20892.22, -185248.02, -184384.98, 0.000, 0.000, 0.000, 15:31:29.347, 1578576689347
163, -187500.02, -181905.83, -187500.02, -187500.02, -187500.02, -187500.02, -187500.02, -187500.02, 0.000, 0.000, 0.000, 15:31:29.347, 1578576689347
164, 187500.00, 187500.00, 187500.00, -27140.58, -184955.89, 20902.61, -185235.27, -184367.86, -0.016, -0.014, 0.974, 15:31:29.347, 1578576689347
165, -187500.02, -181902.48, -187500.02, -187500.02, -187500.02, -187500.02, -187500.02, -187500.02, 0.000, 0.000, 0.000, 15:31:29.347, 1578576689347
166, 187500.00, 187500.00, 187500.00, -27149.01, -184934.19, 20900.04, -185191.45, -184355.69, 0.000, 0.000, 0.000, 15:31:29.347, 1578576689347
167, -187500.02, -181895.92, -187500.02, -187500.02, -187500.02, -187500.02, -187500.02, -187500.02, 0.000, 0.000, 0.000, 15:31:29.347, 1578576689347
168, 187500.00, 187500.00, 187500.00, -27145.54, -184932.19, 20904.02, -185227.09, -184391.80, 0.000, 0.000, 0.000, 15:31:29.347, 1578576689347
169, -187500.02, -181894.33, -187500.02, -187500.02, -187500.02, -187500.02, -187500.02, -187500.02, 0.000, 0.000, 0.000, 15:31:29.347, 1578576689347
170, 187500.00, 187500.00, 187500.00, -27171.70, -184931.17, 20896.04, -185201.16, -184370.92, 0.000, 0.000, 0.000, 15:31:29.347, 1578576689347
171, -187500.02, -181887.66, -187500.02, -187500.02, -187500.02, -187500.02, -187500.02, -187500.02, 0.000, 0.000, 0.000, 15:31:29.347, 1578576689347
172, 187500.00, 187500.00, 187500.00, -27179.77, -184934.81, 20907.17, -185236.67, -184341.84, 0.000, 0.000, 0.000, 15:31:29.347, 1578576689347
173, -187500.02, -181883.42, -187500.02, -187500.02, -187500.02, -187500.02, -187500.02, -187500.02, 0.000, 0.000, 0.000, 15:31:29.347, 1578576689347
174, 187500.00, 187500.00, 187500.00, -27191.66, -184926.30, 20899.64, -185232.83, -184359.19, -0.014, -0.012, 0.976, 15:31:29.348, 1578576689348
175, -187500.02, -181880.00, -187500.02, -187500.02, -187500.02, -187500.02, -187500.02, -187500.02, 0.000, 0.000, 0.000, 15:31:29.348, 1578576689348
176, 187500.00, 187500.00, 187500.00, -27182.43, -184942.28, 20912.80, -185253.59, -184364.83, 0.000, 0.000, 0.000, 15:31:29.348, 1578576689348
177, -187500.02, -181875.42, -187500.02, -187500.02, -187500.02, -187500.02, -187500.02, -187500.02, 0.000, 0.000, 0.000, 15:31:29.348, 1578576689348
178, 187500.00, 187500.00, 187500.00, -27193.56, -184912.80, 20915.80, -185197.97, -184372.66, 0.000, 0.000, 0.000, 15:31:29.348, 1578576689348
179, -187500.02, -181870.89, -187500.02, -187500.02, -187500.02, -187500.02, -187500.02, -187500.02, 0.000, 0.000, 0.000, 15:31:29.348, 1578576689348
180, 187500.00, 187500.00, 187500.00, -27196.60, -184945.80, 20920.74, -185235.38, -184334.31, 0.000, 0.000, 0.000, 15:31:29.348, 1578576689348
181, -187500.02, -181869.28, -187500.02, -187500.02, -187500.02, -187500.02, -187500.02, -187500.02, 0.000, 0.000, 0.000, 15:31:29.348, 1578576689348
182, 187500.00, 187500.00, 187500.00, -27197.42, -184938.70, 20915.09, -185270.45, -184356.27, 0.000, 0.000, 0.000, 15:31:29.348, 1578576689348
183, -187500.02, -181860.61, -187500.02, -187500.02, -187500.02, -187500.02, -187500.02, -187500.02, -0.018, -0.018, 0.974, 15:31:29.348, 1578576689348
184, 187500.00, 187500.00, 187500.00, -27185.78, -184891.64, 20926.28, -185188.67, -184375.33, 0.000, 0.000, 0.000, 15:31:29.348, 1578576689348
185, -187500.02, -181855.06, -187500.02, -187500.02, -187500.02, -187500.02, -187500.02, -187500.02, 0.000, 0.000, 0.000, 15:31:29.348, 1578576689348
186, 187500.00, 187500.00, 187500.00, -27179.16, -184887.44, 20922.17, -185185.73, -184359.66, 0.000, 0.000, 0.000, 15:31:29.348, 1578576689348
187, -187500.02, -181852.11, -187500.02, -187500.02, -187500.02, -187500.02, -187500.02, -187500.02, 0.000, 0.000, 0.000, 15:31:29.348, 1578576689348
188, 187500.00, 187500.00, 187500.00, -27170.20, -184937.92, 20939.18, -185222.63, -184355.86, 0.000, 0.000, 0.000, 15:31:29.348, 1578576689348
189, -187500.02, -181851.66, -187500.02, -187500.02, -187500.02, -187500.02, -187500.02, -187500.02, 0.000, 0.000, 0.000, 15:31:29.349, 1578576689349
190, 187500.00, 187500.00, 187500.00, -27155.02, -184945.22, 20946.94, -185273.64, -184345.77, 0.000, 0.000, 0.000, 15:31:29.349, 1578576689349
191, -187500.02, -181846.52, -187500.02, -187500.02, -187500.02, -187500.02, -187500.02, -187500.02, 0.000, 0.000, 0.000, 15:31:29.349, 1578576689349
192, 187500.00, 187500.00, 187500.00, -27154.02, -184913.45, 20948.21, -185200.67, -184355.06, 0.000, 0.000, 0.000, 15:31:29.349, 1578576689349
193, -187500.02, -181841.83, -187500.02, -187500.02, -187500.02, -187500.02, -187500.02, -187500.02, -0.016, -0.016, 0.976, 15:31:29.349, 1578576689349
194, 187500.00, 187500.00, 187500.00, -27178.92, -184905.81, 20938.60, -185168.66, -184361.88, 0.000, 0.000, 0.000, 15:31:29.349, 1578576689349
195, -187500.02, -181834.05, -187500.02, -187500.02, -187500.02, -187500.02, -187500.02, -187500.02, 0.000, 0.000, 0.000, 15:31:29.349, 1578576689349
196, 187500.00, 187500.00, 187500.00, -27187.54, -184908.58, 20950.56, -185170.72, -184334.36, 0.000, 0.000, 0.000, 15:31:29.349, 1578576689349
197, -187500.02, -181831.22, -187500.02, -187500.02, -187500.02, -187500.02, -187500.02, -187500.02, 0.000, 0.000, 0.000, 15:31:29.349, 1578576689349
198, 187500.00, 187500.00, 187500.00, -27202.21, -184923.47, 20938.51, -185218.42, -184343.22, 0.000, 0.000, 0.000, 15:31:29.349, 1578576689349
199, -187500.02, -181827.13, -187500.02, -187500.02, -187500.02, -187500.02, -187500.02, -187500.02, 0.000, 0.000, 0.000, 15:31:29.349, 1578576689349
200, 187500.00, 187500.00, 187500.00, -27200.64, -184909.41, 20929.32, -185178.27, -184335.83, 0.000, 0.000, 0.000, 15:31:29.349, 1578576689349
201, -187500.02, -181821.33, -187500.02, -187500.02, -187500.02, -187500.02, -187500.02, -187500.02, 0.000, 0.000, 0.000, 15:31:29.349, 1578576689349
202, 187500.00, 187500.00, 187500.00, -27230.93, -184896.02, 20926.89, -185163.88, -184331.61, 0.000, 0.000, 0.000, 15:31:29.349, 1578576689349
203, -187500.02, -181817.63, -187500.02, -187500.02, -187500.02, -187500.02, -187500.02, -187500.02, -0.014, -0.020, 0.976, 15:31:29.349, 1578576689349
204, 187500.00, 187500.00, 187500.00, -27233.95, -184901.25, 20935.87, -185151.61, -184338.89, 0.000, 0.000, 0.000, 15:31:29.349, 1578576689349
205, -187500.02, -181813.05, -187500.02, -187500.02, -187500.02, -187500.02, -187500.02, -187500.02, 0.000, 0.000, 0.000, 15:31:29.350, 1578576689350
206, 187500.00, 187500.00, 187500.00, -27239.76, -184879.91, 20927.00, -185116.73, -184342.03, 0.000, 0.000, 0.000, 15:31:29.350, 1578576689350
207, -187500.02, -181804.80, -187500.02, -187500.02, -187500.02, -187500.02, -187500.02, -187500.02, 0.000, 0.000, 0.000, 15:31:29.350, 1578576689350
208, 187500.00, 187500.00, 187500.00, -27229.61, -184900.27, 20932.03, -185217.75, -184340.63, 0.000, 0.000, 0.000, 15:31:29.350, 1578576689350
209, -187500.02, -181802.95, -187500.02, -187500.02, -187500.02, -187500.02, -187500.02, -187500.02, 0.000, 0.000, 0.000, 15:31:29.350, 1578576689350
210, 187500.00, 187500.00, 187500.00, -27225.25, -184916.69, 20929.66, -185230.64, -184336.78, 0.000, 0.000, 0.000, 15:31:29.350, 1578576689350
211, -187500.02, -181800.83, -187500.02, -187500.02, -187500.02, -187500.02, -187500.02, -187500.02, 0.000, 0.000, 0.000, 15:31:29.350, 1578576689350
212, 187500.00, 187500.00, 187500.00, -27230.10, -184934.73, 20933.39, -185234.08, -184319.66, 0.000, 0.000, 0.000, 15:31:29.350, 1578576689350
213, -187500.02, -181796.23, -187500.02, -187500.02, -187500.02, -187500.02, -187500.02, -187500.02, -0.018, -0.014, 0.972, 15:31:29.350, 1578576689350
214, 187500.00, 187500.00, 187500.00, -27219.37, -184896.03, 20941.68, -185155.27, -184322.36, 0.000, 0.000, 0.000, 15:31:29.350, 1578576689350
215, -187500.02, -181792.52, -187500.02, -187500.02, -187500.02, -187500.02, -187500.02, -187500.02, 0.000, 0.000, 0.000, 15:31:29.350, 1578576689350
216, 187500.00, 187500.00, 187500.00, -27186.31, -184907.81, 20954.54, -185157.75, -184308.23, 0.000, 0.000, 0.000, 15:31:29.350, 1578576689350
217, -187500.02, -181784.92, -187500.02, -187500.02, -187500.02, -187500.02, -187500.02, -187500.02, 0.000, 0.000, 0.000, 15:31:29.350, 1578576689350
218, 187500.00, 187500.00, 187500.00, -27175.34, -184849.88, 20954.63, -185129.80, -184354.41, 0.000, 0.000, 0.000, 15:31:29.350, 1578576689350
219, -187500.02, -181778.22, -187500.02, -187500.02, -187500.02, -187500.02, -187500.02, -187500.02, 0.000, 0.000, 0.000, 15:31:29.350, 1578576689350
220, 187500.00, 187500.00, 187500.00, -27132.18, -184876.23, 20978.59, -185176.89, -184315.97, 0.000, 0.000, 0.000, 15:31:29.350, 1578576689350
221, -187500.02, -181777.55, -187500.02, -187500.02, -187500.02, -187500.02, -187500.02, -187500.02, 0.000, 0.000, 0.000, 15:31:29.351, 1578576689351
222, 187500.00, 187500.00, 187500.00, -27097.53, -184866.59, 20990.68, -185146.56, -184317.89, -0.020, -0.014, 0.970, 15:31:29.351, 1578576689351
223, -187500.02, -181772.42, -187500.02, -187500.02, -187500.02, -187500.02, -187500.02, -187500.02, 0.000, 0.000, 0.000, 15:31:29.351, 1578576689351
224, 187500.00, 187500.00, 187500.00, -27070.09, -184896.63, 20992.42, -185217.48, -184313.31, 0.000, 0.000, 0.000, 15:31:29.351, 1578576689351
225, -187500.02, -181770.38, -187500.02, -187500.02, -187500.02, -187500.02, -187500.02, -187500.02, 0.000, 0.000, 0.000, 15:31:29.351, 1578576689351
226, 187500.00, 187500.00, 187500.00, -27064.50, -184894.70, 20989.18, -185204.98, -184295.11, 0.000, 0.000, 0.000, 15:31:29.351, 1578576689351
227, -187500.02, -181766.69, -187500.02, -187500.02, -187500.02, -187500.02, -187500.02, -187500.02, 0.000, 0.000, 0.000, 15:31:29.351, 1578576689351
228, 187500.00, 187500.00, 187500.00, -27045.43, -184861.75, 20992.38, -185135.61, -184320.88, 0.000, 0.000, 0.000, 15:31:29.351, 1578576689351
229, -187500.02, -181762.06, -187500.02, -187500.02, -187500.02, -187500.02, -187500.02, -187500.02, 0.000, 0.000, 0.000, 15:31:29.351, 1578576689351
230, 187500.00, 187500.00, 187500.00, -27030.32, -184876.14, 20994.72, -185152.50, -184311.39, 0.000, 0.000, 0.000, 15:31:29.351, 1578576689351
231, -187500.02, -181760.31, -187500.02, -187500.02, -187500.02, -187500.02, -187500.02, -187500.02, 0.000, 0.000, 0.000, 15:31:29.351, 1578576689351
232, 187500.00, 187500.00, 187500.00, -27024.31, -184877.94, 21003.78, -185162.63, -184311.89, -0.020, -0.014, 0.974, 15:31:29.351, 1578576689351
233, -187500.02, -181755.59, -187500.02, -187500.02, -187500.02, -187500.02, -187500.02, -187500.02, 0.000, 0.000, 0.000, 15:31:29.353, 1578576689353
234, 187500.00, 187500.00, 187500.00, -27004.84, -184863.81, 20995.87, -185128.39, -184302.31, 0.000, 0.000, 0.000, 15:31:29.353, 1578576689353
235, -187500.02, -181751.27, -187500.02, -187500.02, -187500.02, -187500.02, -187500.02, -187500.02, 0.000, 0.000, 0.000, 15:31:29.353, 1578576689353
236, 187500.00, 187500.00, 187500.00, -27006.90, -184905.84, 20989.16, -185161.39, -184289.88, 0.000, 0.000, 0.000, 15:31:29.353, 1578576689353
237, -187500.02, -181750.31, -187500.02, -187500.02, -187500.02, -187500.02, -187500.02, -187500.02, 0.000, 0.000, 0.000, 15:31:29.353, 1578576689353
238, 187500.00, 187500.00, 187500.00, -26990.45, -184895.41, 20988.85, -185151.86, -184306.47, 0.000, 0.000, 0.000, 15:31:29.353, 1578576689353
239, -187500.02, -181747.39, -187500.02, -187500.02, -187500.02, -187500.02, -187500.02, -187500.02, 0.000, 0.000, 0.000, 15:31:29.353, 1578576689353
240, 187500.00, 187500.00, 187500.00, -27032.47, -184865.61, 20987.79, -185124.22, -184293.23, 0.000, 0.000, 0.000, 15:31:29.353, 1578576689353
241, -187500.02, -181741.52, -187500.02, -187500.02, -187500.02, -187500.02, -187500.02, -187500.02, 0.000, 0.000, 0.000, 15:31:29.353, 1578576689353
242, 187500.00, 187500.00, 187500.00, -26898.36, -184849.36, 21004.78, -185105.08, -184306.89, -0.024, -0.014, 0.980, 15:31:29.825, 1578576689825
243, -187500.02, -181735.25, -187500.02, -187500.02, -187500.02, -187500.02, -187500.02, -187500.02, 0.000, 0.000, 0.000, 15:31:29.826, 1578576689826
244, 187500.00, 187500.00, 187500.00, -26884.77, -184837.30, 21040.26, -185128.39, -184293.39, 0.000, 0.000, 0.000, 15:31:29.826, 1578576689826
245, -187500.02, -181729.44, -187500.02, -187500.02, -187500.02, -187500.02, -187500.02, -187500.02, 0.000, 0.000, 0.000, 15:31:29.826, 1578576689826
246, 187500.00, 187500.00, 187500.00, -26875.40, -184855.73, 21046.60, -185142.08, -184283.16, 0.000, 0.000, 0.000, 15:31:29.826, 1578576689826
247, -187500.02, -181726.34, -187500.02, -187500.02, -187500.02, -187500.02, -187500.02, -187500.02, 0.000, 0.000, 0.000, 15:31:29.826, 1578576689826
248, 187500.00, 187500.00, 187500.00, -26883.69, -184872.17, 21042.31, -185168.17, -184299.42, 0.000, 0.000, 0.000, 15:31:29.826, 1578576689826
249, -187500.02, -181718.92, -187500.02, -187500.02, -187500.02, -187500.02, -187500.02, -187500.02, 0.000, 0.000, 0.000, 15:31:29.826, 1578576689826
250, 187500.00, 187500.00, 187500.00, -26822.76, -184830.06, 21053.11, -185114.25, -184294.48, 0.000, 0.000, 0.000, 15:31:29.826, 1578576689826
251, -187500.02, -181712.36, -187500.02, -187500.02, -187500.02, -187500.02, -187500.02, -187500.02, 0.000, 0.000, 0.000, 15:31:29.826, 1578576689826
252, 187500.00, 187500.00, 187500.00, -26812.79, -184842.59, 21052.86, -185155.86, -184288.52, -0.024, -0.016, 0.978, 15:31:29.826, 1578576689826
253, -187500.02, -181708.33, -187500.02, -187500.02, -187500.02, -187500.02, -187500.02, -187500.02, 0.000, 0.000, 0.000, 15:31:29.826, 1578576689826
254, 187500.00, 187500.00, 187500.00, -26873.66, -184836.61, 21034.22, -185123.64, -184276.31, 0.000, 0.000, 0.000, 15:31:29.826, 1578576689826
255, -187500.02, -181703.20, -187500.02, -187500.02, -187500.02, -187500.02, -187500.02, -187500.02, 0.000, 0.000, 0.000, 15:31:29.826, 1578576689826
0, 187500.00, 187500.00, 187500.00, -26872.43, -184842.39, 21020.83, -185161.08, -184277.83, 0.000, 0.000, 0.000, 15:31:29.827, 1578576689827
1, -187500.02, -181699.98, -187500.02, -187500.02, -187500.02, -187500.02, -187500.02, -187500.02, 0.000, 0.000, 0.000, 15:31:29.827, 1578576689827
2, 187500.00, 187500.00, 187500.00, -26881.59, -184843.27, 21019.76, -185140.83, -184275.53, 0.000, 0.000, 0.000, 15:31:29.827, 1578576689827
3, -187500.02, -181696.86, -187500.02, -187500.02, -187500.02, -187500.02, -187500.02, -187500.02, 0.000, 0.000, 0.000, 15:31:29.827, 1578576689827
4, 187500.00, 187500.00, 187500.00, -26917.67, -184846.95, 21013.90, -185131.94, -184275.39, 0.000, 0.000, 0.000, 15:31:29.828, 1578576689828
5, -187500.02, -181693.28, -187500.02, -187500.02, -187500.02, -187500.02, -187500.02, -187500.02, -0.026, -0.014, 0.980, 15:31:29.828, 1578576689828
6, 187500.00, 187500.00, 187500.00, -26939.42, -184860.47, 21007.87, -185158.97, -184268.72, 0.000, 0.000, 0.000, 15:31:29.828, 1578576689828
7, -187500.02, -181687.83, -187500.02, -187500.02, -187500.02, -187500.02, -187500.02, -187500.02, 0.000, 0.000, 0.000, 15:31:29.828, 1578576689828
8, 187500.00, 187500.00, 187500.00, -26960.20, -184845.19, 20999.20, -185105.88, -184277.63, 0.000, 0.000, 0.000, 15:31:29.828, 1578576689828
9, -187500.02, -181682.64, -187500.02, -187500.02, -187500.02, -187500.02, -187500.02, -187500.02, 0.000, 0.000, 0.000, 15:31:29.828, 1578576689828
10, 187500.00, 187500.00, 187500.00, -26982.89, -184822.98, 20991.82, -185096.95, -184275.48, 0.000, 0.000, 0.000, 15:31:29.828, 1578576689828
11, -187500.02, -181674.81, -187500.02, -187500.02, -187500.02, -187500.02, -187500.02, -187500.02, 0.000, 0.000, 0.000, 15:31:29.828, 1578576689828
12, 187500.00, 187500.00, 187500.00, -26988.90, -184816.88, 20993.74, -185105.20, -184275.91, 0.000, 0.000, 0.000, 15:31:29.828, 1578576689828
13, -187500.02, -181671.69, -187500.02, -187500.02, -187500.02, -187500.02, -187500.02, -187500.02, 0.000, 0.000, 0.000, 15:31:29.828, 1578576689828
14, 187500.00, 187500.00, 187500.00, -27002.81, -184838.33, 20993.16, -185102.81, -184244.80, 0.000, 0.000, 0.000, 15:31:29.828, 1578576689828
15, -187500.02, -181668.42, -187500.02, -187500.02, -187500.02, -187500.02, -187500.02, -187500.02, -0.024, -0.008, 0.976, 15:31:29.828, 1578576689828
16, 187500.00, 187500.00, 187500.00, -27011.28, -184821.94, 20983.62, -185076.45, -184260.78, 0.000, 0.000, 0.000, 15:31:29.829, 1578576689829
17, -187500.02, -181662.72, -187500.02, -187500.02, -187500.02, -187500.02, -187500.02, -187500.02, 0.000, 0.000, 0.000, 15:31:29.829, 1578576689829
18, 187500.00, 187500.00, 187500.00, -26997.84, -184833.97, 20978.45, -185099.03, -184255.14, 0.000, 0.000, 0.000, 15:31:29.829, 1578576689829
19, -187500.02, -181662.61, -187500.02, -187500.02, -187500.02, -187500.02, -187500.02, -187500.02, 0.000, 0.000, 0.000, 15:31:29.829, 1578576689829
20, 187500.00, 187500.00, 187500.00, -26995.12, -184822.14, 20978.07, -185086.98, -184272.48, 0.000, 0.000, 0.000, 15:31:29.829, 1578576689829
21, -187500.02, -181656.84, -187500.02, -187500.02, -187500.02, -187500.02, -187500.02, -187500.02, 0.000, 0.000, 0.000, 15:31:29.829, 1578576689829
22, 187500.00, 187500.00, 187500.00, -27005.13, -184808.23, 20973.94, -185069.58, -184272.64, 0.000, 0.000, 0.000, 15:31:29.829, 1578576689829
23, -187500.02, -181647.88, -187500.02, -187500.02, -187500.02, -187500.02, -187500.02, -187500.02, 0.000, 0.000, 0.000, 15:31:29.829, 1578576689829
24, 187500.00, 187500.00, 187500.00, -26997.96, -184821.58, 20975.64, -185113.47, -184269.31, 0.000, 0.000, 0.000, 15:31:29.829, 1578576689829
25, -187500.02, -181642.45, -187500.02, -187500.02, -187500.02, -187500.02, -187500.02, -187500.02, -0.022, -0.012, 0.972, 15:31:29.829, 1578576689829
26, 187500.00, 187500.00, 187500.00, -26989.44, -184822.98, 20984.38, -185106.69, -184242.25, 0.000, 0.000, 0.000, 15:31:29.829, 1578576689829
27, -187500.02, -181639.30, -187500.02, -187500.02, -187500.02, -187500.02, -187500.02, -187500.02, 0.000, 0.000, 0.000, 15:31:29.829, 1578576689829
28, 187500.00, 187500.00, 187500.00, -26981.66, -184823.31, 20986.97, -185097.97, -184234.83, 0.000, 0.000, 0.000, 15:31:29.830, 1578576689830
29, -187500.02, -181635.50, -187500.02, -187500.02, -187500.02, -187500.02, -187500.02, -187500.02, 0.000, 0.000, 0.000, 15:31:29.830, 1578576689830
30, 187500.00, 187500.00, 187500.00, -26982.85, -184794.27, 20987.08, -185056.03, -184275.39, 0.000, 0.000, 0.000, 15:31:29.830, 1578576689830
31, -187500.02, -181631.34, -187500.02, -187500.02, -187500.02, -187500.02, -187500.02, -187500.02, 0.000, 0.000, 0.000, 15:31:29.830, 1578576689830
32, 187500.00, 187500.00, 187500.00, -26973.08, -184810.77, 20991.75, -185106.19, -184225.53, 0.000, 0.000, 0.000, 15:31:29.830, 1578576689830
33, -187500.02, -181627.72, -187500.02, -187500.02, -187500.02, -187500.02, -187500.02, -187500.02, 0.000, 0.000, 0.000, 15:31:29.830, 1578576689830
34, 187500.00, 187500.00, 187500.00, -26965.01, -184821.25, 20993.29, -185142.67, -184229.11, 0.000, 0.000, 0.000, 15:31:29.830, 1578576689830
35, -187500.02, -181626.11, -187500.02, -187500.02, -187500.02, -187500.02, -187500.02, -187500.02, -0.016, -0.010, 0.974, 15:31:29.830, 1578576689830
36, 187500.00, 187500.00, 187500.00, -26961.50, -184815.89, 20991.57, -185117.44, -184251.02, 0.000, 0.000, 0.000, 15:31:29.830, 1578576689830
37, -187500.02, -181621.78, -187500.02, -187500.02, -187500.02, -187500.02, -187500.02, -187500.02, 0.000, 0.000, 0.000, 15:31:29.830, 1578576689830
38, 187500.00, 187500.00, 187500.00, -26957.52, -184786.14, 20990.68, -185066.27, -184261.36, 0.000, 0.000, 0.000, 15:31:29.830, 1578576689830
39, -187500.02, -181617.47, -187500.02, -187500.02, -187500.02, -187500.02, -187500.02, -187500.02, 0.000, 0.000, 0.000, 15:31:29.830, 1578576689830
40, 187500.00, 187500.00, 187500.00, -26954.64, -184813.09, 20992.67, -185083.72, -184237.88, 0.000, 0.000, 0.000, 15:31:29.830, 1578576689830
41, -187500.02, -181616.25, -187500.02, -187500.02, -187500.02, -187500.02, -187500.02, -187500.02, 0.000, 0.000, 0.000, 15:31:29.830, 1578576689830
42, 187500.00, 187500.00, 187500.00, -26946.88, -184828.83, 20997.05, -185088.55, -184248.98, 0.000, 0.000, 0.000, 15:31:29.830, 1578576689830
43, -187500.02, -181610.23, -187500.02, -187500.02, -187500.02, -187500.02, -187500.02, -187500.02, 0.000, 0.000, 0.000, 15:31:29.830, 1578576689830
44, 187500.00, 187500.00, 187500.00, -26946.70, -184794.72, 20991.89, -185050.23, -184261.11, -0.022, -0.010, 0.980, 15:31:29.830, 1578576689830
45, -187500.02, -181603.69, -187500.02, -187500.02, -187500.02, -187500.02, -187500.02, -187500.02, 0.000, 0.000, 0.000, 15:31:29.831, 1578576689831
46, 187500.00, 187500.00, 187500.00, -26946.79, -184808.98, 20990.08, -185107.59, -184236.50, 0.000, 0.000, 0.000, 15:31:29.831, 1578576689831
47, -187500.02, -181600.09, -187500.02, -187500.02, -187500.02, -187500.02, -187500.02, -187500.02, 0.000, 0.000, 0.000, 15:31:29.831, 1578576689831
48, 187500.00, 187500.00, 187500.00, -26940.96, -184804.02, 20992.27, -185099.23, -184234.56, 0.000, 0.000, 0.000, 15:31:29.831, 1578576689831
49, -187500.02, -181596.94, -187500.02, -187500.02, -187500.02, -187500.02, -187500.02, -187500.02, 0.000, 0.000, 0.000, 15:31:29.831, 1578576689831
50, 187500.00, 187500.00, 187500.00, -26929.09, -184828.88, 20997.83, -185112.94, -184233.94, 0.000, 0.000, 0.000, 15:31:29.831, 1578576689831
51, -187500.02, -181594.95, -187500.02, -187500.02, -187500.02, -187500.02, -187500.02, -187500.02, 0.000, 0.000, 0.000, 15:31:29.831, 1578576689831
52, 187500.00, 187500.00, 187500.00, -26929.56, -184823.28, 20997.92, -185089.06, -184247.77, 0.000, 0.000, 0.000, 15:31:29.831, 1578576689831
53, -187500.02, -181591.44, -187500.02, -187500.02, -187500.02, -187500.02, -187500.02, -187500.02, 0.000, 0.000, 0.000, 15:31:29.831, 1578576689831
54, 187500.00, 187500.00, 187500.00, -26926.83, -184813.00, 20992.96, -185066.42, -184231.14, -0.018, -0.014, 0.978, 15:31:29.831, 1578576689831
55, -187500.02, -181584.92, -187500.02, -187500.02, -187500.02, -187500.02, -187500.02, -187500.02, 0.000, 0.000, 0.000, 15:31:29.831, 1578576689831
56, 187500.00, 187500.00, 187500.00, -26924.13, -184776.52, 20991.89, -185046.91, -184231.03, 0.000, 0.000, 0.000, 15:31:29.831, 1578576689831
57, -187500.02, -181577.94, -187500.02, -187500.02, -187500.02, -187500.02, -187500.02, -187500.02, 0.000, 0.000, 0.000, 15:31:29.831, 1578576689831
58, 187500.00, 187500.00, 187500.00, -26926.86, -184777.55, 20993.23, -185044.63, -184240.58, 0.000, 0.000, 0.000, 15:31:29.831, 1578576689831
59, -187500.02, -181573.94, -187500.02, -187500.02, -187500.02, -187500.02, -187500.02, -187500.02, 0.000, 0.000, 0.000, 15:31:29.831, 1578576689831
60, 187500.00, 187500.00, 187500.00, -26928.84, -184806.67, 20991.75, -185084.86, -184218.75, 0.000, 0.000, 0.000, 15:31:29.831, 1578576689831
61, -187500.02, -181571.94, -187500.02, -187500.02, -187500.02, -187500.02, -187500.02, -187500.02, 0.000, 0.000, 0.000, 15:31:29.832, 1578576689832
62, 187500.00, 187500.00, 187500.00, -26919.90, -184789.13, 20995.19, -185068.48, -184217.75, 0.000, 0.000, 0.000, 15:31:29.832, 1578576689832
63, -187500.02, -181566.28, -187500.02, -187500.02, -187500.02, -187500.02, -187500.02, -187500.02, 0.000, 0.000, 0.000, 15:31:29.832, 1578576689832
64, 187500.00, 187500.00, 187500.00, -26916.08, -184775.19, 20997.88, -185031.89, -184213.45, -0.020, -0.012, 0.974, 15:31:29.832, 1578576689832
65, -187500.02, -181560.17, -187500.02, -187500.02, -187500.02, -187500.02, -187500.02, -187500.02, 0.000, 0.000, 0.000, 15:31:29.832, 1578576689832
66, 187500.00, 187500.00, 187500.00, -26920.75, -184778.06, 21002.10, -185019.42, -184201.14, 0.000, 0.000, 0.000, 15:31:29.832, 1578576689832
67, -187500.02, -181553.94, -187500.02, -187500.02, -187500.02, -187500.02, -187500.02, -187500.02, 0.000, 0.000, 0.000, 15:31:29.832, 1578576689832
68, 187500.00, 187500.00, 187500.00, -26922.88, -184775.50, 20994.95, -185069.11, -184214.73, 0.000, 0.000, 0.000, 15:31:29.832, 1578576689832
69, -187500.02, -181552.11, -187500.02, -187500.02, -187500.02, -187500.02, -187500.02, -187500.02, 0.000, 0.000, 0.000, 15:31:29.832, 1578576689832
70, 187500.00, 187500.00, 187500.00, -26925.51, -184749.13, 20991.77, -185038.86, -184230.31, 0.000, 0.000, 0.000, 15:31:29.832, 1578576689832
71, -187500.02, -181547.81, -187500.02, -187500.02, -187500.02, -187500.02, -187500.02, -187500.02, 0.000, 0.000, 0.000, 15:31:29.832, 1578576689832
72, 187500.00, 187500.00, 187500.00, -26917.89, -184774.42, 20996.47, -185055.06, -184202.89, 0.000, 0.000, 0.000, 15:31:29.832, 1578576689832
73, -187500.02, -181547.92, -187500.02, -187500.02, -187500.02, -187500.02, -187500.02, -187500.02, 0.000, 0.000, 0.000, 15:31:29.832, 1578576689832
74, 187500.00, 187500.00, 187500.00, -26916.89, -184816.53, 20999.40, -185092.83, -184194.27, -0.022, -0.014, 0.976, 15:31:29.832, 1578576689832
75, -187500.02, -181543.03, -187500.02, -187500.02, -187500.02, -187500.02, -187500.02, -187500.02, 0.000, 0.000, 0.000, 15:31:29.832, 1578576689832
76, 187500.00, 187500.00, 187500.00, -26923.57, -184754.94, 20991.57, -185014.86, -184211.66, 0.000, 0.000, 0.000, 15:31:29.832, 1578576689832
77, -187500.02, -181534.92, -187500.02, -187500.02, -187500.02, -187500.02, -187500.02, -187500.02, 0.000, 0.000, 0.000, 15:31:29.833, 1578576689833
78, 187500.00, 187500.00, 187500.00, -26915.90, -184798.94, 20999.06, -185058.63, -184182.38, 0.000, 0.000, 0.000, 15:31:29.833, 1578576689833
79, -187500.02, -181533.59, -187500.02, -187500.02, -187500.02, -187500.02, -187500.02, -187500.02, 0.000, 0.000, 0.000, 15:31:29.833, 1578576689833
80, 187500.00, 187500.00, 187500.00, -26922.41, -184803.80, 20995.89, -185063.63, -184202.38, 0.000, 0.000, 0.000, 15:31:29.833, 1578576689833
81, -187500.02, -181528.77, -187500.02, -187500.02, -187500.02, -187500.02, -187500.02, -187500.02, 0.000, 0.000, 0.000, 15:31:29.833, 1578576689833
82, 187500.00, 187500.00, 187500.00, -26918.96, -184759.27, 20995.84, -185010.05, -184222.25, 0.000, 0.000, 0.000, 15:31:29.833, 1578576689833
83, -187500.02, -181524.72, -187500.02, -187500.02, -187500.02, -187500.02, -187500.02, -187500.02, -0.018, -0.016, 0.974, 15:31:29.833, 1578576689833
84, 187500.00, 187500.00, 187500.00, -26923.44, -184762.84, 20990.19, -185020.66, -184206.38, 0.000, 0.000, 0.000, 15:31:29.833, 1578576689833
85, -187500.02, -181519.89, -187500.02, -187500.02, -187500.02, -187500.02, -187500.02, -187500.02, 0.000, 0.000, 0.000, 15:31:29.833, 1578576689833
86, 187500.00, 187500.00, 187500.00, -26922.12, -184753.28, 21002.30, -185037.38, -184205.91, 0.000, 0.000, 0.000, 15:31:29.833, 1578576689833
87, -187500.02, -181516.63, -187500.02, -187500.02, -187500.02, -187500.02, -187500.02, -187500.02, 0.000, 0.000, 0.000, 15:31:29.833, 1578576689833
88, 187500.00, 187500.00, 187500.00, -26924.40, -184760.72, 20996.47, -185048.47, -184187.52, 0.000, 0.000, 0.000, 15:31:29.833, 1578576689833
89, -187500.02, -181512.66, -187500.02, -187500.02, -187500.02, -187500.02, -187500.02, -187500.02, 0.000, 0.000, 0.000, 15:31:29.833, 1578576689833
90, 187500.00, 187500.00, 187500.00, -26920.78, -184759.09, 20996.45, -185020.69, -184203.16, 0.000, 0.000, 0.000, 15:31:29.833, 1578576689833
91, -187500.02, -181507.56, -187500.02, -187500.02, -187500.02, -187500.02, -187500.02, -187500.02, 0.000, 0.000, 0.000, 15:31:29.834, 1578576689834
92, 187500.00, 187500.00, 187500.00, -26917.54, -184752.27, 21009.86, -185019.52, -184199.53, 0.000, 0.000, 0.000, 15:31:29.834, 1578576689834
93, -187500.02, -181503.53, -187500.02, -187500.02, -187500.02, -187500.02, -187500.02, -187500.02, -0.018, -0.012, 0.978, 15:31:29.834, 1578576689834
94, 187500.00, 187500.00, 187500.00, -26919.41, -184745.28, 21009.66, -185008.67, -184201.23, 0.000, 0.000, 0.000, 15:31:29.834, 1578576689834
95, -187500.02, -181496.78, -187500.02, -187500.02, -187500.02, -187500.02, -187500.02, -187500.02, 0.000, 0.000, 0.000, 15:31:29.834, 1578576689834
96, 187500.00, 187500.00, 187500.00, -26925.22, -184720.20, 21004.43, -184965.13, -184198.58, 0.000, 0.000, 0.000, 15:31:29.834, 1578576689834
97, -187500.02, -181490.61, -187500.02, -187500.02, -187500.02, -187500.02, -187500.02, -187500.02, 0.000, 0.000, 0.000, 15:31:29.834, 1578576689834
98, 187500.00, 187500.00, 187500.00, -26917.54, -184744.42, 21006.06, -185023.42, -184183.28, 0.000, 0.000, 0.000, 15:31:29.834, 1578576689834
99, -187500.02, -181486.28, -187500.02, -187500.02, -187500.02, -187500.02, -187500.02, -187500.02, 0.000, 0.000, 0.000, 15:31:29.834, 1578576689834
100, 187500.00, 187500.00, 187500.00, -26914.83, -184759.11, 21008.31, -185032.81, -184189.70, 0.000, 0.000, 0.000, 15:31:29.834, 1578576689834
101, -187500.02, -181483.70, -187500.02, -187500.02, -187500.02, -187500.02, -187500.02, -187500.02, 0.000, 0.000, 0.000, 15:31:29.834, 1578576689834
102, 187500.00, 187500.00, 187500.00, -26917.09, -184768.75, 21008.02, -185019.55, -184176.53, 0.000, 0.000, 0.000, 15:31:29.834, 1578576689834
103, -187500.02, -181479.64, -187500.02, -187500.02, -187500.02, -187500.02, -187500.02, -187500.02, -0.020, -0.008, 0.982, 15:31:29.834, 1578576689834
104, 187500.00, 187500.00, 187500.00, -26920.02, -184745.75, 21005.81, -184993.22, -184174.05, 0.000, 0.000, 0.000, 15:31:29.835, 1578576689835
105, -187500.02, -181475.08, -187500.02, -187500.02, -187500.02, -187500.02, -187500.02, -187500.02, 0.000, 0.000, 0.000, 15:31:29.835, 1578576689835
106, 187500.00, 187500.00, 187500.00, -26923.81, -184756.30, 21000.38, -185031.80, -184185.23, 0.000, 0.000, 0.000, 15:31:29.835, 1578576689835
107, -187500.02, -181471.33, -187500.02, -187500.02, -187500.02, -187500.02, -187500.02, -187500.02, 0.000, 0.000, 0.000, 15:31:30.306, 1578576690306
108, 187500.00, 187500.00, 187500.00, -26930.61, -184733.27, 20994.54, -184971.36, -184170.41, 0.000, 0.000, 0.000, 15:31:30.307, 1578576690307
109, -187500.02, -181464.63, -187500.02, -187500.02, -187500.02, -187500.02, -187500.02, -187500.02, 0.000, 0.000, 0.000, 15:31:30.307, 1578576690307
110, 187500.00, 187500.00, 187500.00, -26926.30, -184708.78, 20999.71, -184964.88, -184203.72, 0.000, 0.000, 0.000, 15:31:30.307, 1578576690307
111, -187500.02, -181458.61, -187500.02, -187500.02, -187500.02, -187500.02, -187500.02, -187500.02, 0.000, 0.000, 0.000, 15:31:30.307, 1578576690307
112, 187500.00, 187500.00, 187500.00, -26923.32, -184703.30, 21001.63, -184965.22, -184183.06, 0.000, 0.000, 0.000, 15:31:30.307, 1578576690307
113, -187500.02, -181450.38, -187500.02, -187500.02, -187500.02, -187500.02, -187500.02, -187500.02, -0.026, -0.010, 0.980, 15:31:30.307, 1578576690307
114, 187500.00, 187500.00, 187500.00, -26920.42, -184697.39, 21006.37, -184992.53, -184174.70, 0.000, 0.000, 0.000, 15:31:30.307, 1578576690307
115, -187500.02, -181445.91, -187500.02, -187500.02, -187500.02, -187500.02, -187500.02, -187500.02, 0.000, 0.000, 0.000, 15:31:30.307, 1578576690307
116, 187500.00, 187500.00, 187500.00, -26922.99, -184744.52, 21011.02, -185059.92, -184136.48, 0.000, 0.000, 0.000, 15:31:30.307, 1578576690307
117, -187500.02, -181441.78, -187500.02, -187500.02, -187500.02, -187500.02, -187500.02, -187500.02, 0.000, 0.000, 0.000, 15:31:30.307, 1578576690307
118, 187500.00, 187500.00, 187500.00, -26922.94, -184743.42, 21008.52, -185016.94, -184177.97, 0.000, 0.000, 0.000, 15:31:30.307, 1578576690307
119, -187500.02, -181439.44, -187500.02, -187500.02, -187500.02, -187500.02, -187500.02, -187500.02, 0.000, 0.000, 0.000, 15:31:30.307, 1578576690307
120, 187500.00, 187500.00, 187500.00, -26926.23, -184741.19, 21005.65, -185008.47, -184164.33, 0.000, 0.000, 0.000, 15:31:30.307, 1578576690307
121, -187500.02, -181435.72, -187500.02, -187500.02, -187500.02, -187500.02, -187500.02, -187500.02, 0.000, 0.000, 0.000, 15:31:30.307, 1578576690307
122, 187500.00, 187500.00, 187500.00, -26928.55, -184710.73, 21005.99, -184951.14, -184169.06, -0.020, -0.010, 0.972, 15:31:30.307, 1578576690307
123, -187500.02, -181427.52, -187500.02, -187500.02, -187500.02, -187500.02, -187500.02, -187500.02, 0.000, 0.000, 0.000, 15:31:30.308, 1578576690308
124, 187500.00, 187500.00, 187500.00, -26928.51, -184702.58, 21003.02, -184937.45, -184160.44, 0.000, 0.000, 0.000, 15:31:30.308, 1578576690308
125, -187500.02, -181420.83, -187500.02, -187500.02, -187500.02, -187500.02, -187500.02, -187500.02, 0.000, 0.000, 0.000, 15:31:30.308, 1578576690308
126, 187500.00, 187500.00, 187500.00, -26924.75, -184725.72, 21013.46, -184978.78, -184142.67, 0.000, 0.000, 0.000, 15:31:30.308, 1578576690308
127, -187500.02, -181418.08, -187500.02, -187500.02, -187500.02, -187500.02, -187500.02, -187500.02, 0.000, 0.000, 0.000, 15:31:30.308, 1578576690308
128, 187500.00, 187500.00, 187500.00, -26930.99, -184731.27, 21013.14, -185005.86, -184133.03, 0.000, 0.000, 0.000, 15:31:30.308, 1578576690308
129, -187500.02, -181412.83, -187500.02, -187500.02, -187500.02, -187500.02, -187500.02, -187500.02, 0.000, 0.000, 0.000, 15:31:30.308, 1578576690308
130, 187500.00, 187500.00, 187500.00, -26928.42, -184709.41, 21012.76, -185027.91, -184169.30, 0.000, 0.000, 0.000, 15:31:30.308, 1578576690308
131, -187500.02, -181410.11, -187500.02, -187500.02, -187500.02, -187500.02, -187500.02, -187500.02, 0.000, 0.000, 0.000, 15:31:30.308, 1578576690308
132, 187500.00, 187500.00, 187500.00, -26929.34, -184733.88, 21009.39, -185075.44, -184139.28, -0.020, -0.014, 0.972, 15:31:30.308, 1578576690308
133, -187500.02, -181407.56, -187500.02, -187500.02, -187500.02, -187500.02, -187500.02, -187500.02, 0.000, 0.000, 0.000, 15:31:30.308, 1578576690308
134, 187500.00, 187500.00, 187500.00, -26938.70, -184704.86, 21004.43, -185029.30, -184141.22, 0.000, 0.000, 0.000, 15:31:30.308, 1578576690308
135, -187500.02, -181400.27, -187500.02, -187500.02, -187500.02, -187500.02, -187500.02, -187500.02, 0.000, 0.000, 0.000, 15:31:30.308, 1578576690308
136, 187500.00, 187500.00, 187500.00, -26944.22, -184678.33, 21005.81, -184957.44, -184163.44, 0.000, 0.000, 0.000, 15:31:30.308, 1578576690308
137, -187500.02, -181393.31, -187500.02, -187500.02, -187500.02, -187500.02, -187500.02, -187500.02, 0.000, 0.000, 0.000, 15:31:30.308, 1578576690308
138, 187500.00, 187500.00, 187500.00, -26938.28, -184696.33, 21008.58, -184966.69, -184136.59, 0.000, 0.000, 0.000, 15:31:30.308, 1578576690308
139, -187500.02, -181390.50, -187500.02, -187500.02, -187500.02, -187500.02, -187500.02, -187500.02, 0.000, 0.000, 0.000, 15:31:30.308, 1578576690308
140, 187500.00, 187500.00, 187500.00, -26941.18, -184730.03, 21015.22, -185011.31, -184146.27, 0.000, 0.000, 0.000, 15:31:30.308, 1578576690308
141, -187500.02, -181387.39, -187500.02, -187500.02, -187500.02, -187500.02, -187500.02, -187500.02, 0.000, 0.000, 0.000, 15:31:30.308, 1578576690308
142, 187500.00, 187500.00, 187500.00, -26937.38, -184717.61, 21014.08, -185031.31, -184143.19, -0.024, -0.014, 0.976, 15:31:30.308, 1578576690308
143, -187500.02, -181381.19, -187500.02, -187500.02, -187500.02, -187500.02, -187500.02, -187500.02, 0.000, 0.000, 0.000, 15:31:30.308, 1578576690308
144, 187500.00, 187500.00, 187500.00, -26934.10, -184701.36, 21014.06, -185010.52, -184166.08, 0.000, 0.000, 0.000, 15:31:30.309, 1578576690309
145, -187500.02, -181378.50, -187500.02, -187500.02, -187500.02, -187500.02, -187500.02, -187500.02, 0.000, 0.000, 0.000, 15:31:30.309, 1578576690309
146, 187500.00, 187500.00, 187500.00, -26942.35, -184716.63, 21008.85, -185013.42, -184140.59, 0.000, 0.000, 0.000, 15:31:30.309, 1578576690309
147, -187500.02, -181374.34, -187500.02, -187500.02, -187500.02, -187500.02, -187500.02, -187500.02, 0.000, 0.000, 0.000, 15:31:30.309, 1578576690309
148, 187500.00, 187500.00, 187500.00, -26947.57, -184681.42, 21003.64, -184946.11, -184131.70, 0.000, 0.000, 0.000, 15:31:30.309, 1578576690309
149, -187500.02, -181368.39, -187500.02, -187500.02, -187500.02, -187500.02, -187500.02, -187500.02, 0.000, 0.000, 0.000, 15:31:30.309, 1578576690309
150, 187500.00, 187500.00, 187500.00, -26949.61, -184690.80, 21007.78, -184991.77, -184109.55, 0.000, 0.000, 0.000, 15:31:30.309, 1578576690309
151, -187500.02, -181362.36, -187500.02, -187500.02, -187500.02, -187500.02, -187500.02, -187500.02, 0.000, 0.000, 0.000, 15:31:30.309, 1578576690309
152, 187500.00, 187500.00, 187500.00, -26953.07, -184664.19, 21007.29, -184951.20, -184133.27, -0.018, -0.008, 0.980, 15:31:30.309, 1578576690309
153, -187500.02, -181354.52, -187500.02, -187500.02, -187500.02, -187500.02, -187500.02, -187500.02, 0.000, 0.000, 0.000, 15:31:30.309, 1578576690309
154, 187500.00, 187500.00, 187500.00, -26954.73, -184669.48, 21007.62, -184978.16, -184131.86, 0.000, 0.000, 0.000, 15:31:30.309, 1578576690309
155, -187500.02, -181351.34, -187500.02, -187500.02, -187500.02, -187500.02, -187500.02, -187500.02, 0.000, 0.000, 0.000, 15:31:30.309, 1578576690309
156, 187500.00, 187500.00, 187500.00, -26949.83, -184690.83, 21012.27, -185017.98, -184112.05, 0.000, 0.000, 0.000, 15:31:30.309, 1578576690309
157, -187500.02, -181345.80, -187500.02, -187500.02, -187500.02, -187500.02, -187500.02, -187500.02, 0.000, 0.000, 0.000, 15:31:30.309, 1578576690309
158, 187500.00, 187500.00, 187500.00, -26955.67, -184661.20, 21010.26, -184967.27, -184139.08, 0.000, 0.000, 0.000, 15:31:30.309, 1578576690309
159, -187500.02, -181340.69, -187500.02, -187500.02, -187500.02, -187500.02, -187500.02, -187500.02, 0.000, 0.000, 0.000, 15:31:30.309, 1578576690309
160, 187500.00, 187500.00, 187500.00, -26949.07, -184666.27, 21019.67, -184922.64, -184131.00, 0.000, 0.000, 0.000, 15:31:30.309, 1578576690309
161, -187500.02, -181336.59, -187500.02, -187500.02, -187500.02, -187500.02, -187500.02, -187500.02, 0.000, 0.000, 0.000, 15:31:30.309, 1578576690309
162, 187500.00, 187500.00, 187500.00, -26954.77, -184681.06, 21012.88, -184920.36, -184114.75, -0.018, -0.010, 0.976, 15:31:30.309, 1578576690309
163, -187500.02, -181333.77, -187500.02, -187500.02, -187500.02, -187500.02, -187500.02, -187500.02, 0.000, 0.000, 0.000, 15:31:30.309, 1578576690309
164, 187500.00, 187500.00, 187500.00, -26956.18, -184669.64, 21003.62, -184908.67, -184113.33, 0.000, 0.000, 0.000, 15:31:30.309, 1578576690309
165, -187500.02, -181328.25, -187500.02, -187500.02, -187500.02, -187500.02, -187500.02, -187500.02, 0.000, 0.000, 0.000, 15:31:30.309, 1578576690309
166, 187500.00, 187500.00, 187500.00, -26961.34, -184669.44, 21003.15, -184974.69, -184108.11, 0.000, 0.000, 0.000, 15:31:30.310, 1578576690310
167, -187500.02, -181324.36, -187500.02, -187500.02, -187500.02, -187500.02, -187500.02, -187500.02, 0.000, 0.000, 0.000, 15:31:30.310, 1578576690310
168, 187500.00, 187500.00, 187500.00, -26960.76, -184663.11, 21005.05, -184976.59, -184099.67, 0.000, 0.000, 0.000, 15:31:30.310, 1578576690310
169, -187500.02, -181320.70, -187500.02, -187500.02, -187500.02, -187500.02, -187500.02, -187500.02, 0.000, 0.000, 0.000, 15:31:30.310, 1578576690310
170, 187500.00, 187500.00, 187500.00, -26958.79, -184688.70, 21005.72, -185037.64, -184079.48, 0.000, 0.000, 0.000, 15:31:30.310, 1578576690310
171, -187500.02, -181319.30, -187500.02, -187500.02, -187500.02, -187500.02, -187500.02, -187500.02, -0.020, -0.014, 0.972, 15:31:30.310, 1578576690310
172, 187500.00, 187500.00, 187500.00, -26956.76, -184675.72, 21006.08, -185019.05, -184112.30, 0.000, 0.000, 0.000, 15:31:30.310, 1578576690310
173, -187500.02, -181314.19, -187500.02, -187500.02, -187500.02, -187500.02, -187500.02, -187500.02, 0.000, 0.000, 0.000, 15:31:30.310, 1578576690310
174, 187500.00, 187500.00, 187500.00, -26954.30, -184662.42, 21000.29, -184963.81, -184100.61, 0.000, 0.000, 0.000, 15:31:30.310, 1578576690310
175, -187500.02, -181308.31, -187500.02, -187500.02, -187500.02, -187500.02, -187500.02, -187500.02, 0.000, 0.000, 0.000, 15:31:30.310, 1578576690310
176, 187500.00, 187500.00, 187500.00, -26953.30, -184649.83, 20996.58, -184922.25, -184080.20, 0.000, 0.000, 0.000, 15:31:30.310, 1578576690310
177, -187500.02, -181303.33, -187500.02, -187500.02, -187500.02, -187500.02, -187500.02, -187500.02, 0.000, 0.000, 0.000, 15:31:30.310, 1578576690310
178, 187500.00, 187500.00, 187500.00, -26962.71, -184644.78, 20976.24, -184939.31, -184111.88, 0.000, 0.000, 0.000, 15:31:30.310, 1578576690310
179, -187500.02, -181299.06, -187500.02, -187500.02, -187500.02, -187500.02, -187500.02, -187500.02, 0.000, 0.000, 0.000, 15:31:30.310, 1578576690310
180, 187500.00, 187500.00, 187500.00, -26955.53, -184676.39, 20968.82, -184982.53, -184090.84, 0.000, 0.000, 0.000, 15:31:30.310, 1578576690310
181, -187500.02, -181296.92, -187500.02, -187500.02, -187500.02, -187500.02, -187500.02, -187500.02, -0.018, -0.018, 0.972, 15:31:30.310, 1578576690310
182, 187500.00, 187500.00, 187500.00, -26943.80, -184686.94, 20970.61, -184974.88, -184088.89, 0.000, 0.000, 0.000, 15:31:30.310, 1578576690310
183, -187500.02, -181292.02, -187500.02, -187500.02, -187500.02, -187500.02, -187500.02, -187500.02, 0.000, 0.000, 0.000, 15:31:30.310, 1578576690310
184, 187500.00, 187500.00, 187500.00, -26943.44, -184663.02, 20949.17, -184922.61, -184106.02, 0.000, 0.000, 0.000, 15:31:30.310, 1578576690310
185, -187500.02, -181288.80, -187500.02, -187500.02, -187500.02, -187500.02, -187500.02, -187500.02, 0.000, 0.000, 0.000, 15:31:30.310, 1578576690310
186, 187500.00, 187500.00, 187500.00, -26941.00, -184654.69, 20937.77, -184946.17, -184095.16, 0.000, 0.000, 0.000, 15:31:30.311, 1578576690311
187, -187500.02, -181281.81, -187500.02, -187500.02, -187500.02, -187500.02, -187500.02, -187500.02, 0.000, 0.000, 0.000, 15:31:30.311, 1578576690311
188, 187500.00, 187500.00, 187500.00, -26929.94, -184649.52, 20928.34, -184927.53, -184091.05, 0.000, 0.000, 0.000, 15:31:30.311, 1578576690311
189, -187500.02, -181280.64, -187500.02, -187500.02, -187500.02, -187500.02, -187500.02, -187500.02, 0.000, 0.000, 0.000, 15:31:30.311, 1578576690311
190, 187500.00, 187500.00, 187500.00, -26929.38, -184651.33, 20914.48, -184913.19, -184088.69, 0.000, 0.000, 0.000, 15:31:30.311, 1578576690311
191, -187500.02, -181277.61, -187500.02, -187500.02, -187500.02, -187500.02, -187500.02, -187500.02, -0.024, -0.012, 0.974, 15:31:30.311, 1578576690311
192, 187500.00, 187500.00, 187500.00, -26929.20, -184637.36, 20876.93, -184864.64, -184094.64, 0.000, 0.000, 0.000, 15:31:30.311, 1578576690311
193, -187500.02, -181270.36, -187500.02, -187500.02, -187500.02, -187500.02, -187500.02, -187500.02, 0.000, 0.000, 0.000, 15:31:30.311, 1578576690311
194, 187500.00, 187500.00, 187500.00, -26920.44, -184648.20, 20854.94, -184911.39, -184073.89, 0.000, 0.000, 0.000, 15:31:30.311, 1578576690311
195, -187500.02, -181265.63, -187500.02, -187500.02, -187500.02, -187500.02, -187500.02, -187500.02, 0.000, 0.000, 0.000, 15:31:30.311, 1578576690311
196, 187500.00, 187500.00, 187500.00, -26920.42, -184667.69, 20843.94, -184966.80, -184081.27, 0.000, 0.000, 0.000, 15:31:30.311, 1578576690311
197, -187500.02, -181263.97, -187500.02, -187500.02, -187500.02, -187500.02, -187500.02, -187500.02, 0.000, 0.000, 0.000, 15:31:30.311, 1578576690311
198, 187500.00, 187500.00, 187500.00, -26916.95, -184667.09, 20846.49, -184946.48, -184103.69, 0.000, 0.000, 0.000, 15:31:30.311, 1578576690311
199, -187500.02, -181261.33, -187500.02, -187500.02, -187500.02, -187500.02, -187500.02, -187500.02, 0.000, 0.000, 0.000, 15:31:30.311, 1578576690311
200, 187500.00, 187500.00, 187500.00, -26923.39, -184688.05, 20844.50, -184964.50, -184092.16, 0.000, 0.000, 0.000, 15:31:30.311, 1578576690311
201, -187500.02, -181254.33, -187500.02, -187500.02, -187500.02, -187500.02, -187500.02, -187500.02, -0.020, -0.016, 0.978, 15:31:30.311, 1578576690311
202, 187500.00, 187500.00, 187500.00, -26932.51, -184616.97, 20851.81, -184904.39, -184090.17, 0.000, 0.000, 0.000, 15:31:30.311, 1578576690311
203, -187500.02, -181248.84, -187500.02, -187500.02, -187500.02, -187500.02, -187500.02, -187500.02, 0.000, 0.000, 0.000, 15:31:30.311, 1578576690311
204, 187500.00, 187500.00, 187500.00, -26938.68, -184635.59, 20874.88, -184936.25, -184089.97, 0.000, 0.000, 0.000, 15:31:30.311, 1578576690311
205, -187500.02, -181246.80, -187500.02, -187500.02, -187500.02, -187500.02, -187500.02, -187500.02, 0.000, 0.000, 0.000, 15:31:30.311, 1578576690311
206, 187500.00, 187500.00, 187500.00, -26946.64, -184669.55, 20894.68, -184960.77, -184050.47, 0.000, 0.000, 0.000, 15:31:30.311, 1578576690311
207, -187500.02, -181243.30, -187500.02, -187500.02, -187500.02, -187500.02, -187500.02, -187500.02, 0.000, 0.000, 0.000, 15:31:30.311, 1578576690311
208, 187500.00, 187500.00, 187500.00, -26955.04, -184647.33, 20911.98, -184934.53, -184079.89, 0.000, 0.000, 0.000, 15:31:30.312, 1578576690312
209, -187500.02, -181240.14, -187500.02, -187500.02, -187500.02, -187500.02, -187500.02, -187500.02, 0.000, 0.000, 0.000, 15:31:30.312, 1578576690312
210, 187500.00, 187500.00, 187500.00, -26971.63, -184651.47, 20935.52, -184917.63, -184069.47, -0.016, -0.016, 0.978, 15:31:30.312, 1578576690312
211, -187500.02, -181235.89, -187500.02, -187500.02, -187500.02, -187500.02, -187500.02, -187500.02, 0.000, 0.000, 0.000, 15:31:30.312, 1578576690312
212, 187500.00, 187500.00, 187500.00, -26979.22, -184623.95, 20959.45, -184866.94, -184078.48, 0.000, 0.000, 0.000, 15:31:30.312, 1578576690312
213, -187500.02, -181229.48, -187500.02, -187500.02, -187500.02, -187500.02, -187500.02, -187500.02, 0.000, 0.000, 0.000, 15:31:30.312, 1578576690312
214, 187500.00, 187500.00, 187500.00, -26985.19, -184614.55, 20996.42, -184872.70, -184056.86, 0.000, 0.000, 0.000, 15:31:30.312, 1578576690312
215, -187500.02, -181225.50, -187500.02, -187500.02, -187500.02, -187500.02, -187500.02, -187500.02, 0.000, 0.000, 0.000, 15:31:30.312, 1578576690312
216, 187500.00, 187500.00, 187500.00, -26981.30, -184651.52, 21038.00, -184927.36, -184053.67, 0.000, 0.000, 0.000, 15:31:30.312, 1578576690312
217, -187500.02, -181223.48, -187500.02, -187500.02, -187500.02, -187500.02, -187500.02, -187500.02, 0.000, 0.000, 0.000, 15:31:30.312, 1578576690312
218, 187500.00, 187500.00, 187500.00, -27008.53, -184616.70, 21048.90, -184875.25, -184087.94, 0.000, 0.000, 0.000, 15:31:30.312, 1578576690312
219, -187500.02, -181215.44, -187500.02, -187500.02, -187500.02, -187500.02, -187500.02, -187500.02, 0.000, 0.000, 0.000, 15:31:30.312, 1578576690312
220, 187500.00, 187500.00, 187500.00, -27008.86, -184595.66, 21084.45, -184876.30, -184071.73, -0.018, -0.012, 0.978, 15:31:30.312, 1578576690312
221, -187500.02, -181209.83, -187500.02, -187500.02, -187500.02, -187500.02, -187500.02, -187500.02, 0.000, 0.000, 0.000, 15:31:30.312, 1578576690312
222, 187500.00, 187500.00, 187500.00, -27011.61, -184608.77, 21115.47, -184879.72, -184044.86, 0.000, 0.000, 0.000, 15:31:30.312, 1578576690312
223, -187500.02, -181204.69, -187500.02, -187500.02, -187500.02, -187500.02, -187500.02, -187500.02, 0.000, 0.000, 0.000, 15:31:30.312, 1578576690312
224, 187500.00, 187500.00, 187500.00, -27014.63, -184619.33, 21137.37, -184883.70, -184049.64, 0.000, 0.000, 0.000, 15:31:30.312, 1578576690312
225, -187500.02, -181198.92, -187500.02, -187500.02, -187500.02, -187500.02, -187500.02, -187500.02, 0.000, 0.000, 0.000, 15:31:30.313, 1578576690313
226, 187500.00, 187500.00, 187500.00, -27026.03, -184591.34, 21156.66, -184831.08, -184055.09, 0.000, 0.000, 0.000, 15:31:30.313, 1578576690313
227, -187500.02, -181191.19, -187500.02, -187500.02, -187500.02, -187500.02, -187500.02, -187500.02, 0.000, 0.000, 0.000, 15:31:30.785, 1578576690785
228, 187500.00, 187500.00, 187500.00, -27025.83, -184595.61, 21180.15, -184907.22, -184047.23, 0.000, 0.000, 0.000, 15:31:30.786, 1578576690786
229, -187500.02, -181188.83, -187500.02, -187500.02, -187500.02, -187500.02, -187500.02, -187500.02, 0.000, 0.000, 0.000, 15:31:30.786, 1578576690786
230, 187500.00, 187500.00, 187500.00, -27029.67, -184634.13, 21199.38, -184942.80, -184056.48, -0.020, -0.014, 0.984, 15:31:30.786, 1578576690786
231, -187500.02, -181188.00, -187500.02, -187500.02, -187500.02, -187500.02, -187500.02, -187500.02, 0.000, 0.000, 0.000, 15:31:30.786, 1578576690786
232, 187500.00, 187500.00, 187500.00, -27037.76, -184652.81, 21215.96, -184947.00, -184017.88, 0.000, 0.000, 0.000, 15:31:30.786, 1578576690786
233, -187500.02, -181184.78, -187500.02, -187500.02, -187500.02, -187500.02, -187500.02, -187500.02, 0.000, 0.000, 0.000, 15:31:30.786, 1578576690786
234, 187500.00, 187500.00, 187500.00, -27043.73, -184632.25, 21225.62, -184922.91, -184041.53, 0.000, 0.000, 0.000, 15:31:30.786, 1578576690786
235, -187500.02, -181180.80, -187500.02, -187500.02, -187500.02, -187500.02, -187500.02, -187500.02, 0.000, 0.000, 0.000, 15:31:30.786, 1578576690786
236, 187500.00, 187500.00, 187500.00, -27048.94, -184609.78, 21234.38, -184910.56, -184059.53, 0.000, 0.000, 0.000, 15:31:30.786, 1578576690786
237, -187500.02, -181173.91, -187500.02, -187500.02, -187500.02, -187500.02, -187500.02, -187500.02, 0.000, 0.000, 0.000, 15:31:30.786, 1578576690786
238, 187500.00, 187500.00, 187500.00, -27060.03, -184585.14, 21242.43, -184856.70, -184062.55, 0.000, 0.000, 0.000, 15:31:30.786, 1578576690786
239, -187500.02, -181166.67, -187500.02, -187500.02, -187500.02, -187500.02, -187500.02, -187500.02, 0.000, 0.000, 0.000, 15:31:30.786, 1578576690786
240, 187500.00, 187500.00, 187500.00, -27057.90, -184580.56, 21258.59, -184881.08, -184047.20, -0.022, -0.016, 0.984, 15:31:30.786, 1578576690786
241, -187500.02, -181162.11, -187500.02, -187500.02, -187500.02, -187500.02, -187500.02, -187500.02, 0.000, 0.000, 0.000, 15:31:30.787, 1578576690787
242, 187500.00, 187500.00, 187500.00, -27048.27, -184626.08, 21276.71, -184992.64, -184004.27, 0.000, 0.000, 0.000, 15:31:30.787, 1578576690787
243, -187500.02, -181160.81, -187500.02, -187500.02, -187500.02, -187500.02, -187500.02, -187500.02, 0.000, 0.000, 0.000, 15:31:30.787, 1578576690787
244, 187500.00, 187500.00, 187500.00, -27059.76, -184572.94, 21266.01, -184892.06, -184047.56, 0.000, 0.000, 0.000, 15:31:30.787, 1578576690787
245, -187500.02, -181153.91, -187500.02, -187500.02, -187500.02, -187500.02, -187500.02, -187500.02, 0.000, 0.000, 0.000, 15:31:30.787, 1578576690787
246, 187500.00, 187500.00, 187500.00, -27045.41, -184607.91, 21280.04, -184937.45, -184021.70, 0.000, 0.000, 0.000, 15:31:30.787, 1578576690787
247, -187500.02, -181150.72, -187500.02, -187500.02, -187500.02, -187500.02, -187500.02, -187500.02, 0.000, 0.000, 0.000, 15:31:30.787, 1578576690787
248, 187500.00, 187500.00, 187500.00, -27053.99, -184577.17, 21270.59, -184882.14, -184032.19, 0.000, 0.000, 0.000, 15:31:30.787, 1578576690787
249, -187500.02, -181146.02, -187500.02, -187500.02, -187500.02, -187500.02, -187500.02, -187500.02, -0.018, -0.018, 0.974, 15:31:30.787, 1578576690787
250, 187500.00, 187500.00, 187500.00, -27054.42, -184574.38, 21269.74, -184900.64, -184025.84, 0.000, 0.000, 0.000, 15:31:30.787, 1578576690787
251, -187500.02, -181140.08, -187500.02, -187500.02, -187500.02, -187500.02, -187500.02, -187500.02, 0.000, 0.000, 0.000, 15:31:30.787, 1578576690787
252, 187500.00, 187500.00, 187500.00, -27045.59, -184572.47, 21271.24, -184869.75, -184032.66, 0.000, 0.000, 0.000, 15:31:30.787, 1578576690787
253, -187500.02, -181135.88, -187500.02, -187500.02, -187500.02, -187500.02, -187500.02, -187500.02, 0.000, 0.000, 0.000, 15:31:30.787, 1578576690787
254, 187500.00, 187500.00, 187500.00, -27049.01, -184567.94, 21262.01, -184853.80, -184039.92, 0.000, 0.000, 0.000, 15:31:30.787, 1578576690787
255, -187500.02, -181128.19, -187500.02, -187500.02, -187500.02, -187500.02, -187500.02, -187500.02, 0.000, 0.000, 0.000, 15:31:30.787, 1578576690787
0, 187500.00, 187500.00, 187500.00, -27047.09, -184570.23, 21265.20, -184830.69, -184033.53, 0.000, 0.000, 0.000, 15:31:30.787, 1578576690787
1, -187500.02, -181124.52, -187500.02, -187500.02, -187500.02, -187500.02, -187500.02, -187500.02, 0.000, 0.000, 0.000, 15:31:30.787, 1578576690787
2, 187500.00, 187500.00, 187500.00, -27052.61, -184593.70, 21257.58, -184832.88, -184010.55, 0.000, 0.000, 0.000, 15:31:30.788, 1578576690788
3, -187500.02, -181121.95, -187500.02, -187500.02, -187500.02, -187500.02, -187500.02, -187500.02, -0.020, -0.018, 0.978, 15:31:30.788, 1578576690788
4, 187500.00, 187500.00, 187500.00, -27052.07, -184604.92, 21260.22, -184869.28, -184015.20, 0.000, 0.000, 0.000, 15:31:30.788, 1578576690788
5, -187500.02, -181120.09, -187500.02, -187500.02, -187500.02, -187500.02, -187500.02, -187500.02, 0.000, 0.000, 0.000, 15:31:30.788, 1578576690788
6, 187500.00, 187500.00, 187500.00, -27052.70, -184629.69, 21261.13, -184890.53, -184005.64, 0.000, 0.000, 0.000, 15:31:30.788, 1578576690788
7, -187500.02, -181119.58, -187500.02, -187500.02, -187500.02, -187500.02, -187500.02, -187500.02, 0.000, 0.000, 0.000, 15:31:30.788, 1578576690788
8, 187500.00, 187500.00, 187500.00, -27055.24, -184620.69, 21257.34, -184871.14, -184000.14, 0.000, 0.000, 0.000, 15:31:30.788, 1578576690788
9, -187500.02, -181111.47, -187500.02, -187500.02, -187500.02, -187500.02, -187500.02, -187500.02, 0.000, 0.000, 0.000, 15:31:30.788, 1578576690788
10, 187500.00, 187500.00, 187500.00, -27053.05, -184577.77, 21257.42, -184848.34, -184016.77, 0.000, 0.000, 0.000, 15:31:30.788, 1578576690788
11, -187500.02, -181109.45, -187500.02, -187500.02, -187500.02, -187500.02, -187500.02, -187500.02, 0.000, 0.000, 0.000, 15:31:30.788, 1578576690788
12, 187500.00, 187500.00, 187500.00, -27056.32, -184564.73, 21240.88, -184844.67, -184023.14, 0.000, 0.000, 0.000, 15:31:30.788, 1578576690788
13, -187500.02, -181105.42, -187500.02, -187500.02, -187500.02, -187500.02, -187500.02, -187500.02, -0.022, -0.010, 0.976, 15:31:30.788, 1578576690788
14, 187500.00, 187500.00, 187500.00, -27044.47, -184572.16, 21242.79, -184881.39, -183998.84, 0.000, 0.000, 0.000, 15:31:30.788, 1578576690788
15, -187500.02, -181102.97, -187500.02, -187500.02, -187500.02, -187500.02, -187500.02, -187500.02, 0.000, 0.000, 0.000, 15:31:30.789, 1578576690789
16, 187500.00, 187500.00, 187500.00, -27048.61, -184585.86, 21228.57, -184898.56, -184011.42, 0.000, 0.000, 0.000, 15:31:30.789, 1578576690789
17, -187500.02, -181099.44, -187500.02, -187500.02, -187500.02, -187500.02, -187500.02, -187500.02, 0.000, 0.000, 0.000, 15:31:30.789, 1578576690789
18, 187500.00, 187500.00, 187500.00, -27046.64, -184574.03, 21228.43, -184848.36, -184023.31, 0.000, 0.000, 0.000, 15:31:30.789, 1578576690789
19, -187500.02, -181096.84, -187500.02, -187500.02, -187500.02, -187500.02, -187500.02, -187500.02, 0.000, 0.000, 0.000, 15:31:30.789, 1578576690789
20, 187500.00, 187500.00, 187500.00, -27049.72, -184579.11, 21227.47, -184829.05, -184002.73, 0.000, 0.000, 0.000, 15:31:30.789, 1578576690789
21, -187500.02, -181093.67, -187500.02, -187500.02, -187500.02, -187500.02, -187500.02, -187500.02, 0.000, 0.000, 0.000, 15:31:30.789, 1578576690789
22, 187500.00, 187500.00, 187500.00, -27044.13, -184591.56, 21228.14, -184867.16, -183995.31, 0.000, 0.000, 0.000, 15:31:30.789, 1578576690789
23, -187500.02, -181089.84, -187500.02, -187500.02, -187500.02, -187500.02, -187500.02, -187500.02, -0.018, -0.008, 0.984, 15:31:30.789, 1578576690789
24, 187500.00, 187500.00, 187500.00, -27045.28, -184549.14, 21224.54, -184799.92, -184017.84, 0.000, 0.000, 0.000, 15:31:30.789, 1578576690789
25, -187500.02, -181083.83, -187500.02, -187500.02, -187500.02, -187500.02, -187500.02, -187500.02, 0.000, 0.000, 0.000, 15:31:30.789, 1578576690789
26, 187500.00, 187500.00, 187500.00, -27043.53, -184577.66, 21224.79, -184868.33, -183989.63, 0.000, 0.000, 0.000, 15:31:30.789, 1578576690789
27, -187500.02, -181082.05, -187500.02, -187500.02, -187500.02, -187500.02, -187500.02, -187500.02, 0.000, 0.000, 0.000, 15:31:30.790, 1578576690790
28, 187500.00, 187500.00, 187500.00, -27046.39, -184583.63, 21219.22, -184867.72, -183987.55, 0.000, 0.000, 0.000, 15:31:30.790, 1578576690790
29, -187500.02, -181076.75, -187500.02, -187500.02, -187500.02, -187500.02, -187500.02, -187500.02, 0.000, 0.000, 0.000, 15:31:30.790, 1578576690790
30, 187500.00, 187500.00, 187500.00, -27047.89, -184551.89, 21217.97, -184809.69, -184017.66, 0.000, 0.000, 0.000, 15:31:30.790, 1578576690790
31, -187500.02, -181070.52, -187500.02, -187500.02, -187500.02, -187500.02, -187500.02, -187500.02, 0.000, 0.000, 0.000, 15:31:30.790, 1578576690790
32, 187500.00, 187500.00, 187500.00, -27053.63, -184546.72, 21211.96, -184792.64, -184000.98, -0.020, -0.008, 0.982, 15:31:30.790, 1578576690790
33, -187500.02, -181067.92, -187500.02, -187500.02, -187500.02, -187500.02, -187500.02, -187500.02, 0.000, 0.000, 0.000, 15:31:30.790, 1578576690790
34, 187500.00, 187500.00, 187500.00, -27048.83, -184579.30, 21220.16, -184862.89, -183971.77, 0.000, 0.000, 0.000, 15:31:30.790, 1578576690790
35, -187500.02, -181064.22, -187500.02, -187500.02, -187500.02, -187500.02, -187500.02, -187500.02, 0.000, 0.000, 0.000, 15:31:30.790, 1578576690790
36, 187500.00, 187500.00, 187500.00, -27049.72, -184559.42, 21220.83, -184827.55, -183996.88, 0.000, 0.000, 0.000, 15:31:30.790, 1578576690790
37, -187500.02, -181061.31, -187500.02, -187500.02, -187500.02, -187500.02, -187500.02, -187500.02, 0.000, 0.000, 0.000, 15:31:30.790, 1578576690790
38, 187500.00, 187500.00, 187500.00, -27052.00, -184560.11, 21220.54, -184870.52, -183989.47, 0.000, 0.000, 0.000, 15:31:30.790, 1578576690790
39, -187500.02, -181059.45, -187500.02, -187500.02, -187500.02, -187500.02, -187500.02, -187500.02, 0.000, 0.000, 0.000, 15:31:30.790, 1578576690790
40, 187500.00, 187500.00, 187500.00, -27052.14, -184600.56, 21230.31, -184894.47, -183974.66, 0.000, 0.000, 0.000, 15:31:30.790, 1578576690790
41, -187500.02, -181058.94, -187500.02, -187500.02, -187500.02, -187500.02, -187500.02, -187500.02, 0.000, 0.000, 0.000, 15:31:30.790, 1578576690790
42, 187500.00, 187500.00, 187500.00, -27045.83, -184607.56, 21229.60, -184888.61, -183977.31, -0.018, -0.010, 0.976, 15:31:30.790, 1578576690790
43, -187500.02, -181055.78, -187500.02, -187500.02, -187500.02, -187500.02, -187500.02, -187500.02, 0.000, 0.000, 0.000, 15:31:30.790, 1578576690790
44, 187500.00, 187500.00, 187500.00, -27044.67, -184578.98, 21228.99, -184851.73, -183987.94, 0.000, 0.000, 0.000, 15:31:30.791, 1578576690791
45, -187500.02, -181052.92, -187500.02, -187500.02, -187500.02, -187500.02, -187500.02, -187500.02, 0.000, 0.000, 0.000, 15:31:30.791, 1578576690791
46, 187500.00, 187500.00, 187500.00, -27052.96, -184583.69, 21227.41, -184851.58, -183985.55, 0.000, 0.000, 0.000, 15:31:30.791, 1578576690791
47, -187500.02, -181048.41, -187500.02, -187500.02, -187500.02, -187500.02, -187500.02, -187500.02, 0.000, 0.000, 0.000, 15:31:30.791, 1578576690791
48, 187500.00, 187500.00, 187500.00, -27051.69, -184574.48, 21226.06, -184829.27, -183978.41, 0.000, 0.000, 0.000, 15:31:30.791, 1578576690791
49, -187500.02, -181044.66, -187500.02, -187500.02, -187500.02, -187500.02, -187500.02, -187500.02, 0.000, 0.000, 0.000, 15:31:30.791, 1578576690791
50, 187500.00, 187500.00, 187500.00, -27050.26, -184513.33, 21219.65, -184758.19, -184010.13, 0.000, 0.000, 0.000, 15:31:30.791, 1578576690791
51, -187500.02, -181035.36, -187500.02, -187500.02, -187500.02, -187500.02, -187500.02, -187500.02, 0.000, 0.000, 0.000, 15:31:30.791, 1578576690791
52, 187500.00, 187500.00, 187500.00, -27036.76, -184531.70, 21236.88, -184833.94, -183988.83, -0.022, -0.014, 0.970, 15:31:30.791, 1578576690791
53, -187500.02, -181033.36, -187500.02, -187500.02, -187500.02, -187500.02, -187500.02, -187500.02, 0.000, 0.000, 0.000, 15:31:30.791, 1578576690791
54, 187500.00, 187500.00, 187500.00, -27053.61, -184566.30, 21221.51, -184887.36, -183971.59, 0.000, 0.000, 0.000, 15:31:30.791, 1578576690791
55, -187500.02, -181029.52, -187500.02, -187500.02, -187500.02, -187500.02, -187500.02, -187500.02, 0.000, 0.000, 0.000, 15:31:30.791, 1578576690791
56, 187500.00, 187500.00, 187500.00, -27052.31, -184562.91, 21218.20, -184853.97, -183982.56, 0.000, 0.000, 0.000, 15:31:30.791, 1578576690791
57, -187500.02, -181027.94, -187500.02, -187500.02, -187500.02, -187500.02, -187500.02, -187500.02, 0.000, 0.000, 0.000, 15:31:30.791, 1578576690791
58, 187500.00, 187500.00, 187500.00, -27045.56, -184586.98, 21222.29, -184864.41, -183960.13, 0.000, 0.000, 0.000, 15:31:30.791, 1578576690791
59, -187500.02, -181023.63, -187500.02, -187500.02, -187500.02, -187500.02, -187500.02, -187500.02, 0.000, 0.000, 0.000, 15:31:30.791, 1578576690791
60, 187500.00, 187500.00, 187500.00, -27062.44, -184529.72, 21222.89, -184815.23, -183978.23, 0.000, 0.000, 0.000, 15:31:30.791, 1578576690791
61, -187500.02, -181020.17, -187500.02, -187500.02, -187500.02, -187500.02, -187500.02, -187500.02, 0.000, 0.000, 0.000, 15:31:30.791, 1578576690791
62, 187500.00, 187500.00, 187500.00, -27045.52, -184579.63, 21226.98, -184908.20, -183968.19, -0.024, -0.010, 0.972, 15:31:30.791, 1578576690791
63, -187500.02, -181019.59, -187500.02, -187500.02, -187500.02, -187500.02, -187500.02, -187500.02, 0.000, 0.000, 0.000, 15:31:30.792, 1578576690792
64, 187500.00, 187500.00, 187500.00, -27044.80, -184545.67, 21219.00, -184850.91, -183977.56, 0.000, 0.000, 0.000, 15:31:30.792, 1578576690792
65, -187500.02, -181013.66, -187500.02, -187500.02, -187500.02, -187500.02, -187500.02, -187500.02, 0.000, 0.000, 0.000, 15:31:30.792, 1578576690792
66, 187500.00, 187500.00, 187500.00, -27084.88, -184515.31, 21220.52, -184775.73, -183999.84, 0.000, 0.000, 0.000, 15:31:30.792, 1578576690792
67, -187500.02, -181009.19, -187500.02, -187500.02, -187500.02, -187500.02, -187500.02, -187500.02, 0.000, 0.000, 0.000, 15:31:30.792, 1578576690792
68, 187500.00, 187500.00, 187500.00, -27072.79, -184534.75, 21211.74, -184813.92, -183980.88, 0.000, 0.000, 0.000, 15:31:30.792, 1578576690792
69, -187500.02, -181009.50, -187500.02, -187500.02, -187500.02, -187500.02, -187500.02, -187500.02, 0.000, 0.000, 0.000, 15:31:30.792, 1578576690792
70, 187500.00, 187500.00, 187500.00, -27056.00, -184574.89, 21209.95, -184877.38, -183956.64, 0.000, 0.000, 0.000, 15:31:30.792, 1578576690792
71, -187500.02, -181006.34, -187500.02, -187500.02, -187500.02, -187500.02, -187500.02, -187500.02, -0.022, -0.014, 0.966, 15:31:30.792, 1578576690792
72, 187500.00, 187500.00, 187500.00, -27083.25, -184516.69, 21210.87, -184803.66, -183996.53, 0.000, 0.000, 0.000, 15:31:30.792, 1578576690792
73, -187500.02, -181001.00, -187500.02, -187500.02, -187500.02, -187500.02, -187497.48, -187500.02, 0.000, 0.000, 0.000, 15:31:30.792, 1578576690792
74, 187500.00, 187500.00, 187500.00, -27074.98, -184511.75, 21206.42, -184766.20, -183969.22, 0.000, 0.000, 0.000, 15:31:30.792, 1578576690792
75, -187500.02, -180995.53, -187500.02, -187500.02, -187500.02, -187500.02, -187491.66, -187500.02, 0.000, 0.000, 0.000, 15:31:30.792, 1578576690792
76, 187500.00, 187500.00, 187500.00, -27097.58, -184528.67, 21195.67, -184797.98, -183966.77, 0.000, 0.000, 0.000, 15:31:30.792, 1578576690792
77, -187500.02, -180992.86, -187500.02, -187500.02, -187500.02, -187500.02, -187488.91, -187500.02, 0.000, 0.000, 0.000, 15:31:30.793, 1578576690793
78, 187500.00, 187500.00, 187500.00, -27098.11, -184531.91, 21191.02, -184802.27, -183962.03, 0.000, 0.000, 0.000, 15:31:30.793, 1578576690793
79, -187500.02, -180986.22, -187500.02, -187500.02, -187500.02, -187500.02, -187482.00, -187500.02, 0.000, 0.000, 0.000, 15:31:30.793, 1578576690793
80, 187500.00, 187500.00, 187500.00, -27122.63, -184497.13, 21179.78, -184762.27, -183969.80, 0.000, 0.000, 0.000, 15:31:30.793, 1578576690793
81, -187500.02, -180979.88, -187500.02, -187500.02, -187500.02, -187500.02, -187475.30, -187500.02, -0.020, -0.014, 0.966, 15:31:30.793, 1578576690793
82, 187500.00, 187500.00, 187500.00, -27119.21, -184526.36, 21172.67, -184788.06, -183931.94, 0.000, 0.000, 0.000, 15:31:30.793, 1578576690793
83, -187500.02, -180978.61, -187500.02, -187500.02, -187500.02, -187500.02, -187473.91, -187500.02, 0.000, 0.000, 0.000, 15:31:30.793, 1578576690793
84, 187500.00, 187500.00, 187500.00, -27128.51, -184527.48, 21163.08, -184800.44, -183949.94, 0.000, 0.000, 0.000, 15:31:30.793, 1578576690793
85, -187500.02, -180973.98, -187500.02, -187500.02, -187500.02, -187500.02, -187468.92, -187500.02, 0.000, 0.000, 0.000, 15:31:30.793, 1578576690793
86, 187500.00, 187500.00, 187500.00, -27126.90, -184537.25, 21174.34, -184809.20, -183956.22, 0.000, 0.000, 0.000, 15:31:30.793, 1578576690793
87, -187500.02, -180972.03, -187500.02, -187500.02, -187500.02, -187500.02, -187466.78, -187500.02, 0.000, 0.000, 0.000, 15:31:30.793, 1578576690793
88, 187500.00, 187500.00, 187500.00, -27128.51, -184549.73, 21171.86, -184834.48, -183936.95, 0.000, 0.000, 0.000, 15:31:30.793, 1578576690793
89, -187500.02, -180965.34, -187500.02, -187500.02, -187500.02, -187500.02, -187459.69, -187500.02, 0.000, 0.000, 0.000, 15:31:30.794, 1578576690794
90, 187500.00, 187500.00, 187500.00, -27151.87, -184509.20, 21160.69, -184764.19, -183974.67, 0.000, 0.000, 0.000, 15:31:30.794, 1578576690794
91, -187500.02, -180960.25, -187500.02, -187500.02, -187500.02, -187500.02, -187454.34, -187500.02, -0.020, -0.012, 0.976, 15:31:31.267, 1578576691267
92, 187500.00, 187500.00, 187500.00, -27123.75, -184508.91, 21171.46, -184741.31, -183955.36, 0.000, 0.000, 0.000, 15:31:31.267, 1578576691267
93, -187500.02, -180955.11, -187500.02, -187500.02, -187500.02, -187500.02, -187448.97, -187500.02, 0.000, 0.000, 0.000, 15:31:31.267, 1578576691267
94, 187500.00, 187500.00, 187500.00, -27071.40, -184510.78, 21182.79, -184790.27, -183953.00, 0.000, 0.000, 0.000, 15:31:31.267, 1578576691267
95, -187500.02, -180951.64, -187500.02, -187500.02, -187500.02, -187500.02, -187445.44, -187500.02, 0.000, 0.000, 0.000, 15:31:31.267, 1578576691267
96, 187500.00, 187500.00, 187500.00, -27126.77, -184542.23, 21178.10, -184842.13, -183944.50, 0.000, 0.000, 0.000, 15:31:31.267, 1578576691267
97, -187500.02, -180949.02, -187500.02, -187500.02, -187500.02, -187500.02, -187442.42, -187500.02, 0.000, 0.000, 0.000, 15:31:31.267, 1578576691267
98, 187500.00, 187500.00, 187500.00, -27148.03, -184549.08, 21158.27, -184843.69, -183950.67, 0.000, 0.000, 0.000, 15:31:31.267, 1578576691267
99, -187500.02, -180942.53, -187500.02, -187500.02, -187500.02, -187500.02, -187435.73, -187500.02, 0.000, 0.000, 0.000, 15:31:31.267, 1578576691267
100, 187500.00, 187500.00, 187500.00, -27079.90, -184519.92, 21187.46, -184798.88, -183951.63, 0.000, 0.000, 0.000, 15:31:31.267, 1578576691267
101, -187500.02, -180939.91, -187500.02, -187500.02, -187500.02, -187500.02, -187432.95, -187500.02, -0.028, -0.012, 0.968, 15:31:31.268, 1578576691268
102, 187500.00, 187500.00, 187500.00, -27140.89, -184501.27, 21167.01, -184769.53, -183943.03, 0.000, 0.000, 0.000, 15:31:31.268, 1578576691268
103, -187500.02, -180934.19, -187500.02, -187500.02, -187500.02, -187500.02, -187427.13, -187500.02, 0.000, 0.000, 0.000, 15:31:31.268, 1578576691268
104, 187500.00, 187500.00, 187500.00, -27110.25, -184479.52, 21172.18, -184747.84, -183933.89, 0.000, 0.000, 0.000, 15:31:31.268, 1578576691268
105, -187500.02, -180928.25, -187500.02, -187500.02, -187500.02, -187500.02, -187420.80, -187500.02, 0.000, 0.000, 0.000, 15:31:31.268, 1578576691268
106, 187500.00, 187500.00, 187500.00, -27088.66, -184498.89, 21179.69, -184807.45, -183940.80, 0.000, 0.000, 0.000, 15:31:31.268, 1578576691268
107, -187500.02, -180925.25, -187500.02, -187500.02, -187500.02, -187500.02, -187417.47, -187500.02, 0.000, 0.000, 0.000, 15:31:31.268, 1578576691268
108, 187500.00, 187500.00, 187500.00, -27139.33, -184505.38, 21164.42, -184791.86, -183921.23, 0.000, 0.000, 0.000, 15:31:31.268, 1578576691268
109, -187500.02, -180920.02, -187500.02, -187500.02, -187500.02, -187500.02, -187412.02, -187500.02, 0.000, 0.000, 0.000, 15:31:31.268, 1578576691268
110, 187500.00, 187500.00, 187500.00, -27097.76, -184510.97, 21182.95, -184805.69, -183921.39, 0.000, 0.000, 0.000, 15:31:31.268, 1578576691268
111, -187500.02, -180917.67, -187500.02, -187500.02, -187500.02, -187500.02, -187409.42, -187500.02, -0.024, -0.014, 0.972, 15:31:31.268, 1578576691268
112, 187500.00, 187500.00, 187500.00, -27104.75, -184524.28, 21186.75, -184855.77, -183934.80, 0.000, 0.000, 0.000, 15:31:31.269, 1578576691269
113, -187500.02, -180915.95, -187500.02, -187500.02, -187500.02, -187500.02, -187407.41, -187500.02, 0.000, 0.000, 0.000, 15:31:31.269, 1578576691269
114, 187500.00, 187500.00, 187500.00, -27112.22, -184519.75, 21186.57, -184815.97, -183940.05, 0.000, 0.000, 0.000, 15:31:31.269, 1578576691269
115, -187500.02, -180912.67, -187500.02, -187500.02, -187500.02, -187500.02, -187403.92, -187500.02, 0.000, 0.000, 0.000, 15:31:31.269, 1578576691269
116, 187500.00, 187500.00, 187500.00, -27140.36, -184498.25, 21186.01, -184785.67, -183918.69, 0.000, 0.000, 0.000, 15:31:31.269, 1578576691269
117, -187500.02, -180905.98, -187500.02, -187500.02, -187500.02, -187500.02, -187396.84, -187500.02, 0.000, 0.000, 0.000, 15:31:31.269, 1578576691269
118, 187500.00, 187500.00, 187500.00, -27147.15, -184464.27, 21184.33, -184731.64, -183935.16, 0.000, 0.000, 0.000, 15:31:31.269, 1578576691269
119, -187500.02, -180899.80, -187500.02, -187500.02, -187500.02, -187500.02, -187390.52, -187500.02, 0.000, 0.000, 0.000, 15:31:31.269, 1578576691269
120, 187500.00, 187500.00, 187500.00, -27122.32, -184501.16, 21201.63, -184834.64, -183902.28, -0.016, -0.016, 0.982, 15:31:31.269, 1578576691269
121, -187500.02, -180897.36, -187500.02, -187500.02, -187500.02, -187500.02, -187387.78, -187500.02, 0.000, 0.000, 0.000, 15:31:31.269, 1578576691269
122, 187500.00, 187500.00, 187500.00, -27157.32, -184487.69, 21194.79, -184808.91, -183920.00, 0.000, 0.000, 0.000, 15:31:31.269, 1578576691269
123, -187500.02, -180893.22, -187500.02, -187500.02, -187500.02, -187500.02, -187383.47, -187500.02, 0.000, 0.000, 0.000, 15:31:31.270, 1578576691270
124, 187500.00, 187500.00, 187500.00, -27126.34, -184476.67, 21206.06, -184768.91, -183906.50, 0.000, 0.000, 0.000, 15:31:31.270, 1578576691270
125, -187500.02, -180887.36, -187500.02, -187500.02, -187500.02, -187500.02, -187377.39, -187500.02, 0.000, 0.000, 0.000, 15:31:31.270, 1578576691270
126, 187500.00, 187500.00, 187500.00, -27146.53, -184478.50, 21206.62, -184777.97, -183927.73, 0.000, 0.000, 0.000, 15:31:31.270, 1578576691270
127, -187500.02, -180885.02, -187500.02, -187500.02, -187500.02, -187500.02, -187374.67, -187500.02, 0.000, 0.000, 0.000, 15:31:31.270, 1578576691270
128, 187500.00, 187500.00, 187500.00, -27126.63, -184500.66, 21190.73, -184808.06, -183908.34, 0.000, 0.000, 0.000, 15:31:31.270, 1578576691270
129, -187500.02, -180880.84, -187500.02, -187500.02, -187500.02, -187500.02, -187370.31, -187500.02, 0.000, 0.000, 0.000, 15:31:31.270, 1578576691270
130, 187500.00, 187500.00, 187500.00, -27150.64, -184464.67, 21199.89, -184740.06, -183919.05, -0.022, -0.012, 0.976, 15:31:31.270, 1578576691270
131, -187500.02, -180875.03, -187500.02, -187500.02, -187500.02, -187500.02, -187364.11, -187500.02, 0.000, 0.000, 0.000, 15:31:31.270, 1578576691270
132, 187500.00, 187500.00, 187500.00, -27152.67, -184493.58, 21198.01, -184808.69, -183895.89, 0.000, 0.000, 0.000, 15:31:31.271, 1578576691271
133, -187500.02, -180871.34, -187500.02, -187500.02, -187500.02, -187500.02, -187360.23, -187500.02, 0.000, 0.000, 0.000, 15:31:31.271, 1578576691271
134, 187500.00, 187500.00, 187500.00, -27159.83, -184473.83, 21205.99, -184788.45, -183917.13, 0.000, 0.000, 0.000, 15:31:31.271, 1578576691271
135, -187500.02, -180867.42, -187500.02, -187500.02, -187500.02, -187500.02, -187356.05, -187500.02, 0.000, 0.000, 0.000, 15:31:31.271, 1578576691271
136, 187500.00, 187500.00, 187500.00, -27156.43, -184462.03, 21201.63, -184744.34, -183906.06, 0.000, 0.000, 0.000, 15:31:31.271, 1578576691271
137, -187500.02, -180863.77, -187500.02, -187500.02, -187500.02, -187500.02, -187352.19, -187500.02, 0.000, 0.000, 0.000, 15:31:31.271, 1578576691271
138, 187500.00, 187500.00, 187500.00, -27173.04, -184464.63, 21205.66, -184730.13, -183889.00, 0.000, 0.000, 0.000, 15:31:31.271, 1578576691271
139, -187500.02, -180859.83, -187500.02, -187500.02, -187500.02, -187500.02, -187347.95, -187500.02, 0.000, 0.000, 0.000, 15:31:31.271, 1578576691271
140, 187500.00, 187500.00, 187500.00, -27154.20, -184466.81, 21213.82, -184755.52, -183903.48, -0.020, -0.010, 0.978, 15:31:31.271, 1578576691271
141, -187500.02, -180856.88, -187500.02, -187500.02, -187500.02, -187500.02, -187344.72, -187500.02, 0.000, 0.000, 0.000, 15:31:31.271, 1578576691271
142, 187500.00, 187500.00, 187500.00, -27170.00, -184445.09, 21196.87, -184712.89, -183921.53, 0.000, 0.000, 0.000, 15:31:31.271, 1578576691271
143, -187500.02, -180851.38, -187500.02, -187500.02, -187500.02, -187500.02, -187339.00, -187500.02, 0.000, 0.000, 0.000, 15:31:31.271, 1578576691271
144, 187500.00, 187500.00, 187500.00, -27147.65, -184466.23, 21224.08, -184788.38, -183899.34, 0.000, 0.000, 0.000, 15:31:31.272, 1578576691272
145, -187500.02, -180844.83, -187500.02, -187500.02, -187500.02, -187500.02, -187332.27, -187500.02, 0.000, 0.000, 0.000, 15:31:31.272, 1578576691272
146, 187500.00, 187500.00, 187500.00, -27169.88, -184461.72, 21218.60, -184742.53, -183894.72, 0.000, 0.000, 0.000, 15:31:31.272, 1578576691272
147, -187500.02, -180840.38, -187500.02, -187500.02, -187500.02, -187500.02, -187327.48, -187500.02, 0.000, 0.000, 0.000, 15:31:31.272, 1578576691272
148, 187500.00, 187500.00, 187500.00, -27167.92, -184463.55, 21228.95, -184727.38, -183888.48, 0.000, 0.000, 0.000, 15:31:31.272, 1578576691272
149, -187500.02, -180837.19, -187500.02, -187500.02, -187500.02, -187500.02, -187324.17, -187500.02, 0.000, 0.000, 0.000, 15:31:31.272, 1578576691272
150, 187500.00, 187500.00, 187500.00, -27145.77, -184437.16, 21229.91, -184692.50, -183881.17, -0.020, -0.014, 0.980, 15:31:31.272, 1578576691272
151, -187500.02, -180831.08, -187500.02, -187500.02, -187500.02, -187500.02, -187317.73, -187500.02, 0.000, 0.000, 0.000, 15:31:31.272, 1578576691272
152, 187500.00, 187500.00, 187500.00, -27152.94, -184461.75, 21224.43, -184744.45, -183881.41, 0.000, 0.000, 0.000, 15:31:31.272, 1578576691272
153, -187500.02, -180829.55, -187500.02, -187500.02, -187500.02, -187500.02, -187316.00, -187500.02, 0.000, 0.000, 0.000, 15:31:31.272, 1578576691272
154, 187500.00, 187500.00, 187500.00, -27147.06, -184446.67, 21229.13, -184711.39, -183883.73, 0.000, 0.000, 0.000, 15:31:31.272, 1578576691272
155, -187500.02, -180824.22, -187500.02, -187500.02, -187500.02, -187500.02, -187310.55, -187500.02, 0.000, 0.000, 0.000, 15:31:31.272, 1578576691272
156, 187500.00, 187500.00, 187500.00, -27153.52, -184451.44, 21224.81, -184751.75, -183890.56, 0.000, 0.000, 0.000, 15:31:31.272, 1578576691272
157, -187500.02, -180819.28, -187500.02, -187500.02, -187500.02, -187500.02, -187305.22, -187500.02, 0.000, 0.000, 0.000, 15:31:31.272, 1578576691272
158, 187500.00, 187500.00, 187500.00, -27162.02, -184443.48, 21215.87, -184741.52, -183900.09, 0.000, 0.000, 0.000, 15:31:31.273, 1578576691273
159, -187500.02, -180812.80, -187500.02, -187500.02, -187500.02, -187500.02, -187298.52, -187500.02, -0.018, -0.012, 0.978, 15:31:31.273, 1578576691273
160, 187500.00, 187500.00, 187500.00, -27142.24, -184434.56, 21232.64, -184720.95, -183907.22, 0.000, 0.000, 0.000, 15:31:31.273, 1578576691273
161, -187500.02, -180810.03, -187500.02, -187500.02, -187500.02, -187500.02, -187295.47, -187500.02, 0.000, 0.000, 0.000, 15:31:31.273, 1578576691273
162, 187500.00, 187500.00, 187500.00, -27167.25, -184444.06, 21226.45, -184732.38, -183891.84, 0.000, 0.000, 0.000, 15:31:31.273, 1578576691273
163, -187500.02, -180804.69, -187500.02, -187500.02, -187500.02, -187500.02, -187289.94, -187500.02, 0.000, 0.000, 0.000, 15:31:31.273, 1578576691273
164, 187500.00, 187500.00, 187500.00, -27156.38, -184434.11, 21229.44, -184704.61, -183875.19, 0.000, 0.000, 0.000, 15:31:31.273, 1578576691273
165, -187500.02, -180798.34, -187500.02, -187500.02, -187500.02, -187500.02, -187283.45, -187500.02, 0.000, 0.000, 0.000, 15:31:31.273, 1578576691273
166, 187500.00, 187500.00, 187500.00, -27145.03, -184434.91, 21229.13, -184683.67, -183876.48, 0.000, 0.000, 0.000, 15:31:31.273, 1578576691273
167, -187500.02, -180792.33, -187500.02, -187500.02, -187500.02, -187500.02, -187277.23, -187500.02, 0.000, 0.000, 0.000, 15:31:31.273, 1578576691273
168, 187500.00, 187500.00, 187500.00, -27174.98, -184428.33, 21230.94, -184689.42, -183862.92, 0.000, 0.000, 0.000, 15:31:31.273, 1578576691273
169, -187500.02, -180789.28, -187500.02, -187500.02, -187500.02, -187500.02, -187273.91, -187500.02, -0.026, -0.014, 0.974, 15:31:31.273, 1578576691273
170, 187500.00, 187500.00, 187500.00, -27151.45, -184451.08, 21240.82, -184745.56, -183852.48, 0.000, 0.000, 0.000, 15:31:31.273, 1578576691273
171, -187500.02, -180786.52, -187500.02, -187500.02, -187500.02, -187500.02, -187271.02, -187500.02, 0.000, 0.000, 0.000, 15:31:31.273, 1578576691273
172, 187500.00, 187500.00, 187500.00, -27140.16, -184426.97, 21239.79, -184698.52, -183880.52, 0.000, 0.000, 0.000, 15:31:31.274, 1578576691274
173, -187500.02, -180781.27, -187500.02, -187500.02, -187500.02, -187500.02, -187265.50, -187500.02, 0.000, 0.000, 0.000, 15:31:31.274, 1578576691274
174, 187500.00, 187500.00, 187500.00, -27152.54, -184424.66, 21241.11, -184695.28, -183851.86, 0.000, 0.000, 0.000, 15:31:31.274, 1578576691274
175, -187500.02, -180777.73, -187500.02, -187500.02, -187500.02, -187500.02, -187261.61, -187500.02, 0.000, 0.000, 0.000, 15:31:31.274, 1578576691274
176, 187500.00, 187500.00, 187500.00, -27145.86, -184411.11, 21249.87, -184680.45, -183867.77, 0.000, 0.000, 0.000, 15:31:31.274, 1578576691274
177, -187500.02, -180774.48, -187500.02, -187500.02, -187500.02, -187500.02, -187258.22, -187500.02, 0.000, 0.000, 0.000, 15:31:31.274, 1578576691274
178, 187500.00, 187500.00, 187500.00, -27165.28, -184432.42, 21245.33, -184733.23, -183860.03, 0.000, 0.000, 0.000, 15:31:31.274, 1578576691274
179, -187500.02, -180770.80, -187500.02, -187500.02, -187500.02, -187500.02, -187254.23, -187500.02, -0.022, -0.016, 0.972, 15:31:31.274, 1578576691274
180, 187500.00, 187500.00, 187500.00, -27136.71, -184454.50, 21249.74, -184735.16, -183849.86, 0.000, 0.000, 0.000, 15:31:31.274, 1578576691274
181, -187500.02, -180766.70, -187500.02, -187500.02, -187500.02, -187500.02, -187249.83, -187500.02, 0.000, 0.000, 0.000, 15:31:31.274, 1578576691274
182, 187500.00, 187500.00, 187500.00, -27144.63, -184423.59, 21239.81, -184666.31, -183864.03, 0.000, 0.000, 0.000, 15:31:31.274, 1578576691274
183, -187500.02, -180757.77, -187500.02, -187500.02, -187500.02, -187500.02, -187240.69, -187500.02, 0.000, 0.000, 0.000, 15:31:31.274, 1578576691274
184, 187500.00, 187500.00, 187500.00, -27143.76, -184433.47, 21251.14, -184731.80, -183856.45, 0.000, 0.000, 0.000, 15:31:31.274, 1578576691274
185, -187500.02, -180757.34, -187500.02, -187500.02, -187500.02, -187500.02, -187240.05, -187500.02, 0.000, 0.000, 0.000, 15:31:31.274, 1578576691274
186, 187500.00, 187500.00, 187500.00, -27121.87, -184445.73, 21252.06, -184730.17, -183827.38, 0.000, 0.000, 0.000, 15:31:31.274, 1578576691274
187, -187500.02, -180752.16, -187500.02, -187500.02, -187500.02, -187500.02, -187234.59, -187500.02, 0.000, 0.000, 0.000, 15:31:31.274, 1578576691274
188, 187500.00, 187500.00, 187500.00, -27149.66, -184426.38, 21240.79, -184673.81, -183846.47, 0.000, 0.000, 0.000, 15:31:31.274, 1578576691274
189, -187500.02, -180745.77, -187500.02, -187500.02, -187500.02, -187500.02, -187227.86, -187500.02, -0.022, -0.018, 0.980, 15:31:31.275, 1578576691275
190, 187500.00, 187500.00, 187500.00, -27138.93, -184405.97, 21239.81, -184672.97, -183868.48, 0.000, 0.000, 0.000, 15:31:31.275, 1578576691275
191, -187500.02, -180738.66, -187500.02, -187500.02, -187500.02, -187500.02, -187220.59, -187500.02, 0.000, 0.000, 0.000, 15:31:31.275, 1578576691275
192, 187500.00, 187500.00, 187500.00, -27126.41, -184386.16, 21243.25, -184673.06, -183863.52, 0.000, 0.000, 0.000, 15:31:31.275, 1578576691275
193, -187500.02, -180733.50, -187500.02, -187500.02, -187500.02, -187500.02, -187215.13, -187500.02, 0.000, 0.000, 0.000, 15:31:31.275, 1578576691275
194, 187500.00, 187500.00, 187500.00, -27132.27, -184400.56, 21244.21, -184692.91, -183850.83, 0.000, 0.000, 0.000, 15:31:31.275, 1578576691275
195, -187500.02, -180730.75, -187500.02, -187500.02, -187500.02, -187500.02, -187212.03, -187500.02, 0.000, 0.000, 0.000, 15:31:31.275, 1578576691275
196, 187500.00, 187500.00, 187500.00, -27147.71, -184419.23, 21250.52, -184720.08, -183829.69, 0.000, 0.000, 0.000, 15:31:31.275, 1578576691275
197, -187500.02, -180728.63, -187500.02, -187500.02, -187500.02, -187500.02, -187209.64, -187500.02, 0.000, 0.000, 0.000, 15:31:31.275, 1578576691275
198, 187500.00, 187500.00, 187500.00, -27125.70, -184439.48, 21249.80, -184725.50, -183833.17, -0.020, -0.016, 0.978, 15:31:31.275, 1578576691275
199, -187500.02, -180724.52, -187500.02, -187500.02, -187500.02, -187500.02, -187205.39, -187500.02, 0.000, 0.000, 0.000, 15:31:31.275, 1578576691275
200, 187500.00, 187500.00, 187500.00, -27126.50, -184405.70, 21254.50, -184656.50, -183840.50, 0.000, 0.000, 0.000, 15:31:31.275, 1578576691275
201, -187500.02, -180720.53, -187500.02, -187500.02, -187500.02, -187500.02, -187201.17, -187500.02, 0.000, 0.000, 0.000, 15:31:31.275, 1578576691275
202, 187500.00, 187500.00, 187500.00, -27136.22, -184390.55, 21249.11, -184613.47, -183845.73, 0.000, 0.000, 0.000, 15:31:31.275, 1578576691275
203, -187500.02, -180714.05, -187500.02, -187500.02, -187500.02, -187500.02, -187194.48, -187500.02, 0.000, 0.000, 0.000, 15:31:31.275, 1578576691275
204, 187500.00, 187500.00, 187500.00, -27130.55, -184382.84, 21255.30, -184679.41, -183848.86, 0.000, 0.000, 0.000, 15:31:31.275, 1578576691275
205, -187500.02, -180706.25, -187500.02, -187500.02, -187500.02, -187500.02, -187186.52, -187500.02, 0.000, 0.000, 0.000, 15:31:31.275, 1578576691275
206, 187500.00, 187500.00, 187500.00, -27114.77, -184386.89, 21261.09, -184696.53, -183830.63, 0.000, 0.000, 0.000, 15:31:31.276, 1578576691276
207, -187500.02, -180701.73, -187500.02, -187500.02, -187500.02, -187500.02, -187181.61, -187500.02, 0.000, 0.000, 0.000, 15:31:31.276, 1578576691276
208, 187500.00, 187500.00, 187500.00, -27093.06, -184389.70, 21265.58, -184679.41, -183826.95, -0.020, -0.010, 0.972, 15:31:31.276, 1578576691276
209, -187500.02, -180696.84, -187500.02, -187500.02, -187500.02, -187500.02, -187176.52, -187500.02, 0.000, 0.000, 0.000, 15:31:31.276, 1578576691276
210, 187500.00, 187500.00, 187500.00, -27114.36, -184400.59, 21269.81, -184670.47, -183805.41, 0.000, 0.000, 0.000, 15:31:31.276, 1578576691276
211, -187500.02, -180691.05, -187500.02, -187500.02, -187500.02, -187500.02, -187170.50, -187500.02, 0.000, 0.000, 0.000, 15:31:31.746, 1578576691746
212, 187500.00, 187500.00, 187500.00, -27118.57, -184372.89, 21262.57, -184635.78, -183827.42, 0.000, 0.000, 0.000, 15:31:31.746, 1578576691746
213, -187500.02, -180687.09, -187500.02, -187500.02, -187500.02, -187500.02, -187166.23, -187500.02, 0.000, 0.000, 0.000, 15:31:31.746, 1578576691746
214, 187500.00, 187500.00, 187500.00, -27090.80, -184421.44, 21284.20, -184756.03, -183813.66, 0.000, 0.000, 0.000, 15:31:31.747, 1578576691747
215, -187500.02, -180685.59, -187500.02, -187500.02, -187500.02, -187500.02, -187164.53, -187500.02, 0.000, 0.000, 0.000, 15:31:31.747, 1578576691747
216, 187500.00, 187500.00, 187500.00, -27089.91, -184374.95, 21284.89, -184687.39, -183846.17, 0.000, 0.000, 0.000, 15:31:31.747, 1578576691747
217, -187500.02, -180679.66, -187500.02, -187500.02, -187500.02, -187500.02, -187158.30, -187500.02, 0.000, 0.000, 0.000, 15:31:31.747, 1578576691747
218, 187500.00, 187500.00, 187500.00, -27102.00, -184371.00, 21284.07, -184657.33, -183828.16, -0.022, -0.008, 0.974, 15:31:31.747, 1578576691747
219, -187500.02, -180675.67, -187500.02, -187500.02, -187500.02, -187500.02, -187154.13, -187500.02, 0.000, 0.000, 0.000, 15:31:31.747, 1578576691747
220, 187500.00, 187500.00, 187500.00, -27067.92, -184365.34, 21287.85, -184651.00, -183821.66, 0.000, 0.000, 0.000, 15:31:31.747, 1578576691747
221, -187500.02, -180670.80, -187500.02, -187500.02, -187500.02, -187500.02, -187149.00, -187500.02, 0.000, 0.000, 0.000, 15:31:31.747, 1578576691747
222, 187500.00, 187500.00, 187500.00, -27080.75, -184364.47, 21285.63, -184663.72, -183819.22, 0.000, 0.000, 0.000, 15:31:31.747, 1578576691747
223, -187500.02, -180667.73, -187500.02, -187500.02, -187500.02, -187500.02, -187145.70, -187500.02, 0.000, 0.000, 0.000, 15:31:31.748, 1578576691748
224, 187500.00, 187500.00, 187500.00, -27083.83, -184385.17, 21288.43, -184668.70, -183790.92, 0.000, 0.000, 0.000, 15:31:31.748, 1578576691748
225, -187500.02, -180661.97, -187500.02, -187500.02, -187500.02, -187500.02, -187139.66, -187500.02, 0.000, 0.000, 0.000, 15:31:31.748, 1578576691748
226, 187500.00, 187500.00, 187500.00, -27083.12, -184384.36, 21284.63, -184642.22, -183797.86, 0.000, 0.000, 0.000, 15:31:31.748, 1578576691748
227, -187500.02, -180657.92, -187500.02, -187500.02, -187500.02, -187500.02, -187135.38, -187500.02, 0.000, 0.000, 0.000, 15:31:31.748, 1578576691748
228, 187500.00, 187500.00, 187500.00, -27084.03, -184366.97, 21285.48, -184661.88, -183805.89, -0.020, -0.016, 0.974, 15:31:31.748, 1578576691748
229, -187500.02, -180652.06, -187500.02, -187500.02, -187500.02, -187500.02, -187129.33, -187500.02, 0.000, 0.000, 0.000, 15:31:31.749, 1578576691749
230, 187500.00, 187500.00, 187500.00, -27070.60, -184381.09, 21288.92, -184684.05, -183796.52, 0.000, 0.000, 0.000, 15:31:31.749, 1578576691749
231, -187500.02, -180648.72, -187500.02, -187500.02, -187500.02, -187500.02, -187125.56, -187500.02, 0.000, 0.000, 0.000, 15:31:31.749, 1578576691749
232, 187500.00, 187500.00, 187500.00, -27080.34, -184384.98, 21284.87, -184678.94, -183799.27, 0.000, 0.000, 0.000, 15:31:31.749, 1578576691749
233, -187500.02, -180644.56, -187500.02, -187500.02, -187500.02, -187500.02, -187121.27, -187500.02, 0.000, 0.000, 0.000, 15:31:31.749, 1578576691749
234, 187500.00, 187500.00, 187500.00, -27086.98, -184386.75, 21291.76, -184657.70, -183810.84, 0.000, 0.000, 0.000, 15:31:31.749, 1578576691749
235, -187500.02, -180640.36, -187500.02, -187500.02, -187500.02, -187500.02, -187116.80, -187500.02, 0.000, 0.000, 0.000, 15:31:31.749, 1578576691749
236, 187500.00, 187500.00, 187500.00, -27062.33, -184414.63, 21302.08, -184695.59, -183787.45, 0.000, 0.000, 0.000, 15:31:31.749, 1578576691749
237, -187500.02, -180639.94, -187500.02, -187500.02, -187500.02, -187500.02, -187115.98, -187500.02, -0.018, -0.020, 0.976, 15:31:31.749, 1578576691749
238, 187500.00, 187500.00, 187500.00, -27065.57, -184409.84, 21294.77, -184670.27, -183801.94, 0.000, 0.000, 0.000, 15:31:31.749, 1578576691749
239, -187500.02, -180634.83, -187500.02, -187500.02, -187500.02, -187500.02, -187110.63, -187500.02, 0.000, 0.000, 0.000, 15:31:31.749, 1578576691749
240, 187500.00, 187500.00, 187500.00, -27054.46, -184388.78, 21309.59, -184638.50, -183785.30, 0.000, 0.000, 0.000, 15:31:31.749, 1578576691749
241, -187500.02, -180631.84, -187500.02, -187500.02, -187500.02, -187500.02, -187107.45, -187500.02, 0.000, 0.000, 0.000, 15:31:31.749, 1578576691749
242, 187500.00, 187500.00, 187500.00, -27073.04, -184372.30, 21247.61, -184607.56, -183795.75, 0.000, 0.000, 0.000, 15:31:31.749, 1578576691749
243, -187500.02, -180623.33, -187500.02, -187500.02, -187500.02, -187500.02, -187098.69, -187500.02, 0.000, 0.000, 0.000, 15:31:31.749, 1578576691749
244, 187500.00, 187500.00, 187500.00, -27071.47, -184336.81, 21195.55, -184609.75, -183815.00, 0.000, 0.000, 0.000, 15:31:31.749, 1578576691749
245, -187500.02, -180616.70, -187500.02, -187500.02, -187500.02, -187500.02, -187091.77, -187500.02, 0.000, 0.000, 0.000, 15:31:31.749, 1578576691749
246, 187500.00, 187500.00, 187500.00, -27068.95, -184332.73, 21133.86, -184638.88, -183800.80, 0.000, 0.000, 0.000, 15:31:31.749, 1578576691749
247, -187500.02, -180609.23, -187500.02, -187500.02, -187500.02, -187500.02, -187084.14, -187500.02, -0.014, -0.016, 0.976, 15:31:31.749, 1578576691749
248, 187500.00, 187500.00, 187500.00, -27058.64, -184318.67, 21058.81, -184582.33, -183805.20, 0.000, 0.000, 0.000, 15:31:31.749, 1578576691749
249, -187500.02, -180603.30, -187500.02, -187500.02, -187500.02, -187500.02, -187077.97, -187500.02, 0.000, 0.000, 0.000, 15:31:31.750, 1578576691750
250, 187500.00, 187500.00, 187500.00, -27035.24, -184364.69, 21013.50, -184626.56, -183777.44, 0.000, 0.000, 0.000, 15:31:31.750, 1578576691750
251, -187500.02, -180601.27, -187500.02, -187500.02, -187500.02, -187500.02, -187075.67, -187500.02, 0.000, 0.000, 0.000, 15:31:31.750, 1578576691750
252, 187500.00, 187500.00, 187500.00, -27029.49, -184358.80, 20938.60, -184611.91, -183796.53, 0.000, 0.000, 0.000, 15:31:31.750, 1578576691750
253, -187500.02, -180599.19, -187500.02, -187500.02, -187500.02, -187500.02, -187073.33, -187500.02, 0.000, 0.000, 0.000, 15:31:31.750, 1578576691750
254, 187500.00, 187500.00, 187500.00, -27017.16, -184367.42, 20874.23, -184603.14, -183787.41, 0.000, 0.000, 0.000, 15:31:31.750, 1578576691750
255, -187500.02, -180594.88, -187500.02, -187500.02, -187500.02, -187500.02, -187068.84, -187500.02, 0.000, 0.000, 0.000, 15:31:31.750, 1578576691750
0, 187500.00, 187500.00, 187500.00, -27006.00, -184358.28, 20808.69, -184602.41, -183773.42, 0.000, 0.000, 0.000, 15:31:31.750, 1578576691750
1, -187500.02, -180593.06, -187500.02, -187500.02, -187500.02, -187500.02, -187066.73, -187500.02, -0.014, -0.016, 0.972, 15:31:31.750, 1578576691750
2, 187500.00, 187500.00, 187500.00, -26987.45, -184381.23, 20758.56, -184671.09, -183763.61, 0.000, 0.000, 0.000, 15:31:31.750, 1578576691750
3, -187500.02, -180589.73, -187500.02, -187500.02, -187500.02, -187500.02, -187063.06, -187500.02, 0.000, 0.000, 0.000, 15:31:31.750, 1578576691750
4, 187500.00, 187500.00, 187500.00, -26967.67, -184365.27, 20715.69, -184641.34, -183785.09, 0.000, 0.000, 0.000, 15:31:31.750, 1578576691750
5, -187500.02, -180582.58, -187500.02, -187500.02, -187500.02, -187500.02, -187055.66, -187500.02, 0.000, 0.000, 0.000, 15:31:31.750, 1578576691750
6, 187500.00, 187500.00, 187500.00, -26937.67, -184316.69, 20683.99, -184566.39, -183792.58, 0.000, 0.000, 0.000, 15:31:31.750, 1578576691750
7, -187500.02, -180575.13, -187500.02, -187500.02, -187500.02, -187500.02, -187047.97, -187500.02, 0.000, 0.000, 0.000, 15:31:31.751, 1578576691751
8, 187500.00, 187500.00, 187500.00, -26922.54, -184319.31, 20667.23, -184647.06, -183780.75, 0.000, 0.000, 0.000, 15:31:31.751, 1578576691751
9, -187500.02, -180568.30, -187500.02, -187500.02, -187500.02, -187500.02, -187040.94, -187500.02, 0.000, 0.000, 0.000, 15:31:31.751, 1578576691751
10, 187500.00, 187500.00, 187500.00, -26926.16, -184314.78, 20645.90, -184637.42, -183769.55, 0.000, 0.000, 0.000, 15:31:31.751, 1578576691751
11, -187500.02, -180564.66, -187500.02, -187500.02, -187500.02, -187500.02, -187037.02, -187500.02, -0.016, -0.020, 0.968, 15:31:31.751, 1578576691751
12, 187500.00, 187500.00, 187500.00, -26891.67, -184325.75, 20651.18, -184592.30, -183788.31, 0.000, 0.000, 0.000, 15:31:31.751, 1578576691751
13, -187500.02, -180561.86, -187500.02, -187500.02, -187500.02, -187500.02, -187033.88, -187500.02, 0.000, 0.000, 0.000, 15:31:31.751, 1578576691751
14, 187500.00, 187500.00, 187500.00, -26867.53, -184352.75, 20645.97, -184600.81, -183760.33, 0.000, 0.000, 0.000, 15:31:31.751, 1578576691751
15, -187500.02, -180558.13, -187500.02, -187500.02, -187500.02, -187500.02, -187030.03, -187500.02, 0.000, 0.000, 0.000, 15:31:31.751, 1578576691751
16, 187500.00, 187500.00, 187500.00, -26870.86, -184345.58, 20642.64, -184602.72, -183770.98, 0.000, 0.000, 0.000, 15:31:31.751, 1578576691751
17, -187500.02, -180552.52, -187500.02, -187500.02, -187500.02, -187500.02, -187024.08, -187500.02, 0.000, 0.000, 0.000, 15:31:31.751, 1578576691751
18, 187500.00, 187500.00, 187500.00, -26878.60, -184308.19, 20637.21, -184567.36, -183794.75, 0.000, 0.000, 0.000, 15:31:31.751, 1578576691751
19, -187500.02, -180544.88, -187500.02, -187500.02, -187500.02, -187500.02, -187016.22, -187500.02, 0.000, 0.000, 0.000, 15:31:31.751, 1578576691751
20, 187500.00, 187500.00, 187500.00, -26878.87, -184316.59, 20641.79, -184598.67, -183759.27, 0.000, 0.000, 0.000, 15:31:31.751, 1578576691751
21, -187500.02, -180540.39, -187500.02, -187500.02, -187500.02, -187500.02, -187011.52, -187500.02, -0.022, -0.016, 0.970, 15:31:31.751, 1578576691751
22, 187500.00, 187500.00, 187500.00, -26889.21, -184328.61, 20640.83, -184648.09, -183750.75, 0.000, 0.000, 0.000, 15:31:31.752, 1578576691752
23, -187500.02, -180537.67, -187500.02, -187500.02, -187500.02, -187500.02, -187008.56, -187500.02, 0.000, 0.000, 0.000, 15:31:31.752, 1578576691752
24, 187500.00, 187500.00, 187500.00, -26888.59, -184331.00, 20666.60, -184631.92, -183752.34, 0.000, 0.000, 0.000, 15:31:31.752, 1578576691752
25, -187500.02, -180534.03, -187500.02, -187500.02, -187500.02, -187500.02, -187004.59, -187500.02, 0.000, 0.000, 0.000, 15:31:31.752, 1578576691752
26, 187500.00, 187500.00, 187500.00, -26857.32, -184319.91, 20682.96, -184593.78, -183756.05, 0.000, 0.000, 0.000, 15:31:31.752, 1578576691752
27, -187500.02, -180531.13, -187500.02, -187500.02, -187500.02, -187500.02, -187001.55, -187500.02, 0.000, 0.000, 0.000, 15:31:31.752, 1578576691752
28, 187500.00, 187500.00, 187500.00, -26886.94, -184326.45, 20703.26, -184577.48, -183749.02, 0.000, 0.000, 0.000, 15:31:31.752, 1578576691752
29, -187500.02, -180527.81, -187500.02, -187500.02, -187500.02, -187500.02, -186998.11, -187500.02, 0.000, 0.000, 0.000, 15:31:31.752, 1578576691752
30, 187500.00, 187500.00, 187500.00, -26892.81, -184304.30, 20716.45, -184554.59, -183766.52, -0.024, -0.016, 0.976, 15:31:31.752, 1578576691752
31, -187500.02, -180519.41, -187500.02, -187500.02, -187500.02, -187500.02, -186989.34, -187500.02, 0.000, 0.000, 0.000, 15:31:31.752, 1578576691752
32, 187500.00, 187500.00, 187500.00, -26868.09, -184288.27, 20747.25, -184558.33, -183765.20, 0.000, 0.000, 0.000, 15:31:31.752, 1578576691752
33, -187500.02, -180514.27, -187500.02, -187500.02, -187500.02, -187500.02, -186983.83, -187500.02, 0.000, 0.000, 0.000, 15:31:31.752, 1578576691752
34, 187500.00, 187500.00, 187500.00, -26867.80, -184307.16, 20781.09, -184591.67, -183751.89, 0.000, 0.000, 0.000, 15:31:31.752, 1578576691752
35, -187500.02, -180513.59, -187500.02, -187500.02, -187500.02, -187500.02, -186982.91, -187500.02, 0.000, 0.000, 0.000, 15:31:31.752, 1578576691752
36, 187500.00, 187500.00, 187500.00, -26863.38, -184351.13, 20807.39, -184664.36, -183733.72, 0.000, 0.000, 0.000, 15:31:31.753, 1578576691753
37, -187500.02, -180508.03, -187500.02, -187500.02, -187500.02, -187500.02, -186977.00, -187500.02, 0.000, 0.000, 0.000, 15:31:31.753, 1578576691753
38, 187500.00, 187500.00, 187500.00, -26905.20, -184297.38, 20819.35, -184575.25, -183756.30, 0.000, 0.000, 0.000, 15:31:31.753, 1578576691753
39, -187500.02, -180498.88, -187500.02, -187500.02, -187500.02, -187500.02, -186967.64, -187500.02, 0.000, 0.000, 0.000, 15:31:31.753, 1578576691753
40, 187500.00, 187500.00, 187500.00, -26908.48, -184285.83, 20837.05, -184558.64, -183744.63, -0.022, -0.018, 0.978, 15:31:31.753, 1578576691753
41, -187500.02, -180493.39, -187500.02, -187500.02, -187500.02, -187500.02, -186962.03, -187500.02, 0.000, 0.000, 0.000, 15:31:31.753, 1578576691753
42, 187500.00, 187500.00, 187500.00, -26902.20, -184306.06, 20859.74, -184616.53, -183730.84, 0.000, 0.000, 0.000, 15:31:31.753, 1578576691753
43, -187500.02, -180490.52, -187500.02, -187500.02, -187500.02, -187500.02, -186958.75, -187500.02, 0.000, 0.000, 0.000, 15:31:31.753, 1578576691753
44, 187500.00, 187500.00, 187500.00, -26895.21, -184343.41, 20889.27, -184656.19, -183728.72, 0.000, 0.000, 0.000, 15:31:31.753, 1578576691753
45, -187500.02, -180485.45, -187500.02, -187500.02, -187500.02, -187500.02, -186953.58, -187500.02, 0.000, 0.000, 0.000, 15:31:31.753, 1578576691753
46, 187500.00, 187500.00, 187500.00, -26903.07, -184310.84, 20905.23, -184621.02, -183740.67, 0.000, 0.000, 0.000, 15:31:31.753, 1578576691753
47, -187500.02, -180480.88, -187500.02, -187500.02, -187500.02, -187500.02, -186948.75, -187500.02, 0.000, 0.000, 0.000, 15:31:31.753, 1578576691753
