%OpenBCI Raw EEG Data
%Number of channels = 8
%Sample Rate = 250.0 Hz
%First Column = SampleIndex
%Last Column = Timestamp 
%Other Columns = EEG data in microvolts followed by Accel Data (in G) interleaved with Aux Data
0, -92146.31, -92141.58, -92225.06, -92227.61, -92218.98, -92194.80, -92257.91, 72462.19, -0.012, -0.008, 0.500, 15:46:34.092, 1578577594092
1, -187500.02, -187500.02, -187500.02, 187500.00, -187500.02, 187500.00, -187500.02, -187500.02, 0.000, 0.000, 0.000, 15:46:34.092, 1578577594092
2, -184294.42, -184284.92, -184451.95, -184456.89, -184439.69, -184391.30, -184517.59, 144888.41, 0.000, 0.000, 0.000, 15:46:34.092, 1578577594092
3, -187500.02, -187500.02, -187500.02, 187500.00, -187500.02, 187500.00, -187500.02, -187500.02, 0.000, 0.000, 0.000, 15:46:34.093, 1578577594093
4, -184299.73, -184290.22, -184457.23, -184462.25, -184445.00, -184396.63, -184522.98, 144843.17, 0.000, 0.000, 0.000, 15:46:34.093, 1578577594093
5, -187500.02, -187500.02, -187500.02, 187500.00, -187500.02, 187500.00, -187500.02, -187500.02, 0.000, 0.000, 0.000, 15:46:34.093, 1578577594093
6, -184301.28, -184291.77, -184458.86, -184463.80, -184446.44, -184398.20, -184524.69, 144793.75, -0.022, -0.010, 0.734, 15:46:34.093, 1578577594093
7, -187500.02, -187500.02, -187500.02, 187500.00, -187500.02, 187500.00, -187500.02, -187500.02, 0.000, 0.000, 0.000, 15:46:34.093, 1578577594093
8, -184305.66, -184296.08, -184463.16, -184468.06, -184450.80, -184402.47, -184529.09, 144747.70, 0.000, 0.000, 0.000, 15:46:34.093, 1578577594093
9, -187500.02, -187500.02, -187500.02, 187500.00, -187500.02, 187500.00, -187500.02, -187500.02, 0.000, 0.000, 0.000, 15:46:34.093, 1578577594093
10, -184310.69, -184301.22, -184468.20, -184473.14, -184455.91, -184407.55, -184534.25, 144697.34, 0.000, 0.000, 0.000, 15:46:34.093, 1578577594093
11, -187500.02, -187500.02, -187500.02, 187500.00, -187500.02, 187500.00, -187500.02, -187500.02, 0.000, 0.000, 0.000, 15:46:34.093, 1578577594093
12, -184312.30, -184302.83, -184469.77, -184474.81, -184457.42, -184409.13, -184535.91, 144643.94, 0.000, 0.000, 0.000, 15:46:34.093, 1578577594093
13, -187500.02, -187500.02, -187500.02, 187500.00, -187500.02, 187500.00, -187500.02, -187500.02, 0.000, 0.000, 0.000, 15:46:34.093, 1578577594093
14, -184314.67, -184305.14, -184472.09, -184477.09, -184459.83, -184411.50, -184538.25, 144595.67, 0.000, 0.000, 0.000, 15:46:34.093, 1578577594093
15, -187500.02, -187500.02, -187500.02, 187500.00, -187500.02, 187500.00, -187500.02, -187500.02, 0.000, 0.000, 0.000, 15:46:34.093, 1578577594093
16, -184318.95, -184309.34, -184476.30, -184481.28, -184463.95, -184415.66, -184542.48, 144542.80, -0.026, -0.012, 0.852, 15:46:34.093, 1578577594093
17, -187500.02, -187500.02, -187500.02, 187500.00, -187500.02, 187500.00, -187500.02, -187500.02, 0.000, 0.000, 0.000, 15:46:34.093, 1578577594093
18, -184321.22, -184311.73, -184478.69, -184483.73, -184466.30, -184418.11, -184544.95, 144495.81, 0.000, 0.000, 0.000, 15:46:34.094, 1578577594094
19, -187500.02, -187500.02, -187500.02, 187500.00, -187500.02, 187500.00, -187500.02, -187500.02, 0.000, 0.000, 0.000, 15:46:34.094, 1578577594094
20, -184325.48, -184316.08, -184482.95, -184487.97, -184470.59, -184422.27, -184549.11, 144449.86, 0.000, 0.000, 0.000, 15:46:34.094, 1578577594094
21, -187500.02, -187500.02, -187500.02, 187500.00, -187500.02, 187500.00, -187500.02, -187500.02, 0.000, 0.000, 0.000, 15:46:34.094, 1578577594094
22, -184330.77, -184321.31, -184488.28, -184493.23, -184475.95, -184427.59, -184554.53, 144401.88, 0.000, 0.000, 0.000, 15:46:34.094, 1578577594094
23, -187500.02, -187500.02, -187500.02, 187500.00, -187500.02, 187500.00, -187500.02, -187500.02, 0.000, 0.000, 0.000, 15:46:34.094, 1578577594094
24, -184334.42, -184324.89, -184491.83, -184496.83, -184479.52, -184431.19, -184558.27, 144354.63, 0.000, 0.000, 0.000, 15:46:34.094, 1578577594094
25, -187500.02, -187500.02, -187500.02, 187500.00, -187500.02, 187500.00, -187500.02, -187500.02, 0.000, 0.000, 0.000, 15:46:34.094, 1578577594094
26, -184338.52, -184328.95, -184495.97, -184501.03, -184483.56, -184435.39, -184562.42, 144302.05, -0.016, -0.010, 0.914, 15:46:34.094, 1578577594094
27, -187500.02, -187500.02, -187500.02, 187500.00, -187500.02, 187500.00, -187500.02, -187500.02, 0.000, 0.000, 0.000, 15:46:34.094, 1578577594094
28, -184342.67, -184333.11, -184500.05, -184505.08, -184487.72, -184439.55, -184566.69, 144251.14, 0.000, 0.000, 0.000, 15:46:34.094, 1578577594094
29, -187500.02, -187500.02, -187500.02, 187500.00, -187500.02, 187500.00, -187500.02, -187500.02, 0.000, 0.000, 0.000, 15:46:34.094, 1578577594094
30, -184345.67, -184336.08, -184503.09, -184508.19, -184490.75, -184442.63, -184569.80, 144197.94, 0.000, 0.000, 0.000, 15:46:34.094, 1578577594094
31, -187500.02, -187500.02, -187500.02, 187500.00, -187500.02, 187500.00, -187500.02, -187500.02, 0.000, 0.000, 0.000, 15:46:34.094, 1578577594094
32, -184348.38, -184338.89, -184505.75, -184510.83, -184493.48, -184445.25, -184572.52, 144145.39, 0.000, 0.000, 0.000, 15:46:34.094, 1578577594094
33, -187500.02, -187500.02, -187500.02, 187500.00, -187500.02, 187500.00, -187500.02, -187500.02, 0.000, 0.000, 0.000, 15:46:34.094, 1578577594094
34, -184354.23, -184344.67, -184511.56, -184516.61, -184499.23, -184451.11, -184578.39, 144096.39, 0.000, 0.000, 0.000, 15:46:34.094, 1578577594094
35, -187500.02, -187500.02, -187500.02, 187500.00, -187500.02, 187500.00, -187500.02, -187500.02, 0.000, 0.000, 0.000, 15:46:34.095, 1578577594095
36, -184358.39, -184348.80, -184515.75, -184520.70, -184503.41, -184455.19, -184582.58, 144043.55, -0.022, -0.012, 0.950, 15:46:34.095, 1578577594095
37, -187500.02, -187500.02, -187500.02, 187500.00, -187500.02, 187500.00, -187500.02, -187500.02, 0.000, 0.000, 0.000, 15:46:34.095, 1578577594095
38, -184362.25, -184352.80, -184519.75, -184524.75, -184507.45, -184459.16, -184586.69, 143995.94, 0.000, 0.000, 0.000, 15:46:34.095, 1578577594095
39, -187500.02, -187500.02, -187500.02, 187500.00, -187500.02, 187500.00, -187500.02, -187500.02, 0.000, 0.000, 0.000, 15:46:34.095, 1578577594095
40, -184364.94, -184355.38, -184522.31, -184527.30, -184510.09, -184461.78, -184589.30, 143949.19, 0.000, 0.000, 0.000, 15:46:34.097, 1578577594097
41, -187500.02, -187500.02, -187500.02, 187500.00, -187500.02, 187500.00, -187500.02, -187500.02, 0.000, 0.000, 0.000, 15:46:34.097, 1578577594097
42, -184368.80, -184359.17, -184526.14, -184531.09, -184513.88, -184465.56, -184593.22, 143900.28, 0.000, 0.000, 0.000, 15:46:34.098, 1578577594098
43, -187500.02, -187500.02, -187500.02, 187500.00, -187500.02, 187500.00, -187500.02, -187500.02, 0.000, 0.000, 0.000, 15:46:34.098, 1578577594098
44, -184369.20, -184359.66, -184526.67, -184531.70, -184514.34, -184466.13, -184593.70, 143852.42, 0.000, 0.000, 0.000, 15:46:34.098, 1578577594098
45, -187500.02, -187500.02, -187500.02, 187500.00, -187500.02, 187500.00, -187500.02, -187500.02, 0.000, 0.000, 0.000, 15:46:34.098, 1578577594098
46, -184375.28, -184365.72, -184532.70, -184537.73, -184520.38, -184472.11, -184599.81, 143802.64, -0.024, -0.026, 0.960, 15:46:34.098, 1578577594098
47, -187500.02, -187500.02, -187500.02, 187500.00, -187500.02, 187500.00, -187500.02, -187500.02, 0.000, 0.000, 0.000, 15:46:34.098, 1578577594098
48, -184379.59, -184370.13, -184537.06, -184542.09, -184524.73, -184476.55, -184604.23, 143757.88, 0.000, 0.000, 0.000, 15:46:34.098, 1578577594098
49, -187500.02, -187500.02, -187500.02, 187500.00, -187500.02, 187500.00, -187500.02, -187500.02, 0.000, 0.000, 0.000, 15:46:34.098, 1578577594098
50, -184384.39, -184374.86, -184541.81, -184546.81, -184529.52, -184481.33, -184608.97, 143710.72, 0.000, 0.000, 0.000, 15:46:34.098, 1578577594098
51, -187500.02, -187500.02, -187500.02, 187500.00, -187500.02, 187500.00, -187500.02, -187500.02, 0.000, 0.000, 0.000, 15:46:34.099, 1578577594099
52, -184389.44, -184379.95, -184546.95, -184551.94, -184534.59, -184486.36, -184614.06, 143660.45, 0.000, 0.000, 0.000, 15:46:34.099, 1578577594099
53, -187500.02, -187500.02, -187500.02, 187500.00, -187500.02, 187500.00, -187500.02, -187500.02, 0.000, 0.000, 0.000, 15:46:34.099, 1578577594099
54, -184392.13, -184382.53, -184549.52, -184554.55, -184537.19, -184488.92, -184616.70, 143614.22, 0.000, 0.000, 0.000, 15:46:34.099, 1578577594099
55, -187500.02, -187500.02, -187500.02, 187500.00, -187500.02, 187500.00, -187500.02, -187500.02, -0.020, -0.020, 0.970, 15:46:34.099, 1578577594099
56, -184392.14, -184382.66, -184549.58, -184554.61, -184537.27, -184488.94, -184616.84, 143564.36, 0.000, 0.000, 0.000, 15:46:34.099, 1578577594099
57, -187500.02, -187500.02, -187500.02, 187500.00, -187500.02, 187500.00, -187500.02, -187500.02, 0.000, 0.000, 0.000, 15:46:34.099, 1578577594099
58, -184398.47, -184388.97, -184555.94, -184560.98, -184543.63, -184495.30, -184623.19, 143518.72, 0.000, 0.000, 0.000, 15:46:34.099, 1578577594099
59, -187500.02, -187500.02, -187500.02, 187500.00, -187500.02, 187500.00, -187500.02, -187500.02, 0.000, 0.000, 0.000, 15:46:34.099, 1578577594099
60, -184401.94, -184392.36, -184559.38, -184564.41, -184547.11, -184498.88, -184626.67, 143469.36, 0.000, 0.000, 0.000, 15:46:34.099, 1578577594099
61, -187500.02, -187500.02, -187500.02, 187500.00, -187500.02, 187500.00, -187500.02, -187500.02, 0.000, 0.000, 0.000, 15:46:34.100, 1578577594100
62, -184407.81, -184398.23, -184565.23, -184570.31, -184552.98, -184504.72, -184632.58, 143418.75, 0.000, 0.000, 0.000, 15:46:34.100, 1578577594100
63, -187500.02, -187500.02, -187500.02, 187500.00, -187500.02, 187500.00, -187500.02, -187500.02, 0.000, 0.000, 0.000, 15:46:34.100, 1578577594100
64, -184409.73, -184400.09, -184567.16, -184572.16, -184554.80, -184506.56, -184634.48, 143373.36, 0.000, 0.000, 0.000, 15:46:34.100, 1578577594100
65, -187500.02, -187500.02, -187500.02, 187500.00, -187500.02, 187500.00, -187500.02, -187500.02, -0.022, -0.018, 0.976, 15:46:34.100, 1578577594100
66, -184411.08, -184401.45, -184568.39, -184573.53, -184556.14, -184507.86, -184635.81, 143324.28, 0.000, 0.000, 0.000, 15:46:34.100, 1578577594100
67, -187500.02, -187500.02, -187500.02, 187500.00, -187500.02, 187500.00, -187500.02, -187500.02, 0.000, 0.000, 0.000, 15:46:34.100, 1578577594100
68, -184415.92, -184406.22, -184573.19, -184578.38, -184560.92, -184512.75, -184640.77, 143278.20, 0.000, 0.000, 0.000, 15:46:34.100, 1578577594100
69, -187500.02, -187500.02, -187500.02, 187500.00, -187500.02, 187500.00, -187500.02, -187500.02, 0.000, 0.000, 0.000, 15:46:34.100, 1578577594100
70, -184419.81, -184410.22, -184577.09, -184582.20, -184564.92, -184516.64, -184644.69, 143229.66, 0.000, 0.000, 0.000, 15:46:34.100, 1578577594100
71, -187500.02, -187500.02, -187500.02, 187500.00, -187500.02, 187500.00, -187500.02, -187500.02, 0.000, 0.000, 0.000, 15:46:34.100, 1578577594100
72, -184424.14, -184414.53, -184581.42, -184586.53, -184569.20, -184520.91, -184649.00, 143182.67, 0.000, 0.000, 0.000, 15:46:34.101, 1578577594101
73, -187500.02, -187500.02, -187500.02, 187500.00, -187500.02, 187500.00, -187500.02, -187500.02, 0.000, 0.000, 0.000, 15:46:34.101, 1578577594101
74, -184426.11, -184416.55, -184583.41, -184588.52, -184571.31, -184522.92, -184651.00, 143139.47, 0.000, 0.000, 0.000, 15:46:34.101, 1578577594101
75, -187500.02, -187500.02, -187500.02, 187500.00, -187500.02, 187500.00, -187500.02, -187500.02, -0.018, -0.012, 0.982, 15:46:34.101, 1578577594101
76, -184431.09, -184421.55, -184588.34, -184593.42, -184576.14, -184527.81, -184655.94, 143091.84, 0.000, 0.000, 0.000, 15:46:34.101, 1578577594101
77, -187500.02, -187500.02, -187500.02, 187500.00, -187500.02, 187500.00, -187500.02, -187500.02, 0.000, 0.000, 0.000, 15:46:34.101, 1578577594101
78, -184433.22, -184423.56, -184590.44, -184595.56, -184578.31, -184529.95, -184658.08, 143050.20, 0.000, 0.000, 0.000, 15:46:34.101, 1578577594101
79, -187500.02, -187500.02, -187500.02, 187500.00, -187500.02, 187500.00, -187500.02, -187500.02, 0.000, 0.000, 0.000, 15:46:34.101, 1578577594101
80, -184436.95, -184427.28, -184594.17, -184599.25, -184582.11, -184533.66, -184661.77, 143009.34, 0.000, 0.000, 0.000, 15:46:34.101, 1578577594101
81, -187500.02, -187500.02, -187500.02, 187500.00, -187500.02, 187500.00, -187500.02, -187500.02, 0.000, 0.000, 0.000, 15:46:34.101, 1578577594101
82, -184440.31, -184430.67, -184597.53, -184602.66, -184585.39, -184537.00, -184665.19, 142963.98, 0.000, 0.000, 0.000, 15:46:34.102, 1578577594102
83, -187500.02, -187500.02, -187500.02, 187500.00, -187500.02, 187500.00, -187500.02, -187500.02, 0.000, 0.000, 0.000, 15:46:34.102, 1578577594102
84, -184444.17, -184434.58, -184601.52, -184606.58, -184589.33, -184540.94, -184669.13, 142919.28, 0.000, 0.000, 0.000, 15:46:34.102, 1578577594102
85, -187500.02, -187500.02, -187500.02, 187500.00, -187500.02, 187500.00, -187500.02, -187500.02, -0.016, -0.010, 0.978, 15:46:34.102, 1578577594102
86, -184447.06, -184437.47, -184604.34, -184609.41, -184592.03, -184543.81, -184671.98, 142871.16, 0.000, 0.000, 0.000, 15:46:34.102, 1578577594102
87, -187500.02, -187500.02, -187500.02, 187500.00, -187500.02, 187500.00, -187500.02, -187500.02, 0.000, 0.000, 0.000, 15:46:34.102, 1578577594102
88, -184449.38, -184439.77, -184606.73, -184611.75, -184594.45, -184546.19, -184674.36, 142827.03, 0.000, 0.000, 0.000, 15:46:34.102, 1578577594102
89, -187500.02, -187500.02, -187500.02, 187500.00, -187500.02, 187500.00, -187500.02, -187500.02, 0.000, 0.000, 0.000, 15:46:34.102, 1578577594102
90, -184453.70, -184444.16, -184611.05, -184616.13, -184598.94, -184550.53, -184678.80, 142784.13, 0.000, 0.000, 0.000, 15:46:34.102, 1578577594102
91, -187500.02, -187500.02, -187500.02, 187500.00, -187500.02, 187500.00, -187500.02, -187500.02, 0.000, 0.000, 0.000, 15:46:34.102, 1578577594102
92, -184456.80, -184447.22, -184614.11, -184619.19, -184601.89, -184553.52, -184681.86, 142738.17, 0.000, 0.000, 0.000, 15:46:34.102, 1578577594102
93, -187500.02, -187500.02, -187500.02, 187500.00, -187500.02, 187500.00, -187500.02, -187500.02, 0.000, 0.000, 0.000, 15:46:34.102, 1578577594102
94, -184459.48, -184449.97, -184616.84, -184621.92, -184604.55, -184556.25, -184684.45, 142696.14, -0.022, -0.014, 0.976, 15:46:34.102, 1578577594102
95, -187500.02, -187500.02, -187500.02, 187500.00, -187500.02, 187500.00, -187500.02, -187500.02, 0.000, 0.000, 0.000, 15:46:34.102, 1578577594102
96, -184463.95, -184454.34, -184621.22, -184626.36, -184609.11, -184560.72, -184688.95, 142651.52, 0.000, 0.000, 0.000, 15:46:34.102, 1578577594102
97, -187500.02, -187500.02, -187500.02, 187500.00, -187500.02, 187500.00, -187500.02, -187500.02, 0.000, 0.000, 0.000, 15:46:34.102, 1578577594102
98, -184465.45, -184455.94, -184622.78, -184627.86, -184610.56, -184562.27, -184690.48, 142605.20, 0.000, 0.000, 0.000, 15:46:34.103, 1578577594103
99, -187500.02, -187500.02, -187500.02, 187500.00, -187500.02, 187500.00, -187500.02, -187500.02, 0.000, 0.000, 0.000, 15:46:34.103, 1578577594103
100, -184469.72, -184460.22, -184627.02, -184632.13, -184614.94, -184566.58, -184694.84, 142557.47, 0.000, 0.000, 0.000, 15:46:34.103, 1578577594103
101, -187500.02, -187500.02, -187500.02, 187500.00, -187500.02, 187500.00, -187500.02, -187500.02, 0.000, 0.000, 0.000, 15:46:34.103, 1578577594103
102, -184473.80, -184464.25, -184630.95, -184636.11, -184618.83, -184570.59, -184698.92, 142507.63, 0.000, 0.000, 0.000, 15:46:34.103, 1578577594103
103, -187500.02, -187500.02, -187500.02, 187500.00, -187500.02, 187500.00, -187500.02, -187500.02, 0.000, 0.000, 0.000, 15:46:34.103, 1578577594103
104, -184477.61, -184468.20, -184634.83, -184640.02, -184622.81, -184574.47, -184702.83, 142464.38, -0.018, -0.020, 0.972, 15:46:34.103, 1578577594103
105, -187500.02, -187500.02, -187500.02, 187500.00, -187500.02, 187500.00, -187500.02, -187500.02, 0.000, 0.000, 0.000, 15:46:34.103, 1578577594103
106, -184480.20, -184470.66, -184637.42, -184642.50, -184625.27, -184576.98, -184705.33, 142416.95, 0.000, 0.000, 0.000, 15:46:34.103, 1578577594103
107, -187500.02, -187500.02, -187500.02, 187500.00, -187500.02, 187500.00, -187500.02, -187500.02, 0.000, 0.000, 0.000, 15:46:34.103, 1578577594103
108, -184484.45, -184474.94, -184641.63, -184646.75, -184629.53, -184581.30, -184709.63, 142372.41, 0.000, 0.000, 0.000, 15:46:34.103, 1578577594103
109, -187500.02, -187500.02, -187500.02, 187500.00, -187500.02, 187500.00, -187500.02, -187500.02, 0.000, 0.000, 0.000, 15:46:34.103, 1578577594103
110, -184488.63, -184479.09, -184645.78, -184650.89, -184633.72, -184585.48, -184713.84, 142325.23, 0.000, 0.000, 0.000, 15:46:34.104, 1578577594104
111, -187500.02, -187500.02, -187500.02, 187500.00, -187500.02, 187500.00, -187500.02, -187500.02, 0.000, 0.000, 0.000, 15:46:34.104, 1578577594104
112, -184489.22, -184479.63, -184646.33, -184651.44, -184634.17, -184585.95, -184714.36, 142278.66, 0.000, 0.000, 0.000, 15:46:34.104, 1578577594104
113, -187500.02, -187500.02, -187500.02, 187500.00, -187500.02, 187500.00, -187500.02, -187500.02, 0.000, 0.000, 0.000, 15:46:34.104, 1578577594104
114, -184496.41, -184486.80, -184653.56, -184658.73, -184641.47, -184593.11, -184721.72, 142238.16, -0.020, -0.014, 0.974, 15:46:34.104, 1578577594104
115, -187500.02, -187500.02, -187500.02, 187500.00, -187500.02, 187500.00, -187500.02, -187500.02, 0.000, 0.000, 0.000, 15:46:34.104, 1578577594104
116, -184500.36, -184490.83, -184657.59, -184662.75, -184645.45, -184597.16, -184725.69, 142190.55, 0.000, 0.000, 0.000, 15:46:34.104, 1578577594104
117, -187500.02, -187500.02, -187500.02, 187500.00, -187500.02, 187500.00, -187500.02, -187500.02, 0.000, 0.000, 0.000, 15:46:34.104, 1578577594104
118, -184503.63, -184494.16, -184660.77, -184665.97, -184648.73, -184600.45, -184728.89, 142150.55, 0.000, 0.000, 0.000, 15:46:34.104, 1578577594104
119, -187500.02, -187500.02, -187500.02, 187500.00, -187500.02, 187500.00, -187500.02, -187500.02, 0.000, 0.000, 0.000, 15:46:34.104, 1578577594104
120, -184505.98, -184496.44, -184663.13, -184668.30, -184651.06, -184602.81, -184731.19, 142112.00, 0.000, 0.000, 0.000, 15:46:34.104, 1578577594104
121, -187500.02, -187500.02, -187500.02, 187500.00, -187500.02, 187500.00, -187500.02, -187500.02, 0.000, 0.000, 0.000, 15:46:34.574, 1578577594574
122, -184507.09, -184497.55, -184664.27, -184669.44, -184652.20, -184603.91, -184732.36, 142073.09, 0.000, 0.000, 0.000, 15:46:34.574, 1578577594574
123, -187500.02, -187500.02, -187500.02, 187500.00, -187500.02, 187500.00, -187500.02, -187500.02, 0.000, 0.000, 0.000, 15:46:34.575, 1578577594575
124, -184508.23, -184498.75, -184665.44, -184670.58, -184653.39, -184605.20, -184733.52, 142038.61, -0.016, -0.016, 0.982, 15:46:34.575, 1578577594575
125, -187500.02, -187500.02, -187500.02, 187500.00, -187500.02, 187500.00, -187500.02, -187500.02, 0.000, 0.000, 0.000, 15:46:34.575, 1578577594575
126, -184512.42, -184502.92, -184669.44, -184674.70, -184657.41, -184609.20, -184737.56, 142001.80, 0.000, 0.000, 0.000, 15:46:34.575, 1578577594575
127, -187500.02, -187500.02, -187500.02, 187500.00, -187500.02, 187500.00, -187500.02, -187500.02, 0.000, 0.000, 0.000, 15:46:34.575, 1578577594575
128, -184513.67, -184504.17, -184670.69, -184675.89, -184658.73, -184610.42, -184738.84, 141969.63, 0.000, 0.000, 0.000, 15:46:34.575, 1578577594575
129, -187500.02, -187500.02, -187500.02, 187500.00, -187500.02, 187500.00, -187500.02, -187500.02, 0.000, 0.000, 0.000, 15:46:34.575, 1578577594575
130, -184516.23, -184506.77, -184673.38, -184678.58, -184661.39, -184613.05, -184741.45, 141932.77, 0.000, 0.000, 0.000, 15:46:34.575, 1578577594575
131, -187500.02, -187500.02, -187500.02, 187500.00, -187500.02, 187500.00, -187500.02, -187500.02, 0.000, 0.000, 0.000, 15:46:34.575, 1578577594575
132, -184519.44, -184510.00, -184676.56, -184681.73, -184664.58, -184616.19, -184744.61, 141889.50, 0.000, 0.000, 0.000, 15:46:34.575, 1578577594575
133, -187500.02, -187500.02, -187500.02, 187500.00, -187500.02, 187500.00, -187500.02, -187500.02, -0.018, -0.016, 0.982, 15:46:34.575, 1578577594575
134, -184522.61, -184513.13, -184679.72, -184684.80, -184667.67, -184619.34, -184747.72, 141848.08, 0.000, 0.000, 0.000, 15:46:34.575, 1578577594575
135, -187500.02, -187500.02, -187500.02, 187500.00, -187500.02, 187500.00, -187500.02, -187500.02, 0.000, 0.000, 0.000, 15:46:34.575, 1578577594575
136, -184526.45, -184516.91, -184683.52, -184688.66, -184671.45, -184623.08, -184751.48, 141804.53, 0.000, 0.000, 0.000, 15:46:34.575, 1578577594575
137, -187500.02, -187500.02, -187500.02, 187500.00, -187500.02, 187500.00, -187500.02, -187500.02, 0.000, 0.000, 0.000, 15:46:34.575, 1578577594575
138, -184528.83, -184519.34, -184685.86, -184691.11, -184673.86, -184625.66, -184753.92, 141764.19, 0.000, 0.000, 0.000, 15:46:34.575, 1578577594575
139, -187500.02, -187500.02, -187500.02, 187500.00, -187500.02, 187500.00, -187500.02, -187500.02, 0.000, 0.000, 0.000, 15:46:34.576, 1578577594576
140, -184533.52, -184524.03, -184690.61, -184695.83, -184678.56, -184630.28, -184758.69, 141720.38, 0.000, 0.000, 0.000, 15:46:34.576, 1578577594576
141, -187500.02, -187500.02, -187500.02, 187500.00, -187500.02, 187500.00, -187500.02, -187500.02, 0.000, 0.000, 0.000, 15:46:34.576, 1578577594576
142, -184536.17, -184526.50, -184693.20, -184698.47, -184681.17, -184632.91, -184761.34, 141676.02, 0.000, 0.000, 0.000, 15:46:34.576, 1578577594576
143, -187500.02, -187500.02, -187500.02, 187500.00, -187500.02, 187500.00, -187500.02, -187500.02, -0.018, -0.014, 0.982, 15:46:34.576, 1578577594576
144, -184538.66, -184529.05, -184695.61, -184700.91, -184683.72, -184635.39, -184763.78, 141637.41, 0.000, 0.000, 0.000, 15:46:34.576, 1578577594576
145, -187500.02, -187500.02, -187500.02, 187500.00, -187500.02, 187500.00, -187500.02, -187500.02, 0.000, 0.000, 0.000, 15:46:34.576, 1578577594576
146, -184543.89, -184534.23, -184700.81, -184706.11, -184688.91, -184640.67, -184768.97, 141593.02, 0.000, 0.000, 0.000, 15:46:34.576, 1578577594576
147, -187500.02, -187500.02, -187500.02, 187500.00, -187500.02, 187500.00, -187500.02, -187500.02, 0.000, 0.000, 0.000, 15:46:34.576, 1578577594576
148, -184545.41, -184535.73, -184702.31, -184707.55, -184690.33, -184642.09, -184770.48, 141551.88, 0.000, 0.000, 0.000, 15:46:34.576, 1578577594576
149, -187500.02, -187500.02, -187500.02, 187500.00, -187500.02, 187500.00, -187500.02, -187500.02, 0.000, 0.000, 0.000, 15:46:34.576, 1578577594576
150, -184549.72, -184540.11, -184706.73, -184711.91, -184694.73, -184646.39, -184774.80, 141507.25, 0.000, 0.000, 0.000, 15:46:34.576, 1578577594576
151, -187500.02, -187500.02, -187500.02, 187500.00, -187500.02, 187500.00, -187500.02, -187500.02, 0.000, 0.000, 0.000, 15:46:34.576, 1578577594576
152, -184554.61, -184545.14, -184711.70, -184716.80, -184699.67, -184651.33, -184779.67, 141467.84, 0.000, 0.000, 0.000, 15:46:34.576, 1578577594576
153, -187500.02, -187500.02, -187500.02, 187500.00, -187500.02, 187500.00, -187500.02, -187500.02, -0.016, -0.014, 0.976, 15:46:34.576, 1578577594576
154, -184557.19, -184547.69, -184714.23, -184719.41, -184702.22, -184653.92, -184782.31, 141431.38, 0.000, 0.000, 0.000, 15:46:34.577, 1578577594577
155, -187500.02, -187500.02, -187500.02, 187500.00, -187500.02, 187500.00, -187500.02, -187500.02, 0.000, 0.000, 0.000, 15:46:34.577, 1578577594577
156, -184559.80, -184550.34, -184716.86, -184722.00, -184704.84, -184656.50, -184785.00, 141387.16, 0.000, 0.000, 0.000, 15:46:34.577, 1578577594577
157, -187500.02, -187500.02, -187500.02, 187500.00, -187500.02, 187500.00, -187500.02, -187500.02, 0.000, 0.000, 0.000, 15:46:34.577, 1578577594577
158, -184559.78, -184550.23, -184716.89, -184722.03, -184704.89, -184656.58, -184785.03, 141349.14, 0.000, 0.000, 0.000, 15:46:34.577, 1578577594577
159, -187500.02, -187500.02, -187500.02, 187500.00, -187500.02, 187500.00, -187500.02, -187500.02, 0.000, 0.000, 0.000, 15:46:34.577, 1578577594577
160, -184564.56, -184555.00, -184721.61, -184726.81, -184709.61, -184661.41, -184789.73, 141310.06, 0.000, 0.000, 0.000, 15:46:34.577, 1578577594577
161, -187500.02, -187500.02, -187500.02, 187500.00, -187500.02, 187500.00, -187500.02, -187500.02, 0.000, 0.000, 0.000, 15:46:34.577, 1578577594577
162, -184568.81, -184559.27, -184725.78, -184730.97, -184713.77, -184665.48, -184794.03, 141272.30, 0.000, 0.000, 0.000, 15:46:34.577, 1578577594577
163, -187500.02, -187500.02, -187500.02, 187500.00, -187500.02, 187500.00, -187500.02, -187500.02, -0.012, -0.016, 1.024, 15:46:34.577, 1578577594577
164, -184571.25, -184561.80, -184728.27, -184733.45, -184716.20, -184667.92, -184796.50, 141235.27, 0.000, 0.000, 0.000, 15:46:34.577, 1578577594577
165, -187500.02, -187500.02, -187500.02, 187500.00, -187500.02, 187500.00, -187500.02, -187500.02, 0.000, 0.000, 0.000, 15:46:34.577, 1578577594577
166, -184575.80, -184566.23, -184732.78, -184737.91, -184720.70, -184672.47, -184801.00, 141190.89, 0.000, 0.000, 0.000, 15:46:34.577, 1578577594577
167, -187500.02, -187500.02, -187500.02, 187500.00, -187500.02, 187500.00, -187500.02, -187500.02, 0.000, 0.000, 0.000, 15:46:34.577, 1578577594577
168, -184579.20, -184569.59, -184736.11, -184741.31, -184724.11, -184675.83, -184804.33, 141153.31, 0.000, 0.000, 0.000, 15:46:34.577, 1578577594577
169, -187500.02, -187500.02, -187500.02, 187500.00, -187500.02, 187500.00, -187500.02, -187500.02, 0.000, 0.000, 0.000, 15:46:34.578, 1578577594578
170, -184580.20, -184570.63, -184737.16, -184742.41, -184725.16, -184676.86, -184805.30, 141114.97, 0.000, 0.000, 0.000, 15:46:34.578, 1578577594578
171, -187500.02, -187500.02, -187500.02, 187500.00, -187500.02, 187500.00, -187500.02, -187500.02, 0.000, 0.000, 0.000, 15:46:34.578, 1578577594578
172, -184584.13, -184574.48, -184741.09, -184746.34, -184729.09, -184680.77, -184809.27, 141073.50, -0.002, -0.018, 0.910, 15:46:34.578, 1578577594578
173, -187500.02, -187500.02, -187500.02, 187500.00, -187500.02, 187500.00, -187500.02, -187500.02, 0.000, 0.000, 0.000, 15:46:34.578, 1578577594578
174, -184586.75, -184577.28, -184743.80, -184748.83, -184731.73, -184683.34, -184811.97, 141035.03, 0.000, 0.000, 0.000, 15:46:34.578, 1578577594578
175, -187500.02, -187500.02, -187500.02, 187500.00, -187500.02, 187500.00, -187500.02, -187500.02, 0.000, 0.000, 0.000, 15:46:34.578, 1578577594578
176, -184590.58, -184580.94, -184747.52, -184752.61, -184735.48, -184687.16, -184815.70, 140994.02, 0.000, 0.000, 0.000, 15:46:34.578, 1578577594578
177, -187500.02, -187500.02, -187500.02, 187500.00, -187500.02, 187500.00, -187500.02, -187500.02, 0.000, 0.000, 0.000, 15:46:34.578, 1578577594578
178, -184593.69, -184584.19, -184750.69, -184755.80, -184738.59, -184690.31, -184818.91, 140956.47, 0.000, 0.000, 0.000, 15:46:34.578, 1578577594578
179, -187500.02, -187500.02, -187500.02, 187500.00, -187500.02, 187500.00, -187500.02, -187500.02, 0.000, 0.000, 0.000, 15:46:34.578, 1578577594578
180, -184598.33, -184588.80, -184755.33, -184760.41, -184743.33, -184695.00, -184823.55, 140915.50, 0.000, 0.000, 0.000, 15:46:34.578, 1578577594578
181, -187500.02, -187500.02, -187500.02, 187500.00, -187500.02, 187500.00, -187500.02, -187500.02, 0.000, 0.000, 0.000, 15:46:34.578, 1578577594578
182, -184601.33, -184591.86, -184758.28, -184763.42, -184746.27, -184698.02, -184826.64, 140878.39, -0.010, -0.010, 0.932, 15:46:34.578, 1578577594578
183, -187500.02, -187500.02, -187500.02, 187500.00, -187500.02, 187500.00, -187500.02, -187500.02, 0.000, 0.000, 0.000, 15:46:34.578, 1578577594578
184, -184600.44, -184590.83, -184757.34, -184762.47, -184745.25, -184697.06, -184825.56, 140843.44, 0.000, 0.000, 0.000, 15:46:34.578, 1578577594578
185, -187500.02, -187500.02, -187500.02, 187500.00, -187500.02, 187500.00, -187500.02, -187500.02, 0.000, 0.000, 0.000, 15:46:34.578, 1578577594578
186, -184606.84, -184597.27, -184763.67, -184768.88, -184751.67, -184703.52, -184831.98, 140802.06, 0.000, 0.000, 0.000, 15:46:34.578, 1578577594578
187, -187500.02, -187500.02, -187500.02, 187500.00, -187500.02, 187500.00, -187500.02, -187500.02, 0.000, 0.000, 0.000, 15:46:34.578, 1578577594578
188, -184610.61, -184601.05, -184767.42, -184772.56, -184755.48, -184707.33, -184835.80, 140762.86, 0.000, 0.000, 0.000, 15:46:34.578, 1578577594578
189, -187500.02, -187500.02, -187500.02, 187500.00, -187500.02, 187500.00, -187500.02, -187500.02, 0.000, 0.000, 0.000, 15:46:34.579, 1578577594579
190, -184613.13, -184603.50, -184770.02, -184775.06, -184758.00, -184709.73, -184838.33, 140722.64, 0.000, 0.000, 0.000, 15:46:34.579, 1578577594579
191, -187500.02, -187500.02, -187500.02, 187500.00, -187500.02, 187500.00, -187500.02, -187500.02, 0.000, 0.000, 0.000, 15:46:34.579, 1578577594579
192, -184617.16, -184607.56, -184774.11, -184779.14, -184762.00, -184713.72, -184842.39, 140683.55, -0.018, -0.004, 0.922, 15:46:34.579, 1578577594579
193, -187500.02, -187500.02, -187500.02, 187500.00, -187500.02, 187500.00, -187500.02, -187500.02, 0.000, 0.000, 0.000, 15:46:34.579, 1578577594579
194, -184619.69, -184610.16, -184776.56, -184781.84, -184764.47, -184716.42, -184844.92, 140647.09, 0.000, 0.000, 0.000, 15:46:34.579, 1578577594579
195, -187500.02, -187500.02, -187500.02, 187500.00, -187500.02, 187500.00, -187500.02, -187500.02, 0.000, 0.000, 0.000, 15:46:34.579, 1578577594579
196, -184622.59, -184613.05, -184779.47, -184784.72, -184767.41, -184719.28, -184847.88, 140604.11, 0.000, 0.000, 0.000, 15:46:34.579, 1578577594579
197, -187500.02, -187500.02, -187500.02, 187500.00, -187500.02, 187500.00, -187500.02, -187500.02, 0.000, 0.000, 0.000, 15:46:34.579, 1578577594579
198, -184625.84, -184616.42, -184782.83, -184787.97, -184770.72, -184722.52, -184851.17, 140565.78, 0.000, 0.000, 0.000, 15:46:34.579, 1578577594579
199, -187500.02, -187500.02, -187500.02, 187500.00, -187500.02, 187500.00, -187500.02, -187500.02, 0.000, 0.000, 0.000, 15:46:34.579, 1578577594579
200, -184628.38, -184618.83, -184785.27, -184790.42, -184773.17, -184725.05, -184853.64, 140527.56, 0.000, 0.000, 0.000, 15:46:34.579, 1578577594579
201, -187500.02, -187500.02, -187500.02, 187500.00, -187500.02, 187500.00, -187500.02, -187500.02, 0.000, 0.000, 0.000, 15:46:34.579, 1578577594579
202, -184634.45, -184624.95, -184791.34, -184796.48, -184779.30, -184731.08, -184859.72, 140489.14, -0.020, -0.014, 0.944, 15:46:34.579, 1578577594579
203, -187500.02, -187500.02, -187500.02, 187500.00, -187500.02, 187500.00, -187500.02, -187500.02, 0.000, 0.000, 0.000, 15:46:34.579, 1578577594579
204, -184634.55, -184624.94, -184791.30, -184796.48, -184779.30, -184731.06, -184859.73, 140453.16, 0.000, 0.000, 0.000, 15:46:34.580, 1578577594580
205, -187500.02, -187500.02, -187500.02, 187500.00, -187500.02, 187500.00, -187500.02, -187500.02, 0.000, 0.000, 0.000, 15:46:34.580, 1578577594580
206, -184634.45, -184624.80, -184791.20, -184796.39, -184779.19, -184730.97, -184859.69, 140410.72, 0.000, 0.000, 0.000, 15:46:34.580, 1578577594580
207, -187500.02, -187500.02, -187500.02, 187500.00, -187500.02, 187500.00, -187500.02, -187500.02, 0.000, 0.000, 0.000, 15:46:34.581, 1578577594581
208, -184638.80, -184629.38, -184795.61, -184800.89, -184783.56, -184735.42, -184864.03, 140374.77, 0.000, 0.000, 0.000, 15:46:34.581, 1578577594581
209, -187500.02, -187500.02, -187500.02, 187500.00, -187500.02, 187500.00, -187500.02, -187500.02, 0.000, 0.000, 0.000, 15:46:34.581, 1578577594581
210, -184644.64, -184635.19, -184801.58, -184806.72, -184789.44, -184741.28, -184869.94, 140336.66, 0.000, 0.000, 0.000, 15:46:34.581, 1578577594581
211, -187500.02, -187500.02, -187500.02, 187500.00, -187500.02, 187500.00, -187500.02, -187500.02, -0.020, -0.008, 0.938, 15:46:34.581, 1578577594581
212, -184646.23, -184636.67, -184803.05, -184808.17, -184791.03, -184742.69, -184871.45, 140296.47, 0.000, 0.000, 0.000, 15:46:34.581, 1578577594581
213, -187500.02, -187500.02, -187500.02, 187500.00, -187500.02, 187500.00, -187500.02, -187500.02, 0.000, 0.000, 0.000, 15:46:34.581, 1578577594581
214, -184650.69, -184641.23, -184807.48, -184812.73, -184795.52, -184747.20, -184875.98, 140259.22, 0.000, 0.000, 0.000, 15:46:34.581, 1578577594581
215, -187500.02, -187500.02, -187500.02, 187500.00, -187500.02, 187500.00, -187500.02, -187500.02, 0.000, 0.000, 0.000, 15:46:34.581, 1578577594581
216, -184654.33, -184644.84, -184811.03, -184816.36, -184799.09, -184750.86, -184879.55, 140219.89, 0.000, 0.000, 0.000, 15:46:34.581, 1578577594581
217, -187500.02, -187500.02, -187500.02, 187500.00, -187500.02, 187500.00, -187500.02, -187500.02, 0.000, 0.000, 0.000, 15:46:34.581, 1578577594581
218, -184657.80, -184648.30, -184814.63, -184819.89, -184802.58, -184754.39, -184883.13, 140183.70, 0.000, 0.000, 0.000, 15:46:34.581, 1578577594581
219, -187500.02, -187500.02, -187500.02, 187500.00, -187500.02, 187500.00, -187500.02, -187500.02, 0.000, 0.000, 0.000, 15:46:34.581, 1578577594581
220, -184660.16, -184650.66, -184817.11, -184822.30, -184805.02, -184756.77, -184885.63, 140144.42, 0.000, 0.000, 0.000, 15:46:34.582, 1578577594582
221, -187500.02, -187500.02, -187500.02, 187500.00, -187500.02, 187500.00, -187500.02, -187500.02, -0.012, -0.008, 0.962, 15:46:34.582, 1578577594582
222, -184666.39, -184656.88, -184823.16, -184828.41, -184811.14, -184763.00, -184891.80, 140103.05, 0.000, 0.000, 0.000, 15:46:34.582, 1578577594582
223, -187500.02, -187500.02, -187500.02, 187500.00, -187500.02, 187500.00, -187500.02, -187500.02, 0.000, 0.000, 0.000, 15:46:34.582, 1578577594582
224, -184667.06, -184657.67, -184823.94, -184829.14, -184811.86, -184763.72, -184892.47, 140069.03, 0.000, 0.000, 0.000, 15:46:34.582, 1578577594582
225, -187500.02, -187500.02, -187500.02, 187500.00, -187500.02, 187500.00, -187500.02, -187500.02, 0.000, 0.000, 0.000, 15:46:34.582, 1578577594582
226, -184670.53, -184661.19, -184827.42, -184832.64, -184815.44, -184767.22, -184895.97, 140030.03, 0.000, 0.000, 0.000, 15:46:34.582, 1578577594582
227, -187500.02, -187500.02, -187500.02, 187500.00, -187500.02, 187500.00, -187500.02, -187500.02, 0.000, 0.000, 0.000, 15:46:34.582, 1578577594582
228, -184674.98, -184665.53, -184831.75, -184837.08, -184819.77, -184771.53, -184900.38, 139990.38, 0.000, 0.000, 0.000, 15:46:34.582, 1578577594582
229, -187500.02, -187500.02, -187500.02, 187500.00, -187500.02, 187500.00, -187500.02, -187500.02, 0.000, 0.000, 0.000, 15:46:34.582, 1578577594582
230, -184678.72, -184669.23, -184835.52, -184840.88, -184823.55, -184775.34, -184904.08, 139952.34, 0.000, 0.000, 0.000, 15:46:34.582, 1578577594582
231, -187500.02, -187500.02, -187500.02, 187500.00, -187500.02, 187500.00, -187500.02, -187500.02, -0.020, -0.010, 0.960, 15:46:34.582, 1578577594582
232, -184680.91, -184671.42, -184837.67, -184842.95, -184825.77, -184777.59, -184906.16, 139914.58, 0.000, 0.000, 0.000, 15:46:34.582, 1578577594582
233, -187500.02, -187500.02, -187500.02, 187500.00, -187500.02, 187500.00, -187500.02, -187500.02, 0.000, 0.000, 0.000, 15:46:34.582, 1578577594582
234, -184686.44, -184676.81, -184843.13, -184848.31, -184831.23, -184783.00, -184911.61, 139880.63, 0.000, 0.000, 0.000, 15:46:34.582, 1578577594582
235, -187500.02, -187500.02, -187500.02, 187500.00, -187500.02, 187500.00, -187500.02, -187500.02, 0.000, 0.000, 0.000, 15:46:34.582, 1578577594582
236, -184689.08, -184679.56, -184845.88, -184851.09, -184833.94, -184785.73, -184914.44, 139838.13, 0.000, 0.000, 0.000, 15:46:34.582, 1578577594582
237, -187500.02, -187500.02, -187500.02, 187500.00, -187500.02, 187500.00, -187500.02, -187500.02, 0.000, 0.000, 0.000, 15:46:34.582, 1578577594582
238, -184690.92, -184681.38, -184847.67, -184852.86, -184835.70, -184787.56, -184916.20, 139802.25, 0.000, 0.000, 0.000, 15:46:34.583, 1578577594583
239, -187500.02, -187500.02, -187500.02, 187500.00, -187500.02, 187500.00, -187500.02, -187500.02, 0.000, 0.000, 0.000, 15:46:34.583, 1578577594583
240, -184695.13, -184685.58, -184851.88, -184856.97, -184839.88, -184791.63, -184920.36, 139768.14, 0.000, 0.000, 0.000, 15:46:34.583, 1578577594583
241, -187500.02, -187500.02, -187500.02, 187500.00, -187500.02, 187500.00, -187500.02, -187500.02, -0.026, -0.022, 0.962, 15:46:35.058, 1578577595058
242, -184697.31, -184687.77, -184854.06, -184859.20, -184842.08, -184793.83, -184922.59, 139731.23, 0.000, 0.000, 0.000, 15:46:35.058, 1578577595058
243, -187500.02, -187500.02, -187500.02, 187500.00, -187500.02, 187500.00, -187500.02, -187500.02, 0.000, 0.000, 0.000, 15:46:35.058, 1578577595058
244, -184699.97, -184690.47, -184856.83, -184861.89, -184844.77, -184796.59, -184925.30, 139694.36, 0.000, 0.000, 0.000, 15:46:35.058, 1578577595058
245, -187500.02, -187500.02, -187500.02, 187500.00, -187500.02, 187500.00, -187500.02, -187500.02, 0.000, 0.000, 0.000, 15:46:35.058, 1578577595058
246, -184704.27, -184694.72, -184861.08, -184866.16, -184849.09, -184800.94, -184929.55, 139654.28, 0.000, 0.000, 0.000, 15:46:35.058, 1578577595058
247, -187500.02, -187500.02, -187500.02, 187500.00, -187500.02, 187500.00, -187500.02, -187500.02, 0.000, 0.000, 0.000, 15:46:35.058, 1578577595058
248, -184708.22, -184698.67, -184864.92, -184870.16, -184853.09, -184804.86, -184933.52, 139619.61, 0.000, 0.000, 0.000, 15:46:35.058, 1578577595058
249, -187500.02, -187500.02, -187500.02, 187500.00, -187500.02, 187500.00, -187500.02, -187500.02, 0.000, 0.000, 0.000, 15:46:35.059, 1578577595059
250, -184710.73, -184701.22, -184867.52, -184872.61, -184855.61, -184807.38, -184936.05, 139585.67, 0.000, 0.000, 0.000, 15:46:35.059, 1578577595059
251, -187500.02, -187500.02, -187500.02, 187500.00, -187500.02, 187500.00, -187500.02, -187500.02, -0.018, -0.024, 0.964, 15:46:35.059, 1578577595059
252, -184716.20, -184706.72, -184872.92, -184878.11, -184860.98, -184812.75, -184941.50, 139548.47, 0.000, 0.000, 0.000, 15:46:35.059, 1578577595059
253, -187500.02, -187500.02, -187500.02, 187500.00, -187500.02, 187500.00, -187500.02, -187500.02, 0.000, 0.000, 0.000, 15:46:35.059, 1578577595059
254, -184718.59, -184709.05, -184875.25, -184880.45, -184863.38, -184815.17, -184943.95, 139515.27, 0.000, 0.000, 0.000, 15:46:35.059, 1578577595059
255, -187500.02, -187500.02, -187500.02, 187500.00, -187500.02, 187500.00, -187500.02, -187500.02, 0.000, 0.000, 0.000, 15:46:35.059, 1578577595059
0, -184721.11, -184711.66, -184877.89, -184882.98, -184865.80, -184817.72, -184946.47, 139479.55, 0.000, 0.000, 0.000, 15:46:35.059, 1578577595059
1, -187500.02, -187500.02, -187500.02, 187500.00, -187500.02, 187500.00, -187500.02, -187500.02, 0.000, 0.000, 0.000, 15:46:35.059, 1578577595059
2, -184722.34, -184712.89, -184879.16, -184884.23, -184867.03, -184818.92, -184947.67, 139448.38, 0.000, 0.000, 0.000, 15:46:35.059, 1578577595059
3, -187500.02, -187500.02, -187500.02, 187500.00, -187500.02, 187500.00, -187500.02, -187500.02, 0.000, 0.000, 0.000, 15:46:35.059, 1578577595059
4, -184727.22, -184717.77, -184883.98, -184889.11, -184871.94, -184823.81, -184952.61, 139412.08, -0.014, -0.026, 0.974, 15:46:35.059, 1578577595059
5, -187500.02, -187500.02, -187500.02, 187500.00, -187500.02, 187500.00, -187500.02, -187500.02, 0.000, 0.000, 0.000, 15:46:35.060, 1578577595060
6, -184734.09, -184724.52, -184890.81, -184895.88, -184878.73, -184830.59, -184959.38, 139372.59, 0.000, 0.000, 0.000, 15:46:35.060, 1578577595060
7, -187500.02, -187500.02, -187500.02, 187500.00, -187500.02, 187500.00, -187500.02, -187500.02, 0.000, 0.000, 0.000, 15:46:35.060, 1578577595060
8, -184735.95, -184726.36, -184892.66, -184897.77, -184880.61, -184832.41, -184961.28, 139339.41, 0.000, 0.000, 0.000, 15:46:35.060, 1578577595060
9, -187500.02, -187500.02, -187500.02, 187500.00, -187500.02, 187500.00, -187500.02, -187500.02, 0.000, 0.000, 0.000, 15:46:35.060, 1578577595060
10, -184739.84, -184730.23, -184896.48, -184901.58, -184884.50, -184836.31, -184965.17, 139301.52, 0.000, 0.000, 0.000, 15:46:35.060, 1578577595060
11, -187500.02, -187500.02, -187500.02, 187500.00, -187500.02, 187500.00, -187500.02, -187500.02, 0.000, 0.000, 0.000, 15:46:35.060, 1578577595060
12, -184742.02, -184732.41, -184898.72, -184903.84, -184886.72, -184838.42, -184967.30, 139264.66, 0.000, 0.000, 0.000, 15:46:35.060, 1578577595060
13, -187500.02, -187500.02, -187500.02, 187500.00, -187500.02, 187500.00, -187500.02, -187500.02, 0.000, 0.000, 0.000, 15:46:35.060, 1578577595060
14, -184745.92, -184736.27, -184902.61, -184907.70, -184890.67, -184842.38, -184971.25, 139228.97, -0.016, -0.024, 0.974, 15:46:35.060, 1578577595060
15, -187500.02, -187500.02, -187500.02, 187500.00, -187500.02, 187500.00, -187500.02, -187500.02, 0.000, 0.000, 0.000, 15:46:35.060, 1578577595060
16, -184748.69, -184739.06, -184905.38, -184910.55, -184893.41, -184845.14, -184973.95, 139189.81, 0.000, 0.000, 0.000, 15:46:35.061, 1578577595061
17, -187500.02, -187500.02, -187500.02, 187500.00, -187500.02, 187500.00, -187500.02, -187500.02, 0.000, 0.000, 0.000, 15:46:35.061, 1578577595061
18, -184751.75, -184742.22, -184908.38, -184913.56, -184896.39, -184848.19, -184977.02, 139155.19, 0.000, 0.000, 0.000, 15:46:35.061, 1578577595061
19, -187500.02, -187500.02, -187500.02, 187500.00, -187500.02, 187500.00, -187500.02, -187500.02, 0.000, 0.000, 0.000, 15:46:35.061, 1578577595061
20, -184755.27, -184745.70, -184911.84, -184917.03, -184899.88, -184851.73, -184980.59, 139114.84, 0.000, 0.000, 0.000, 15:46:35.061, 1578577595061
21, -187500.02, -187500.02, -187500.02, 187500.00, -187500.02, 187500.00, -187500.02, -187500.02, 0.000, 0.000, 0.000, 15:46:35.061, 1578577595061
22, -184759.64, -184750.19, -184916.36, -184921.56, -184904.36, -184856.16, -184985.11, 139078.88, 0.000, 0.000, 0.000, 15:46:35.061, 1578577595061
23, -187500.02, -187500.02, -187500.02, 187500.00, -187500.02, 187500.00, -187500.02, -187500.02, 0.000, 0.000, 0.000, 15:46:35.061, 1578577595061
24, -184762.28, -184752.72, -184918.88, -184924.11, -184907.02, -184858.78, -184987.64, 139041.88, -0.016, -0.018, 0.970, 15:46:35.061, 1578577595061
25, -187500.02, -187500.02, -187500.02, 187500.00, -187500.02, 187500.00, -187500.02, -187500.02, 0.000, 0.000, 0.000, 15:46:35.061, 1578577595061
26, -184767.56, -184757.97, -184924.17, -184929.28, -184912.22, -184863.94, -184992.86, 139003.45, 0.000, 0.000, 0.000, 15:46:35.062, 1578577595062
27, -187500.02, -187500.02, -187500.02, 187500.00, -187500.02, 187500.00, -187500.02, -187500.02, 0.000, 0.000, 0.000, 15:46:35.062, 1578577595062
28, -184768.92, -184759.30, -184925.41, -184930.64, -184913.50, -184865.28, -184994.19, 138965.44, 0.000, 0.000, 0.000, 15:46:35.062, 1578577595062
29, -187500.02, -187500.02, -187500.02, 187500.00, -187500.02, 187500.00, -187500.02, -187500.02, 0.000, 0.000, 0.000, 15:46:35.062, 1578577595062
30, -184771.84, -184762.33, -184928.50, -184933.64, -184916.47, -184868.23, -184997.22, 138925.41, 0.000, 0.000, 0.000, 15:46:35.062, 1578577595062
31, -187500.02, -187500.02, -187500.02, 187500.00, -187500.02, 187500.00, -187500.02, -187500.02, 0.000, 0.000, 0.000, 15:46:35.062, 1578577595062
32, -184775.42, -184765.73, -184932.03, -184937.19, -184920.00, -184871.78, -185000.75, 138890.63, 0.000, 0.000, 0.000, 15:46:35.062, 1578577595062
33, -187500.02, -187500.02, -187500.02, 187500.00, -187500.02, 187500.00, -187500.02, -187500.02, 0.000, 0.000, 0.000, 15:46:35.062, 1578577595062
34, -184778.22, -184768.67, -184934.84, -184940.08, -184922.88, -184874.63, -185003.69, 138856.98, -0.016, -0.020, 0.978, 15:46:35.062, 1578577595062
35, -187500.02, -187500.02, -187500.02, 187500.00, -187500.02, 187500.00, -187500.02, -187500.02, 0.000, 0.000, 0.000, 15:46:35.062, 1578577595062
36, -184782.48, -184772.91, -184939.17, -184944.31, -184927.13, -184878.92, -185008.02, 138818.80, 0.000, 0.000, 0.000, 15:46:35.062, 1578577595062
37, -187500.02, -187500.02, -187500.02, 187500.00, -187500.02, 187500.00, -187500.02, -187500.02, 0.000, 0.000, 0.000, 15:46:35.062, 1578577595062
38, -184784.56, -184774.95, -184941.19, -184946.33, -184929.20, -184881.00, -185010.03, 138786.42, 0.000, 0.000, 0.000, 15:46:35.062, 1578577595062
39, -187500.02, -187500.02, -187500.02, 187500.00, -187500.02, 187500.00, -187500.02, -187500.02, 0.000, 0.000, 0.000, 15:46:35.062, 1578577595062
40, -184788.34, -184778.83, -184944.97, -184950.16, -184932.94, -184884.80, -185013.89, 138749.34, 0.000, 0.000, 0.000, 15:46:35.062, 1578577595062
41, -187500.02, -187500.02, -187500.02, 187500.00, -187500.02, 187500.00, -187500.02, -187500.02, 0.000, 0.000, 0.000, 15:46:35.062, 1578577595062
42, -184793.75, -184784.25, -184950.38, -184955.53, -184938.44, -184890.25, -185019.38, 138714.19, 0.000, 0.000, 0.000, 15:46:35.063, 1578577595063
43, -187500.02, -187500.02, -187500.02, 187500.00, -187500.02, 187500.00, -187500.02, -187500.02, -0.018, -0.016, 0.976, 15:46:35.063, 1578577595063
44, -184796.59, -184786.98, -184953.17, -184958.41, -184941.13, -184893.02, -185022.06, 138679.84, 0.000, 0.000, 0.000, 15:46:35.063, 1578577595063
45, -187500.02, -187500.02, -187500.02, 187500.00, -187500.02, 187500.00, -187500.02, -187500.02, 0.000, 0.000, 0.000, 15:46:35.063, 1578577595063
46, -184800.33, -184790.67, -184956.80, -184961.97, -184944.83, -184896.59, -185025.83, 138641.41, 0.000, 0.000, 0.000, 15:46:35.063, 1578577595063
47, -187500.02, -187500.02, -187500.02, 187500.00, -187500.02, 187500.00, -187500.02, -187500.02, 0.000, 0.000, 0.000, 15:46:35.063, 1578577595063
48, -184802.56, -184793.02, -184959.11, -184964.25, -184947.16, -184898.83, -185028.06, 138609.63, 0.000, 0.000, 0.000, 15:46:35.063, 1578577595063
49, -187500.02, -187500.02, -187500.02, 187500.00, -187500.02, 187500.00, -187500.02, -187500.02, 0.000, 0.000, 0.000, 15:46:35.063, 1578577595063
50, -184805.09, -184795.56, -184961.70, -184966.92, -184949.77, -184901.47, -185030.75, 138572.34, 0.000, 0.000, 0.000, 15:46:35.063, 1578577595063
51, -187500.02, -187500.02, -187500.02, 187500.00, -187500.02, 187500.00, -187500.02, -187500.02, 0.000, 0.000, 0.000, 15:46:35.063, 1578577595063
52, -184810.50, -184800.86, -184967.16, -184972.19, -184955.16, -184906.83, -185036.16, 138537.38, 0.000, 0.000, 0.000, 15:46:35.063, 1578577595063
53, -187500.02, -187500.02, -187500.02, 187500.00, -187500.02, 187500.00, -187500.02, -187500.02, -0.018, -0.012, 0.978, 15:46:35.063, 1578577595063
54, -184811.23, -184801.59, -184967.83, -184972.92, -184955.89, -184907.55, -185036.73, 138498.98, 0.000, 0.000, 0.000, 15:46:35.063, 1578577595063
55, -187500.02, -187500.02, -187500.02, 187500.00, -187500.02, 187500.00, -187500.02, -187500.02, 0.000, 0.000, 0.000, 15:46:35.063, 1578577595063
56, -184814.19, -184804.69, -184970.78, -184975.94, -184958.84, -184910.50, -185039.83, 138461.11, 0.000, 0.000, 0.000, 15:46:35.063, 1578577595063
57, -187500.02, -187500.02, -187500.02, 187500.00, -187500.02, 187500.00, -187500.02, -187500.02, 0.000, 0.000, 0.000, 15:46:35.064, 1578577595064
58, -184818.13, -184808.55, -184974.73, -184979.92, -184962.73, -184914.52, -185043.72, 138429.53, 0.000, 0.000, 0.000, 15:46:35.064, 1578577595064
59, -187500.02, -187500.02, -187500.02, 187500.00, -187500.02, 187500.00, -187500.02, -187500.02, 0.000, 0.000, 0.000, 15:46:35.064, 1578577595064
60, -184825.05, -184815.42, -184981.56, -184986.70, -184969.55, -184921.31, -185050.53, 138392.72, 0.000, 0.000, 0.000, 15:46:35.064, 1578577595064
61, -187500.02, -187500.02, -187500.02, 187500.00, -187500.02, 187500.00, -187500.02, -187500.02, 0.000, 0.000, 0.000, 15:46:35.064, 1578577595064
62, -184828.17, -184818.56, -184984.66, -184989.84, -184972.69, -184924.42, -185053.64, 138358.55, 0.000, 0.000, 0.000, 15:46:35.064, 1578577595064
63, -187500.02, -187500.02, -187500.02, 187500.00, -187500.02, 187500.00, -187500.02, -187500.02, -0.024, -0.020, 0.972, 15:46:35.064, 1578577595064
64, -184830.81, -184821.34, -184987.36, -184992.55, -184975.39, -184927.27, -185056.34, 138323.23, 0.000, 0.000, 0.000, 15:46:35.064, 1578577595064
65, -187500.02, -187500.02, -187500.02, 187500.00, -187500.02, 187500.00, -187500.02, -187500.02, 0.000, 0.000, 0.000, 15:46:35.064, 1578577595064
66, -184835.44, -184825.92, -184991.95, -184997.11, -184979.98, -184931.78, -185060.91, 138285.91, 0.000, 0.000, 0.000, 15:46:35.064, 1578577595064
67, -187500.02, -187500.02, -187500.02, 187500.00, -187500.02, 187500.00, -187500.02, -187500.02, 0.000, 0.000, 0.000, 15:46:35.064, 1578577595064
68, -184836.63, -184826.95, -184992.98, -184998.31, -184981.08, -184932.94, -185062.02, 138251.64, 0.000, 0.000, 0.000, 15:46:35.064, 1578577595064
69, -187500.02, -187500.02, -187500.02, 187500.00, -187500.02, 187500.00, -187500.02, -187500.02, 0.000, 0.000, 0.000, 15:46:35.064, 1578577595064
70, -184840.52, -184830.97, -184997.00, -185002.30, -184985.06, -184936.86, -185066.09, 138212.66, 0.000, 0.000, 0.000, 15:46:35.064, 1578577595064
71, -187500.02, -187500.02, -187500.02, 187500.00, -187500.02, 187500.00, -187500.02, -187500.02, 0.000, 0.000, 0.000, 15:46:35.064, 1578577595064
72, -184843.69, -184834.22, -185000.23, -185005.53, -184988.23, -184940.14, -185069.31, 138178.48, 0.000, 0.000, 0.000, 15:46:35.064, 1578577595064
73, -187500.02, -187500.02, -187500.02, 187500.00, -187500.02, 187500.00, -187500.02, -187500.02, -0.020, -0.016, 0.974, 15:46:35.065, 1578577595065
74, -184847.38, -184837.78, -185003.86, -185009.03, -184991.86, -184943.67, -185072.89, 138143.88, 0.000, 0.000, 0.000, 15:46:35.065, 1578577595065
75, -187500.02, -187500.02, -187500.02, 187500.00, -187500.02, 187500.00, -187500.02, -187500.02, 0.000, 0.000, 0.000, 15:46:35.065, 1578577595065
76, -184852.27, -184842.53, -185008.72, -185013.89, -184996.75, -184948.50, -185077.73, 138104.55, 0.000, 0.000, 0.000, 15:46:35.065, 1578577595065
77, -187500.02, -187500.02, -187500.02, 187500.00, -187500.02, 187500.00, -187500.02, -187500.02, 0.000, 0.000, 0.000, 15:46:35.065, 1578577595065
78, -184853.02, -184843.42, -185009.47, -185014.69, -184997.48, -184949.38, -185078.56, 138069.92, 0.000, 0.000, 0.000, 15:46:35.065, 1578577595065
79, -187500.02, -187500.02, -187500.02, 187500.00, -187500.02, 187500.00, -187500.02, -187500.02, 0.000, 0.000, 0.000, 15:46:35.065, 1578577595065
80, -184856.67, -184847.00, -185013.03, -185018.28, -185001.11, -184952.94, -185082.14, 138033.75, 0.000, 0.000, 0.000, 15:46:35.065, 1578577595065
81, -187500.02, -187500.02, -187500.02, 187500.00, -187500.02, 187500.00, -187500.02, -187500.02, 0.000, 0.000, 0.000, 15:46:35.065, 1578577595065
82, -184860.78, -184851.25, -185017.27, -185022.44, -185005.42, -184957.17, -185086.30, 138000.97, -0.022, -0.022, 0.980, 15:46:35.065, 1578577595065
83, -187500.02, -187500.02, -187500.02, 187500.00, -187500.02, 187500.00, -187500.02, -187500.02, 0.000, 0.000, 0.000, 15:46:35.065, 1578577595065
84, -184865.95, -184856.44, -185022.48, -185027.63, -185010.52, -184962.42, -185091.59, 137963.34, 0.000, 0.000, 0.000, 15:46:35.065, 1578577595065
85, -187500.02, -187500.02, -187500.02, 187500.00, -187500.02, 187500.00, -187500.02, -187500.02, 0.000, 0.000, 0.000, 15:46:35.066, 1578577595066
86, -184867.63, -184858.11, -185024.16, -185029.30, -185012.25, -184964.05, -185093.27, 137924.39, 0.000, 0.000, 0.000, 15:46:35.066, 1578577595066
87, -187500.02, -187500.02, -187500.02, 187500.00, -187500.02, 187500.00, -187500.02, -187500.02, 0.000, 0.000, 0.000, 15:46:35.066, 1578577595066
88, -184871.34, -184861.81, -185027.80, -185032.92, -185015.98, -184967.77, -185096.89, 137893.77, 0.000, 0.000, 0.000, 15:46:35.066, 1578577595066
89, -187500.02, -187500.02, -187500.02, 187500.00, -187500.02, 187500.00, -187500.02, -187500.02, 0.000, 0.000, 0.000, 15:46:35.066, 1578577595066
90, -184875.97, -184866.38, -185032.36, -185037.53, -185020.47, -184972.33, -185101.56, 137855.97, 0.000, 0.000, 0.000, 15:46:35.066, 1578577595066
91, -187500.02, -187500.02, -187500.02, 187500.00, -187500.02, 187500.00, -187500.02, -187500.02, 0.000, 0.000, 0.000, 15:46:35.066, 1578577595066
92, -184877.95, -184868.41, -185034.44, -185039.61, -185022.53, -184974.36, -185103.69, 137819.22, -0.020, -0.018, 0.980, 15:46:35.066, 1578577595066
93, -187500.02, -187500.02, -187500.02, 187500.00, -187500.02, 187500.00, -187500.02, -187500.02, 0.000, 0.000, 0.000, 15:46:35.066, 1578577595066
94, -184883.72, -184874.17, -185040.23, -185045.38, -185028.25, -184980.13, -185109.45, 137780.31, 0.000, 0.000, 0.000, 15:46:35.066, 1578577595066
95, -187500.02, -187500.02, -187500.02, 187500.00, -187500.02, 187500.00, -187500.02, -187500.02, 0.000, 0.000, 0.000, 15:46:35.066, 1578577595066
96, -184886.81, -184877.22, -185043.16, -185048.39, -185031.36, -184983.09, -185112.45, 137743.92, 0.000, 0.000, 0.000, 15:46:35.066, 1578577595066
97, -187500.02, -187500.02, -187500.02, 187500.00, -187500.02, 187500.00, -187500.02, -187500.02, 0.000, 0.000, 0.000, 15:46:35.066, 1578577595066
98, -184888.58, -184879.13, -185044.94, -185050.17, -185033.13, -184984.91, -185114.28, 137710.13, 0.000, 0.000, 0.000, 15:46:35.066, 1578577595066
99, -187500.02, -187500.02, -187500.02, 187500.00, -187500.02, 187500.00, -187500.02, -187500.02, 0.000, 0.000, 0.000, 15:46:35.066, 1578577595066
100, -184892.28, -184882.84, -185048.75, -185054.00, -185036.88, -184988.66, -185117.98, 137670.02, 0.000, 0.000, 0.000, 15:46:35.066, 1578577595066
101, -187500.02, -187500.02, -187500.02, 187500.00, -187500.02, 187500.00, -187500.02, -187500.02, 0.000, 0.000, 0.000, 15:46:35.066, 1578577595066
102, -184894.27, -184884.66, -185050.58, -185055.81, -185038.73, -184990.61, -185119.94, 137630.73, -0.034, -0.022, 0.952, 15:46:35.067, 1578577595067
103, -187500.02, -187500.02, -187500.02, 187500.00, -187500.02, 187500.00, -187500.02, -187500.02, 0.000, 0.000, 0.000, 15:46:35.067, 1578577595067
104, -184895.97, -184886.34, -185052.34, -185057.59, -185040.45, -184992.28, -185121.64, 137596.81, 0.000, 0.000, 0.000, 15:46:35.067, 1578577595067
105, -187500.02, -187500.02, -187500.02, 187500.00, -187500.02, 187500.00, -187500.02, -187500.02, 0.000, 0.000, 0.000, 15:46:35.534, 1578577595534
106, -184900.70, -184891.19, -185057.22, -185062.36, -185045.19, -184997.14, -185126.50, 137558.58, 0.000, 0.000, 0.000, 15:46:35.534, 1578577595534
107, -187500.02, -187500.02, -187500.02, 187500.00, -187500.02, 187500.00, -187500.02, -187500.02, 0.000, 0.000, 0.000, 15:46:35.534, 1578577595534
108, -184904.38, -184894.94, -185060.84, -185065.94, -185048.88, -185000.80, -185130.16, 137524.16, 0.000, 0.000, 0.000, 15:46:35.534, 1578577595534
109, -187500.02, -187500.02, -187500.02, 187500.00, -187500.02, 187500.00, -187500.02, -187500.02, 0.000, 0.000, 0.000, 15:46:35.534, 1578577595534
110, -184908.11, -184898.47, -185064.45, -185069.52, -185052.50, -185004.33, -185133.70, 137485.80, 0.000, 0.000, 0.000, 15:46:35.535, 1578577595535
111, -187500.02, -187500.02, -187500.02, 187500.00, -187500.02, 187500.00, -187500.02, -187500.02, 0.000, 0.000, 0.000, 15:46:35.535, 1578577595535
112, -184914.17, -184904.59, -185070.47, -185075.67, -185058.52, -185010.36, -185139.77, 137450.17, -0.030, -0.014, 0.970, 15:46:35.535, 1578577595535
113, -187500.02, -187500.02, -187500.02, 187500.00, -187500.02, 187500.00, -187500.02, -187500.02, 0.000, 0.000, 0.000, 15:46:35.535, 1578577595535
114, -184916.09, -184906.59, -185072.44, -185077.69, -185060.53, -185012.45, -185141.66, 137417.45, 0.000, 0.000, 0.000, 15:46:35.535, 1578577595535
115, -187500.02, -187500.02, -187500.02, 187500.00, -187500.02, 187500.00, -187500.02, -187500.02, 0.000, 0.000, 0.000, 15:46:35.535, 1578577595535
116, -184918.55, -184909.03, -185074.97, -185080.16, -185062.94, -185014.95, -185144.25, 137377.23, 0.000, 0.000, 0.000, 15:46:35.535, 1578577595535
117, -187500.02, -187500.02, -187500.02, 187500.00, -187500.02, 187500.00, -187500.02, -187500.02, 0.000, 0.000, 0.000, 15:46:35.535, 1578577595535
118, -184921.88, -184912.33, -185078.19, -185083.34, -185066.30, -185018.13, -185147.47, 137341.92, 0.000, 0.000, 0.000, 15:46:35.535, 1578577595535
119, -187500.02, -187500.02, -187500.02, 187500.00, -187500.02, 187500.00, -187500.02, -187500.02, 0.000, 0.000, 0.000, 15:46:35.535, 1578577595535
120, -184925.14, -184915.55, -185081.36, -185086.63, -185069.55, -185021.44, -185150.72, 137304.30, 0.000, 0.000, 0.000, 15:46:35.535, 1578577595535
121, -187500.02, -187500.02, -187500.02, 187500.00, -187500.02, 187500.00, -187500.02, -187500.02, -0.014, -0.014, 0.968, 15:46:35.535, 1578577595535
122, -184928.63, -184919.08, -185084.89, -185090.23, -185073.05, -185024.92, -185154.22, 137267.48, 0.000, 0.000, 0.000, 15:46:35.535, 1578577595535
123, -187500.02, -187500.02, -187500.02, 187500.00, -187500.02, 187500.00, -187500.02, -187500.02, 0.000, 0.000, 0.000, 15:46:35.535, 1578577595535
124, -184930.28, -184920.67, -185086.42, -185091.81, -185074.61, -185026.58, -185155.88, 137230.09, 0.000, 0.000, 0.000, 15:46:35.535, 1578577595535
125, -187500.02, -187500.02, -187500.02, 187500.00, -187500.02, 187500.00, -187500.02, -187500.02, 0.000, 0.000, 0.000, 15:46:35.536, 1578577595536
126, -184936.77, -184927.16, -185092.91, -185098.20, -185081.06, -185033.05, -185162.34, 137187.66, 0.000, 0.000, 0.000, 15:46:35.536, 1578577595536
127, -187500.02, -187500.02, -187500.02, 187500.00, -187500.02, 187500.00, -187500.02, -187500.02, 0.000, 0.000, 0.000, 15:46:35.536, 1578577595536
128, -184940.05, -184930.44, -185096.28, -185101.47, -185084.28, -185036.31, -185165.64, 137154.48, 0.000, 0.000, 0.000, 15:46:35.536, 1578577595536
129, -187500.02, -187500.02, -187500.02, 187500.00, -187500.02, 187500.00, -187500.02, -187500.02, 0.000, 0.000, 0.000, 15:46:35.536, 1578577595536
130, -184944.16, -184934.59, -185100.44, -185105.63, -185088.53, -185040.50, -185169.84, 137114.98, 0.000, 0.000, 0.000, 15:46:35.536, 1578577595536
131, -187500.02, -187500.02, -187500.02, 187500.00, -187500.02, 187500.00, -187500.02, -187500.02, -0.016, -0.010, 0.974, 15:46:35.536, 1578577595536
132, -184947.11, -184937.59, -185103.42, -185108.69, -185091.50, -185043.52, -185172.81, 137078.02, 0.000, 0.000, 0.000, 15:46:35.536, 1578577595536
133, -187500.02, -187500.02, -187500.02, 187500.00, -187500.02, 187500.00, -187500.02, -187500.02, 0.000, 0.000, 0.000, 15:46:35.536, 1578577595536
134, -184951.16, -184941.61, -185107.42, -185112.67, -185095.55, -185047.45, -185176.75, 137040.47, 0.000, 0.000, 0.000, 15:46:35.536, 1578577595536
135, -187500.02, -187500.02, -187500.02, 187500.00, -187500.02, 187500.00, -187500.02, -187500.02, 0.000, 0.000, 0.000, 15:46:35.536, 1578577595536
136, -184954.91, -184945.33, -185111.08, -185116.36, -185099.23, -185051.25, -185180.58, 137004.08, 0.000, 0.000, 0.000, 15:46:35.537, 1578577595537
137, -187500.02, -187500.02, -187500.02, 187500.00, -187500.02, 187500.00, -187500.02, -187500.02, 0.000, 0.000, 0.000, 15:46:35.537, 1578577595537
138, -184956.91, -184947.33, -185113.13, -185118.39, -185101.27, -185053.28, -185182.63, 136970.95, 0.000, 0.000, 0.000, 15:46:35.537, 1578577595537
139, -187500.02, -187500.02, -187500.02, 187500.00, -187500.02, 187500.00, -187500.02, -187500.02, 0.000, 0.000, 0.000, 15:46:35.537, 1578577595537
140, -184959.97, -184950.39, -185116.20, -185121.36, -185104.36, -185056.28, -185185.72, 136929.28, 0.000, 0.000, 0.000, 15:46:35.537, 1578577595537
141, -187500.02, -187500.02, -187500.02, 187500.00, -187500.02, 187500.00, -187500.02, -187500.02, -0.020, -0.010, 0.976, 15:46:35.537, 1578577595537
142, -184962.63, -184953.06, -185118.81, -185124.05, -185107.02, -185058.84, -185188.28, 136890.34, 0.000, 0.000, 0.000, 15:46:35.537, 1578577595537
143, -187500.02, -187500.02, -187500.02, 187500.00, -187500.02, 187500.00, -187500.02, -187500.02, 0.000, 0.000, 0.000, 15:46:35.537, 1578577595537
144, -184966.09, -184956.59, -185122.33, -185127.59, -185110.53, -185062.47, -185191.80, 136853.11, 0.000, 0.000, 0.000, 15:46:35.537, 1578577595537
145, -187500.02, -187500.02, -187500.02, 187500.00, -187500.02, 187500.00, -187500.02, -187500.02, 0.000, 0.000, 0.000, 15:46:35.538, 1578577595538
146, -184971.28, -184961.84, -185127.52, -185132.67, -185115.64, -185067.55, -185196.95, 136814.13, 0.000, 0.000, 0.000, 15:46:35.538, 1578577595538
147, -187500.02, -187500.02, -187500.02, 187500.00, -187500.02, 187500.00, -187500.02, -187500.02, 0.000, 0.000, 0.000, 15:46:35.538, 1578577595538
148, -184974.42, -184964.92, -185130.66, -185135.92, -185118.91, -185070.78, -185200.14, 136778.39, 0.000, 0.000, 0.000, 15:46:35.538, 1578577595538
149, -187500.02, -187500.02, -187500.02, 187500.00, -187500.02, 187500.00, -187500.02, -187500.02, 0.000, 0.000, 0.000, 15:46:35.538, 1578577595538
150, -184979.86, -184970.17, -185135.94, -185141.23, -185124.27, -185076.06, -185205.55, 136736.53, 0.000, 0.000, 0.000, 15:46:35.538, 1578577595538
151, -187500.02, -187500.02, -187500.02, 187500.00, -187500.02, 187500.00, -187500.02, -187500.02, -0.026, -0.016, 0.974, 15:46:35.538, 1578577595538
152, -184981.88, -184972.25, -185138.00, -185143.19, -185126.22, -185078.14, -185207.52, 136700.50, 0.000, 0.000, 0.000, 15:46:35.538, 1578577595538
153, -187500.02, -187500.02, -187500.02, 187500.00, -187500.02, 187500.00, -187500.02, -187500.02, 0.000, 0.000, 0.000, 15:46:35.538, 1578577595538
154, -184984.63, -184974.97, -185140.86, -185146.05, -185128.97, -185080.86, -185210.27, 136665.02, 0.000, 0.000, 0.000, 15:46:35.538, 1578577595538
155, -187500.02, -187500.02, -187500.02, 187500.00, -187500.02, 187500.00, -187500.02, -187500.02, 0.000, 0.000, 0.000, 15:46:35.538, 1578577595538
156, -184987.55, -184977.91, -185143.72, -185148.95, -185131.92, -185083.80, -185213.20, 136623.84, 0.000, 0.000, 0.000, 15:46:35.538, 1578577595538
157, -187500.02, -187500.02, -187500.02, 187500.00, -187500.02, 187500.00, -187500.02, -187500.02, 0.000, 0.000, 0.000, 15:46:35.539, 1578577595539
158, -184991.41, -184981.83, -185147.52, -185152.72, -185135.78, -185087.66, -185217.17, 136588.11, 0.000, 0.000, 0.000, 15:46:35.539, 1578577595539
159, -187500.02, -187500.02, -187500.02, 187500.00, -187500.02, 187500.00, -187500.02, -187500.02, 0.000, 0.000, 0.000, 15:46:35.539, 1578577595539
160, -184994.81, -184985.31, -185150.95, -185156.14, -185139.25, -185091.03, -185220.55, 136550.38, 0.000, 0.000, 0.000, 15:46:35.539, 1578577595539
161, -187500.02, -187500.02, -187500.02, 187500.00, -187500.02, 187500.00, -187500.02, -187500.02, -0.018, -0.014, 0.982, 15:46:35.539, 1578577595539
162, -184998.25, -184988.63, -185154.38, -185159.45, -185142.59, -185094.47, -185223.84, 136514.08, 0.000, 0.000, 0.000, 15:46:35.539, 1578577595539
163, -187500.02, -187500.02, -187500.02, 187500.00, -187500.02, 187500.00, -187500.02, -187500.02, 0.000, 0.000, 0.000, 15:46:35.539, 1578577595539
164, -185001.53, -184991.91, -185157.58, -185162.83, -185145.86, -185097.69, -185227.20, 136475.03, 0.000, 0.000, 0.000, 15:46:35.539, 1578577595539
165, -187500.02, -187500.02, -187500.02, 187500.00, -187500.02, 187500.00, -187500.02, -187500.02, 0.000, 0.000, 0.000, 15:46:35.539, 1578577595539
166, -185005.41, -184995.72, -185161.53, -185166.69, -185149.59, -185101.52, -185231.17, 136431.75, 0.000, 0.000, 0.000, 15:46:35.539, 1578577595539
167, -187500.02, -187500.02, -187500.02, 187500.00, -187500.02, 187500.00, -187500.02, -187500.02, 0.000, 0.000, 0.000, 15:46:35.539, 1578577595539
168, -185008.09, -184998.45, -185164.19, -185169.38, -185152.34, -185104.27, -185233.84, 136393.72, 0.000, 0.000, 0.000, 15:46:35.539, 1578577595539
169, -187500.02, -187500.02, -187500.02, 187500.00, -187500.02, 187500.00, -187500.02, -187500.02, 0.000, 0.000, 0.000, 15:46:35.539, 1578577595539
170, -185012.48, -185002.83, -185168.53, -185173.84, -185156.80, -185108.73, -185238.20, 136351.36, -0.018, -0.018, 0.976, 15:46:35.540, 1578577595540
171, -187500.02, -187500.02, -187500.02, 187500.00, -187500.02, 187500.00, -187500.02, -187500.02, 0.000, 0.000, 0.000, 15:46:35.540, 1578577595540
172, -185015.55, -185005.92, -185171.64, -185176.84, -185159.88, -185111.80, -185241.28, 136311.64, 0.000, 0.000, 0.000, 15:46:35.540, 1578577595540
173, -187500.02, -187500.02, -187500.02, 187500.00, -187500.02, 187500.00, -187500.02, -187500.02, 0.000, 0.000, 0.000, 15:46:35.540, 1578577595540
174, -185019.17, -185009.56, -185175.25, -185180.53, -185163.45, -185115.44, -185244.84, 136276.38, 0.000, 0.000, 0.000, 15:46:35.540, 1578577595540
175, -187500.02, -187500.02, -187500.02, 187500.00, -187500.02, 187500.00, -187500.02, -187500.02, 0.000, 0.000, 0.000, 15:46:35.540, 1578577595540
176, -185022.02, -185012.48, -185178.14, -185183.44, -185166.34, -185118.28, -185247.78, 136236.42, 0.000, 0.000, 0.000, 15:46:35.540, 1578577595540
177, -187500.02, -187500.02, -187500.02, 187500.00, -187500.02, 187500.00, -187500.02, -187500.02, 0.000, 0.000, 0.000, 15:46:35.540, 1578577595540
178, -185026.11, -185016.53, -185182.25, -185187.50, -185170.42, -185122.38, -185251.86, 136197.80, 0.000, 0.000, 0.000, 15:46:35.540, 1578577595540
179, -187500.02, -187500.02, -187500.02, 187500.00, -187500.02, 187500.00, -187500.02, -187500.02, 0.000, 0.000, 0.000, 15:46:35.541, 1578577595541
180, -185029.86, -185020.27, -185185.98, -185191.28, -185174.16, -185126.08, -185255.63, 136156.41, -0.020, -0.016, 0.978, 15:46:35.541, 1578577595541
181, -187500.02, -187500.02, -187500.02, 187500.00, -187500.02, 187500.00, -187500.02, -187500.02, 0.000, 0.000, 0.000, 15:46:35.541, 1578577595541
182, -185035.63, -185025.95, -185191.64, -185197.05, -185179.91, -185131.84, -185261.36, 136115.23, 0.000, 0.000, 0.000, 15:46:35.541, 1578577595541
183, -187500.02, -187500.02, -187500.02, 187500.00, -187500.02, 187500.00, -187500.02, -187500.02, 0.000, 0.000, 0.000, 15:46:35.541, 1578577595541
184, -185040.44, -185030.80, -185196.44, -185201.75, -185184.67, -185136.59, -185266.16, 136080.81, 0.000, 0.000, 0.000, 15:46:35.541, 1578577595541
185, -187500.02, -187500.02, -187500.02, 187500.00, -187500.02, 187500.00, -187500.02, -187500.02, 0.000, 0.000, 0.000, 15:46:35.541, 1578577595541
186, -185043.73, -185034.22, -185199.75, -185205.13, -185188.02, -185139.97, -185269.47, 136041.55, 0.000, 0.000, 0.000, 15:46:35.541, 1578577595541
187, -187500.02, -187500.02, -187500.02, 187500.00, -187500.02, 187500.00, -187500.02, -187500.02, 0.000, 0.000, 0.000, 15:46:35.542, 1578577595542
188, -185047.58, -185037.97, -185203.52, -185208.89, -185191.86, -185143.83, -185273.36, 136008.39, 0.000, 0.000, 0.000, 15:46:35.542, 1578577595542
189, -187500.02, -187500.02, -187500.02, 187500.00, -187500.02, 187500.00, -187500.02, -187500.02, 0.000, 0.000, 0.000, 15:46:35.542, 1578577595542
190, -185051.52, -185041.81, -185207.42, -185212.72, -185195.78, -185147.63, -185277.27, 135968.09, -0.022, -0.020, 0.984, 15:46:35.542, 1578577595542
191, -187500.02, -187500.02, -187500.02, 187500.00, -187500.02, 187500.00, -187500.02, -187500.02, 0.000, 0.000, 0.000, 15:46:35.542, 1578577595542
192, -185052.30, -185042.63, -185208.30, -185213.70, -185196.64, -185148.50, -185278.09, 135929.80, 0.000, 0.000, 0.000, 15:46:35.542, 1578577595542
193, -187500.02, -187500.02, -187500.02, 187500.00, -187500.02, 187500.00, -187500.02, -187500.02, 0.000, 0.000, 0.000, 15:46:35.542, 1578577595542
194, -185056.61, -185047.03, -185212.58, -185217.97, -185200.88, -185152.80, -185282.33, 135892.61, 0.000, 0.000, 0.000, 15:46:35.543, 1578577595543
195, -187500.02, -187500.02, -187500.02, 187500.00, -187500.02, 187500.00, -187500.02, -187500.02, 0.000, 0.000, 0.000, 15:46:35.543, 1578577595543
196, -185061.13, -185051.53, -185217.17, -185222.53, -185205.45, -185157.22, -185286.86, 135850.09, 0.000, 0.000, 0.000, 15:46:35.543, 1578577595543
197, -187500.02, -187500.02, -187500.02, 187500.00, -187500.02, 187500.00, -187500.02, -187500.02, 0.000, 0.000, 0.000, 15:46:35.543, 1578577595543
198, -185062.31, -185052.70, -185218.27, -185223.61, -185206.55, -185158.36, -185288.02, 135814.41, 0.000, 0.000, 0.000, 15:46:35.543, 1578577595543
199, -187500.02, -187500.02, -187500.02, 187500.00, -187500.02, 187500.00, -187500.02, -187500.02, 0.000, 0.000, 0.000, 15:46:35.543, 1578577595543
200, -185064.03, -185054.44, -185220.03, -185225.39, -185208.34, -185160.14, -185289.78, 135775.56, -0.024, -0.016, 0.976, 15:46:35.543, 1578577595543
201, -187500.02, -187500.02, -187500.02, 187500.00, -187500.02, 187500.00, -187500.02, -187500.02, 0.000, 0.000, 0.000, 15:46:35.543, 1578577595543
202, -185065.91, -185056.36, -185221.97, -185227.30, -185210.28, -185162.02, -185291.69, 135736.94, 0.000, 0.000, 0.000, 15:46:35.544, 1578577595544
203, -187500.02, -187500.02, -187500.02, 187500.00, -187500.02, 187500.00, -187500.02, -187500.02, 0.000, 0.000, 0.000, 15:46:35.544, 1578577595544
204, -185071.34, -185061.75, -185227.38, -185232.67, -185215.69, -185167.45, -185297.19, 135698.33, 0.000, 0.000, 0.000, 15:46:35.544, 1578577595544
205, -187500.02, -187500.02, -187500.02, 187500.00, -187500.02, 187500.00, -187500.02, -187500.02, 0.000, 0.000, 0.000, 15:46:35.544, 1578577595544
206, -185075.02, -185065.42, -185231.05, -185236.33, -185219.36, -185171.13, -185300.77, 135657.66, 0.000, 0.000, 0.000, 15:46:35.544, 1578577595544
207, -187500.02, -187500.02, -187500.02, 187500.00, -187500.02, 187500.00, -187500.02, -187500.02, 0.000, 0.000, 0.000, 15:46:35.544, 1578577595544
208, -185080.31, -185070.81, -185236.39, -185241.69, -185224.61, -185176.55, -185306.08, 135620.70, 0.000, 0.000, 0.000, 15:46:35.544, 1578577595544
209, -187500.02, -187500.02, -187500.02, 187500.00, -187500.02, 187500.00, -187500.02, -187500.02, -0.022, -0.016, 0.972, 15:46:35.545, 1578577595545
210, -185084.78, -185075.17, -185240.77, -185246.05, -185229.02, -185180.95, -185310.44, 135582.92, 0.000, 0.000, 0.000, 15:46:35.545, 1578577595545
211, -187500.02, -187500.02, -187500.02, 187500.00, -187500.02, 187500.00, -187500.02, -187500.02, 0.000, 0.000, 0.000, 15:46:35.545, 1578577595545
212, -185088.27, -185078.72, -185244.19, -185249.55, -185232.45, -185184.36, -185314.02, 135544.42, 0.000, 0.000, 0.000, 15:46:35.545, 1578577595545
213, -187500.02, -187500.02, -187500.02, 187500.00, -187500.02, 187500.00, -187500.02, -187500.02, 0.000, 0.000, 0.000, 15:46:35.545, 1578577595545
214, -185093.11, -185083.59, -185249.16, -185254.45, -185237.42, -185189.34, -185318.89, 135504.78, 0.000, 0.000, 0.000, 15:46:35.545, 1578577595545
215, -187500.02, -187500.02, -187500.02, 187500.00, -187500.02, 187500.00, -187500.02, -187500.02, 0.000, 0.000, 0.000, 15:46:35.545, 1578577595545
216, -185095.39, -185085.78, -185251.39, -185256.73, -185239.63, -185191.50, -185321.06, 135462.92, 0.000, 0.000, 0.000, 15:46:35.546, 1578577595546
217, -187500.02, -187500.02, -187500.02, 187500.00, -187500.02, 187500.00, -187500.02, -187500.02, 0.000, 0.000, 0.000, 15:46:35.546, 1578577595546
218, -185098.67, -185089.11, -185254.73, -185260.06, -185242.95, -185194.81, -185324.44, 135425.34, 0.000, 0.000, 0.000, 15:46:35.546, 1578577595546
219, -187500.02, -187500.02, -187500.02, 187500.00, -187500.02, 187500.00, -187500.02, -187500.02, -0.020, -0.016, 0.976, 15:46:35.546, 1578577595546
220, -185102.48, -185092.91, -185258.53, -185263.80, -185246.77, -185198.64, -185328.25, 135383.70, 0.000, 0.000, 0.000, 15:46:35.546, 1578577595546
221, -187500.02, -187500.02, -187500.02, 187500.00, -187500.02, 187500.00, -187500.02, -187500.02, 0.000, 0.000, 0.000, 15:46:35.546, 1578577595546
222, -185106.81, -185097.20, -185262.81, -185268.08, -185251.03, -185202.91, -185332.59, 135342.84, 0.000, 0.000, 0.000, 15:46:35.546, 1578577595546
223, -187500.02, -187500.02, -187500.02, 187500.00, -187500.02, 187500.00, -187500.02, -187500.02, 0.000, 0.000, 0.000, 15:46:35.547, 1578577595547
224, -185111.17, -185101.61, -185267.13, -185272.47, -185255.31, -185207.20, -185336.91, 135305.88, 0.000, 0.000, 0.000, 15:46:35.547, 1578577595547
225, -187500.02, -187500.02, -187500.02, 187500.00, -187500.02, 187500.00, -187500.02, -187500.02, 0.000, 0.000, 0.000, 15:46:36.014, 1578577596014
226, -185113.08, -185103.63, -185269.06, -185274.41, -185257.28, -185209.25, -185338.89, 135268.64, 0.000, 0.000, 0.000, 15:46:36.014, 1578577596014
227, -187500.02, -187500.02, -187500.02, 187500.00, -187500.02, 187500.00, -187500.02, -187500.02, 0.000, 0.000, 0.000, 15:46:36.014, 1578577596014
228, -185117.28, -185107.73, -185273.20, -185278.52, -185261.59, -185213.45, -185343.03, 135234.08, 0.000, 0.000, 0.000, 15:46:36.014, 1578577596014
229, -187500.02, -187500.02, -187500.02, 187500.00, -187500.02, 187500.00, -187500.02, -187500.02, -0.020, -0.018, 0.980, 15:46:36.015, 1578577596015
230, -185120.47, -185111.00, -185276.38, -185281.72, -185264.75, -185216.61, -185346.33, 135196.33, 0.000, 0.000, 0.000, 15:46:36.015, 1578577596015
231, -187500.02, -187500.02, -187500.02, 187500.00, -187500.02, 187500.00, -187500.02, -187500.02, 0.000, 0.000, 0.000, 15:46:36.015, 1578577596015
232, -185123.16, -185113.72, -185279.22, -185284.52, -185267.45, -185219.38, -185349.06, 135161.19, 0.000, 0.000, 0.000, 15:46:36.015, 1578577596015
233, -187500.02, -187500.02, -187500.02, 187500.00, -187500.02, 187500.00, -187500.02, -187500.02, 0.000, 0.000, 0.000, 15:46:36.015, 1578577596015
234, -185128.11, -185118.59, -185284.06, -185289.36, -185272.34, -185224.16, -185353.83, 135125.08, 0.000, 0.000, 0.000, 15:46:36.015, 1578577596015
235, -187500.02, -187500.02, -187500.02, 187500.00, -187500.02, 187500.00, -187500.02, -187500.02, 0.000, 0.000, 0.000, 15:46:36.015, 1578577596015
236, -185132.03, -185122.55, -185287.95, -185293.36, -185276.28, -185228.20, -185357.91, 135085.48, 0.000, 0.000, 0.000, 15:46:36.015, 1578577596015
237, -187500.02, -187500.02, -187500.02, 187500.00, -187500.02, 187500.00, -187500.02, -187500.02, 0.000, 0.000, 0.000, 15:46:36.015, 1578577596015
238, -185133.84, -185124.39, -185289.77, -185295.19, -185278.14, -185230.16, -185359.81, 135049.06, 0.000, 0.000, 0.000, 15:46:36.015, 1578577596015
239, -187500.02, -187500.02, -187500.02, 187500.00, -187500.02, 187500.00, -187500.02, -187500.02, -0.018, -0.016, 0.974, 15:46:36.015, 1578577596015
240, -185136.23, -185126.73, -185292.11, -185297.47, -185280.52, -185232.34, -185362.08, 135009.03, 0.000, 0.000, 0.000, 15:46:36.015, 1578577596015
241, -187500.02, -187500.02, -187500.02, 187500.00, -187500.02, 187500.00, -187500.02, -187500.02, 0.000, 0.000, 0.000, 15:46:36.015, 1578577596015
242, -185139.36, -185129.84, -185295.27, -185300.61, -185283.58, -185235.50, -185365.20, 134972.92, 0.000, 0.000, 0.000, 15:46:36.017, 1578577596017
243, -187500.02, -187500.02, -187500.02, 187500.00, -187500.02, 187500.00, -187500.02, -187500.02, 0.000, 0.000, 0.000, 15:46:36.017, 1578577596017
244, -185141.06, -185131.53, -185296.88, -185302.27, -185285.31, -185237.19, -185366.88, 134935.20, 0.000, 0.000, 0.000, 15:46:36.017, 1578577596017
245, -187500.02, -187500.02, -187500.02, 187500.00, -187500.02, 187500.00, -187500.02, -187500.02, 0.000, 0.000, 0.000, 15:46:36.017, 1578577596017
246, -185147.77, -185138.17, -185303.64, -185309.02, -185292.02, -185243.92, -185373.56, 134892.38, 0.000, 0.000, 0.000, 15:46:36.017, 1578577596017
247, -187500.02, -187500.02, -187500.02, 187500.00, -187500.02, 187500.00, -187500.02, -187500.02, 0.000, 0.000, 0.000, 15:46:36.017, 1578577596017
248, -185151.94, -185142.52, -185307.78, -185313.19, -185296.30, -185248.03, -185377.78, 134859.27, -0.018, -0.020, 0.976, 15:46:36.017, 1578577596017
249, -187500.02, -187500.02, -187500.02, 187500.00, -187500.02, 187500.00, -187500.02, -187500.02, 0.000, 0.000, 0.000, 15:46:36.017, 1578577596017
250, -185156.14, -185146.58, -185311.95, -185317.34, -185300.41, -185252.23, -185381.94, 134820.80, 0.000, 0.000, 0.000, 15:46:36.018, 1578577596018
251, -187500.02, -187500.02, -187500.02, 187500.00, -187500.02, 187500.00, -187500.02, -187500.02, 0.000, 0.000, 0.000, 15:46:36.018, 1578577596018
252, -185161.44, -185151.83, -185317.41, -185322.63, -185305.64, -185257.48, -185387.23, 134781.89, 0.000, 0.000, 0.000, 15:46:36.018, 1578577596018
253, -187500.02, -187500.02, -187500.02, 187500.00, -187500.02, 187500.00, -187500.02, -187500.02, 0.000, 0.000, 0.000, 15:46:36.019, 1578577596019
254, -185166.67, -185157.08, -185322.53, -185327.89, -185310.86, -185262.73, -185392.48, 134742.45, 0.000, 0.000, 0.000, 15:46:36.019, 1578577596019
255, -187500.02, -187500.02, -187500.02, 187500.00, -187500.02, 187500.00, -187500.02, -187500.02, 0.000, 0.000, 0.000, 15:46:36.019, 1578577596019
0, -185170.14, -185160.66, -185325.97, -185331.41, -185314.42, -185266.31, -185395.91, 134701.52, 0.000, 0.000, 0.000, 15:46:36.019, 1578577596019
1, -187500.02, -187500.02, -187500.02, 187500.00, -187500.02, 187500.00, -187500.02, -187500.02, 0.000, 0.000, 0.000, 15:46:36.019, 1578577596019
2, -185172.78, -185163.20, -185328.67, -185333.97, -185316.94, -185268.89, -185398.58, 134664.14, -0.020, -0.018, 0.978, 15:46:36.020, 1578577596020
3, -187500.02, -187500.02, -187500.02, 187500.00, -187500.02, 187500.00, -187500.02, -187500.02, 0.000, 0.000, 0.000, 15:46:36.020, 1578577596020
4, -185176.48, -185167.03, -185332.33, -185337.66, -185320.67, -185272.63, -185402.33, 134624.17, 0.000, 0.000, 0.000, 15:46:36.020, 1578577596020
5, -187500.02, -187500.02, -187500.02, 187500.00, -187500.02, 187500.00, -187500.02, -187500.02, 0.000, 0.000, 0.000, 15:46:36.020, 1578577596020
6, -185179.61, -185170.16, -185335.47, -185340.77, -185323.72, -185275.80, -185405.41, 134584.34, 0.000, 0.000, 0.000, 15:46:36.020, 1578577596020
7, -187500.02, -187500.02, -187500.02, 187500.00, -187500.02, 187500.00, -187500.02, -187500.02, 0.000, 0.000, 0.000, 15:46:36.020, 1578577596020
8, -185185.56, -185175.92, -185341.28, -185346.61, -185329.58, -185281.58, -185411.31, 134549.88, 0.000, 0.000, 0.000, 15:46:36.020, 1578577596020
9, -187500.02, -187500.02, -187500.02, 187500.00, -187500.02, 187500.00, -187500.02, -187500.02, 0.000, 0.000, 0.000, 15:46:36.020, 1578577596020
10, -185187.81, -185178.27, -185343.70, -185349.02, -185331.94, -185283.91, -185413.56, 134510.30, 0.000, 0.000, 0.000, 15:46:36.020, 1578577596020
11, -187500.02, -187500.02, -187500.02, 187500.00, -187500.02, 187500.00, -187500.02, -187500.02, 0.000, 0.000, 0.000, 15:46:36.020, 1578577596020
12, -185190.72, -185181.14, -185346.58, -185351.92, -185334.91, -185286.88, -185416.61, 134474.28, -0.022, -0.016, 0.980, 15:46:36.020, 1578577596020
13, -187500.02, -187500.02, -187500.02, 187500.00, -187500.02, 187500.00, -187500.02, -187500.02, 0.000, 0.000, 0.000, 15:46:36.021, 1578577596021
14, -185194.33, -185184.67, -185350.11, -185355.48, -185338.45, -185290.25, -185420.16, 134433.73, 0.000, 0.000, 0.000, 15:46:36.021, 1578577596021
15, -187500.02, -187500.02, -187500.02, 187500.00, -187500.02, 187500.00, -187500.02, -187500.02, 0.000, 0.000, 0.000, 15:46:36.021, 1578577596021
16, -185198.80, -185189.09, -185354.50, -185359.91, -185342.88, -185294.77, -185424.56, 134397.23, 0.000, 0.000, 0.000, 15:46:36.021, 1578577596021
17, -187500.02, -187500.02, -187500.02, 187500.00, -187500.02, 187500.00, -187500.02, -187500.02, 0.000, 0.000, 0.000, 15:46:36.021, 1578577596021
18, -185199.02, -185189.45, -185354.83, -185360.13, -185343.09, -185295.17, -185424.81, 134359.89, 0.000, 0.000, 0.000, 15:46:36.021, 1578577596021
19, -187500.02, -187500.02, -187500.02, 187500.00, -187500.02, 187500.00, -187500.02, -187500.02, 0.000, 0.000, 0.000, 15:46:36.021, 1578577596021
20, -185204.88, -185195.31, -185360.69, -185365.98, -185348.97, -185301.05, -185430.69, 134315.47, 0.000, 0.000, 0.000, 15:46:36.021, 1578577596021
21, -187500.02, -187500.02, -187500.02, 187500.00, -187500.02, 187500.00, -187500.02, -187500.02, 0.000, 0.000, 0.000, 15:46:36.021, 1578577596021
22, -185206.84, -185197.20, -185362.58, -185368.02, -185350.83, -185302.97, -185432.66, 134276.63, -0.018, -0.018, 0.974, 15:46:36.021, 1578577596021
23, -187500.02, -187500.02, -187500.02, 187500.00, -187500.02, 187500.00, -187500.02, -187500.02, 0.000, 0.000, 0.000, 15:46:36.022, 1578577596022
24, -185210.42, -185200.78, -185366.09, -185371.50, -185354.38, -185306.53, -185436.08, 134236.81, 0.000, 0.000, 0.000, 15:46:36.022, 1578577596022
25, -187500.02, -187500.02, -187500.02, 187500.00, -187500.02, 187500.00, -187500.02, -187500.02, 0.000, 0.000, 0.000, 15:46:36.022, 1578577596022
26, -185214.69, -185204.98, -185370.36, -185375.73, -185358.67, -185310.66, -185440.39, 134198.03, 0.000, 0.000, 0.000, 15:46:36.022, 1578577596022
27, -187500.02, -187500.02, -187500.02, 187500.00, -187500.02, 187500.00, -187500.02, -187500.02, 0.000, 0.000, 0.000, 15:46:36.022, 1578577596022
28, -185218.55, -185208.84, -185374.30, -185379.55, -185362.56, -185314.58, -185444.27, 134160.00, 0.000, 0.000, 0.000, 15:46:36.022, 1578577596022
29, -187500.02, -187500.02, -187500.02, 187500.00, -187500.02, 187500.00, -187500.02, -187500.02, 0.000, 0.000, 0.000, 15:46:36.022, 1578577596022
30, -185221.92, -185212.27, -185377.66, -185382.92, -185365.98, -185317.95, -185447.61, 134117.66, 0.000, 0.000, 0.000, 15:46:36.022, 1578577596022
31, -187500.02, -187500.02, -187500.02, 187500.00, -187500.02, 187500.00, -187500.02, -187500.02, -0.018, -0.016, 0.974, 15:46:36.022, 1578577596022
32, -185226.73, -185217.03, -185382.44, -185387.73, -185370.83, -185322.83, -185452.44, 134083.78, 0.000, 0.000, 0.000, 15:46:36.022, 1578577596022
33, -187500.02, -187500.02, -187500.02, 187500.00, -187500.02, 187500.00, -187500.02, -187500.02, 0.000, 0.000, 0.000, 15:46:36.022, 1578577596022
34, -185229.66, -185220.00, -185385.52, -185390.80, -185373.73, -185325.81, -185455.53, 134041.63, 0.000, 0.000, 0.000, 15:46:36.022, 1578577596022
35, -187500.02, -187500.02, -187500.02, 187500.00, -187500.02, 187500.00, -187500.02, -187500.02, 0.000, 0.000, 0.000, 15:46:36.023, 1578577596023
36, -185232.61, -185222.84, -185388.31, -185393.56, -185376.67, -185328.67, -185458.41, 134001.47, 0.000, 0.000, 0.000, 15:46:36.023, 1578577596023
37, -187500.02, -187500.02, -187500.02, 187500.00, -187500.02, 187500.00, -187500.02, -187500.02, 0.000, 0.000, 0.000, 15:46:36.023, 1578577596023
38, -185234.72, -185225.14, -185390.45, -185395.78, -185378.81, -185330.89, -185460.47, 133965.02, 0.000, 0.000, 0.000, 15:46:36.023, 1578577596023
39, -187500.02, -187500.02, -187500.02, 187500.00, -187500.02, 187500.00, -187500.02, -187500.02, 0.000, 0.000, 0.000, 15:46:36.023, 1578577596023
40, -185237.30, -185227.64, -185393.05, -185398.28, -185381.31, -185333.42, -185463.08, 133925.91, 0.000, 0.000, 0.000, 15:46:36.023, 1578577596023
41, -187500.02, -187500.02, -187500.02, 187500.00, -187500.02, 187500.00, -187500.02, -187500.02, -0.018, -0.018, 0.976, 15:46:36.023, 1578577596023
42, -185241.69, -185232.13, -185397.45, -185402.73, -185385.73, -185337.73, -185467.45, 133891.22, 0.000, 0.000, 0.000, 15:46:36.023, 1578577596023
43, -187500.02, -187500.02, -187500.02, 187500.00, -187500.02, 187500.00, -187500.02, -187500.02, 0.000, 0.000, 0.000, 15:46:36.023, 1578577596023
44, -185245.31, -185235.56, -185400.94, -185406.33, -185389.30, -185341.34, -185470.95, 133849.81, 0.000, 0.000, 0.000, 15:46:36.023, 1578577596023
45, -187500.02, -187500.02, -187500.02, 187500.00, -187500.02, 187500.00, -187500.02, -187500.02, 0.000, 0.000, 0.000, 15:46:36.023, 1578577596023
46, -185249.58, -185239.88, -185405.23, -185410.66, -185393.59, -185345.64, -185475.23, 133809.55, 0.000, 0.000, 0.000, 15:46:36.023, 1578577596023
47, -187500.02, -187500.02, -187500.02, 187500.00, -187500.02, 187500.00, -187500.02, -187500.02, 0.000, 0.000, 0.000, 15:46:36.023, 1578577596023
48, -185252.75, -185243.14, -185408.50, -185413.84, -185396.72, -185348.84, -185478.50, 133775.56, 0.000, 0.000, 0.000, 15:46:36.023, 1578577596023
49, -187500.02, -187500.02, -187500.02, 187500.00, -187500.02, 187500.00, -187500.02, -187500.02, 0.000, 0.000, 0.000, 15:46:36.023, 1578577596023
50, -185253.55, -185244.03, -185409.33, -185414.63, -185397.64, -185349.64, -185479.28, 133736.58, 0.000, 0.000, 0.000, 15:46:36.023, 1578577596023
51, -187500.02, -187500.02, -187500.02, 187500.00, -187500.02, 187500.00, -187500.02, -187500.02, -0.018, -0.018, 0.972, 15:46:36.023, 1578577596023
52, -185258.63, -185248.97, -185414.31, -185419.66, -185402.69, -185354.73, -185484.36, 133702.83, 0.000, 0.000, 0.000, 15:46:36.023, 1578577596023
53, -187500.02, -187500.02, -187500.02, 187500.00, -187500.02, 187500.00, -187500.02, -187500.02, 0.000, 0.000, 0.000, 15:46:36.023, 1578577596023
54, -185261.67, -185251.97, -185417.30, -185422.72, -185405.67, -185357.75, -185487.38, 133661.91, 0.000, 0.000, 0.000, 15:46:36.023, 1578577596023
55, -187500.02, -187500.02, -187500.02, 187500.00, -187500.02, 187500.00, -187500.02, -187500.02, 0.000, 0.000, 0.000, 15:46:36.024, 1578577596024
56, -185264.44, -185254.89, -185420.16, -185425.50, -185408.52, -185360.55, -185490.13, 133623.59, 0.000, 0.000, 0.000, 15:46:36.024, 1578577596024
57, -187500.02, -187500.02, -187500.02, 187500.00, -187500.02, 187500.00, -187500.02, -187500.02, 0.000, 0.000, 0.000, 15:46:36.024, 1578577596024
58, -185266.20, -185256.58, -185422.02, -185427.27, -185410.28, -185362.30, -185491.95, 133585.89, 0.000, 0.000, 0.000, 15:46:36.024, 1578577596024
59, -187500.02, -187500.02, -187500.02, 187500.00, -187500.02, 187500.00, -187500.02, -187500.02, 0.000, 0.000, 0.000, 15:46:36.024, 1578577596024
60, -185271.09, -185261.52, -185426.89, -185432.14, -185415.16, -185367.17, -185496.98, 133545.28, 0.000, 0.000, 0.000, 15:46:36.024, 1578577596024
61, -187500.02, -187500.02, -187500.02, 187500.00, -187500.02, 187500.00, -187500.02, -187500.02, -0.016, -0.010, 0.972, 15:46:36.024, 1578577596024
62, -185273.53, -185264.02, -185429.33, -185434.48, -185417.61, -185369.58, -185499.44, 133507.72, 0.000, 0.000, 0.000, 15:46:36.024, 1578577596024
63, -187500.02, -187500.02, -187500.02, 187500.00, -187500.02, 187500.00, -187500.02, -187500.02, 0.000, 0.000, 0.000, 15:46:36.024, 1578577596024
64, -185280.28, -185270.73, -185436.03, -185441.31, -185424.33, -185376.36, -185506.16, 133469.19, 0.000, 0.000, 0.000, 15:46:36.024, 1578577596024
65, -187500.02, -187500.02, -187500.02, 187500.00, -187500.02, 187500.00, -187500.02, -187500.02, 0.000, 0.000, 0.000, 15:46:36.024, 1578577596024
66, -185283.80, -185274.28, -185439.59, -185444.91, -185427.92, -185379.86, -185509.66, 133432.52, 0.000, 0.000, 0.000, 15:46:36.024, 1578577596024
67, -187500.02, -187500.02, -187500.02, 187500.00, -187500.02, 187500.00, -187500.02, -187500.02, 0.000, 0.000, 0.000, 15:46:36.024, 1578577596024
68, -185288.17, -185278.63, -185444.02, -185449.31, -185432.28, -185384.33, -185514.06, 133393.38, 0.000, 0.000, 0.000, 15:46:36.024, 1578577596024
69, -187500.02, -187500.02, -187500.02, 187500.00, -187500.02, 187500.00, -187500.02, -187500.02, 0.000, 0.000, 0.000, 15:46:36.024, 1578577596024
70, -185289.66, -185280.00, -185445.52, -185450.73, -185433.64, -185385.73, -185515.52, 133350.17, -0.016, -0.012, 0.968, 15:46:36.024, 1578577596024
71, -187500.02, -187500.02, -187500.02, 187500.00, -187500.02, 187500.00, -187500.02, -187500.02, 0.000, 0.000, 0.000, 15:46:36.024, 1578577596024
72, -185292.05, -185282.45, -185447.88, -185453.11, -185436.09, -185388.00, -185517.86, 133315.17, 0.000, 0.000, 0.000, 15:46:36.024, 1578577596024
73, -187500.02, -187500.02, -187500.02, 187500.00, -187500.02, 187500.00, -187500.02, -187500.02, 0.000, 0.000, 0.000, 15:46:36.024, 1578577596024
74, -185296.31, -185286.67, -185452.03, -185457.31, -185440.33, -185392.33, -185522.16, 133277.66, 0.000, 0.000, 0.000, 15:46:36.025, 1578577596025
75, -187500.02, -187500.02, -187500.02, 187500.00, -187500.02, 187500.00, -187500.02, -187500.02, 0.000, 0.000, 0.000, 15:46:36.025, 1578577596025
76, -185299.28, -185289.66, -185455.03, -185460.22, -185443.20, -185395.28, -185525.19, 133238.86, 0.000, 0.000, 0.000, 15:46:36.025, 1578577596025
77, -187500.02, -187500.02, -187500.02, 187500.00, -187500.02, 187500.00, -187500.02, -187500.02, 0.000, 0.000, 0.000, 15:46:36.025, 1578577596025
78, -185301.92, -185292.31, -185457.64, -185462.83, -185445.88, -185397.92, -185527.77, 133200.23, 0.000, 0.000, 0.000, 15:46:36.025, 1578577596025
79, -187500.02, -187500.02, -187500.02, 187500.00, -187500.02, 187500.00, -187500.02, -187500.02, 0.000, 0.000, 0.000, 15:46:36.025, 1578577596025
80, -185305.19, -185295.58, -185460.94, -185466.19, -185449.16, -185401.23, -185530.98, 133161.19, -0.016, -0.014, 0.968, 15:46:36.025, 1578577596025
81, -187500.02, -187500.02, -187500.02, 187500.00, -187500.02, 187500.00, -187500.02, -187500.02, 0.000, 0.000, 0.000, 15:46:36.025, 1578577596025
82, -185309.72, -185300.20, -185465.42, -185470.75, -185453.80, -185405.86, -185535.59, 133127.67, 0.000, 0.000, 0.000, 15:46:36.025, 1578577596025
83, -187500.02, -187500.02, -187500.02, 187500.00, -187500.02, 187500.00, -187500.02, -187500.02, 0.000, 0.000, 0.000, 15:46:36.028, 1578577596028
84, -185312.77, -185303.28, -185468.53, -185473.86, -185456.95, -185408.86, -185538.66, 133088.50, 0.000, 0.000, 0.000, 15:46:36.028, 1578577596028
85, -187500.02, -187500.02, -187500.02, 187500.00, -187500.02, 187500.00, -187500.02, -187500.02, 0.000, 0.000, 0.000, 15:46:36.028, 1578577596028
86, -185316.86, -185307.31, -185472.63, -185477.89, -185460.98, -185412.97, -185542.72, 133050.13, 0.000, 0.000, 0.000, 15:46:36.028, 1578577596028
87, -187500.02, -187500.02, -187500.02, 187500.00, -187500.02, 187500.00, -187500.02, -187500.02, 0.000, 0.000, 0.000, 15:46:36.028, 1578577596028
88, -185319.64, -185310.06, -185475.28, -185480.69, -185463.69, -185415.72, -185545.48, 133015.92, 0.000, 0.000, 0.000, 15:46:36.028, 1578577596028
89, -187500.02, -187500.02, -187500.02, 187500.00, -187500.02, 187500.00, -187500.02, -187500.02, 0.000, 0.000, 0.000, 15:46:36.495, 1578577596495
90, -185323.47, -185313.95, -185479.27, -185484.69, -185467.58, -185419.58, -185549.41, 132979.55, -0.016, -0.012, 0.970, 15:46:36.495, 1578577596495
91, -187500.02, -187500.02, -187500.02, 187500.00, -187500.02, 187500.00, -187500.02, -187500.02, 0.000, 0.000, 0.000, 15:46:36.495, 1578577596495
92, -185327.31, -185317.75, -185483.06, -185488.52, -185471.39, -185423.45, -185553.22, 132947.13, 0.000, 0.000, 0.000, 15:46:36.495, 1578577596495
93, -187500.02, -187500.02, -187500.02, 187500.00, -187500.02, 187500.00, -187500.02, -187500.02, 0.000, 0.000, 0.000, 15:46:36.495, 1578577596495
94, -185333.64, -185324.09, -185489.36, -185494.78, -185477.81, -185429.75, -185559.61, 132912.83, 0.000, 0.000, 0.000, 15:46:36.495, 1578577596495
95, -187500.02, -187500.02, -187500.02, 187500.00, -187500.02, 187500.00, -187500.02, -187500.02, 0.000, 0.000, 0.000, 15:46:36.496, 1578577596496
96, -185336.39, -185326.88, -185492.00, -185497.44, -185480.48, -185432.34, -185562.30, 132878.56, 0.000, 0.000, 0.000, 15:46:36.496, 1578577596496
97, -187500.02, -187500.02, -187500.02, 187500.00, -187500.02, 187500.00, -187500.02, -187500.02, 0.000, 0.000, 0.000, 15:46:36.496, 1578577596496
98, -185339.42, -185329.84, -185495.11, -185500.42, -185483.47, -185435.47, -185565.30, 132843.75, 0.000, 0.000, 0.000, 15:46:36.496, 1578577596496
99, -187500.02, -187500.02, -187500.02, 187500.00, -187500.02, 187500.00, -187500.02, -187500.02, 0.000, 0.000, 0.000, 15:46:36.496, 1578577596496
100, -185342.38, -185332.75, -185498.08, -185503.33, -185486.34, -185438.42, -185568.25, 132802.89, -0.022, -0.010, 0.974, 15:46:36.496, 1578577596496
101, -187500.02, -187500.02, -187500.02, 187500.00, -187500.02, 187500.00, -187500.02, -187500.02, 0.000, 0.000, 0.000, 15:46:36.496, 1578577596496
102, -185348.06, -185338.45, -185503.69, -185509.08, -185492.09, -185444.17, -185573.97, 132767.75, 0.000, 0.000, 0.000, 15:46:36.496, 1578577596496
103, -187500.02, -187500.02, -187500.02, 187500.00, -187500.02, 187500.00, -187500.02, -187500.02, 0.000, 0.000, 0.000, 15:46:36.496, 1578577596496
104, -185353.84, -185344.28, -185509.45, -185514.83, -185497.75, -185449.84, -185579.73, 132733.34, 0.000, 0.000, 0.000, 15:46:36.496, 1578577596496
105, -187500.02, -187500.02, -187500.02, 187500.00, -187500.02, 187500.00, -187500.02, -187500.02, 0.000, 0.000, 0.000, 15:46:36.496, 1578577596496
106, -185355.05, -185345.48, -185510.73, -185516.08, -185499.06, -185451.13, -185580.98, 132696.56, 0.000, 0.000, 0.000, 15:46:36.496, 1578577596496
107, -187500.02, -187500.02, -187500.02, 187500.00, -187500.02, 187500.00, -187500.02, -187500.02, 0.000, 0.000, 0.000, 15:46:36.496, 1578577596496
108, -185358.70, -185349.13, -185514.33, -185519.66, -185502.73, -185454.72, -185584.58, 132661.67, 0.000, 0.000, 0.000, 15:46:36.496, 1578577596496
109, -187500.02, -187500.02, -187500.02, 187500.00, -187500.02, 187500.00, -187500.02, -187500.02, 0.000, 0.000, 0.000, 15:46:36.496, 1578577596496
110, -185365.47, -185355.88, -185521.16, -185526.38, -185509.58, -185461.58, -185591.42, 132624.03, -0.016, -0.012, 0.974, 15:46:36.496, 1578577596496
111, -187500.02, -187500.02, -187500.02, 187500.00, -187500.02, 187500.00, -187500.02, -187500.02, 0.000, 0.000, 0.000, 15:46:36.496, 1578577596496
112, -185367.91, -185358.31, -185523.52, -185528.86, -185511.89, -185463.95, -185593.81, 132591.45, 0.000, 0.000, 0.000, 15:46:36.496, 1578577596496
113, -187500.02, -187500.02, -187500.02, 187500.00, -187500.02, 187500.00, -187500.02, -187500.02, 0.000, 0.000, 0.000, 15:46:36.496, 1578577596496
114, -185369.31, -185359.70, -185524.91, -185530.30, -185513.42, -185465.47, -185595.30, 132557.19, 0.000, 0.000, 0.000, 15:46:36.497, 1578577596497
115, -187500.02, -187500.02, -187500.02, 187500.00, -187500.02, 187500.00, -187500.02, -187500.02, 0.000, 0.000, 0.000, 15:46:36.497, 1578577596497
116, -185372.38, -185362.77, -185527.97, -185533.31, -185516.45, -185468.38, -185598.28, 132521.97, 0.000, 0.000, 0.000, 15:46:36.497, 1578577596497
117, -187500.02, -187500.02, -187500.02, 187500.00, -187500.02, 187500.00, -187500.02, -187500.02, 0.000, 0.000, 0.000, 15:46:36.497, 1578577596497
118, -185376.16, -185366.59, -185531.72, -185537.06, -185520.17, -185472.13, -185602.05, 132490.27, 0.000, 0.000, 0.000, 15:46:36.497, 1578577596497
119, -187500.02, -187500.02, -187500.02, 187500.00, -187500.02, 187500.00, -187500.02, -187500.02, -0.020, -0.010, 0.980, 15:46:36.497, 1578577596497
120, -185379.70, -185370.20, -185535.30, -185540.61, -185523.70, -185475.66, -185605.59, 132456.02, 0.000, 0.000, 0.000, 15:46:36.497, 1578577596497
121, -187500.02, -187500.02, -187500.02, 187500.00, -187500.02, 187500.00, -187500.02, -187500.02, 0.000, 0.000, 0.000, 15:46:36.497, 1578577596497
122, -185382.55, -185373.06, -185538.19, -185543.52, -185526.61, -185478.56, -185608.66, 132427.23, 0.000, 0.000, 0.000, 15:46:36.497, 1578577596497
123, -187500.02, -187500.02, -187500.02, 187500.00, -187500.02, 187500.00, -187500.02, -187500.02, 0.000, 0.000, 0.000, 15:46:36.497, 1578577596497
124, -185384.53, -185374.88, -185540.11, -185545.47, -185528.48, -185480.45, -185610.44, 132392.86, 0.000, 0.000, 0.000, 15:46:36.497, 1578577596497
125, -187500.02, -187500.02, -187500.02, 187500.00, -187500.02, 187500.00, -187500.02, -187500.02, 0.000, 0.000, 0.000, 15:46:36.497, 1578577596497
126, -185389.94, -185380.31, -185545.42, -185550.94, -185533.86, -185485.88, -185615.86, 132357.02, 0.000, 0.000, 0.000, 15:46:36.497, 1578577596497
127, -187500.02, -187500.02, -187500.02, 187500.00, -187500.02, 187500.00, -187500.02, -187500.02, 0.000, 0.000, 0.000, 15:46:36.497, 1578577596497
128, -185394.34, -185384.78, -185549.83, -185555.33, -185538.25, -185490.23, -185620.22, 132324.36, 0.000, 0.000, 0.000, 15:46:36.497, 1578577596497
129, -187500.02, -187500.02, -187500.02, 187500.00, -187500.02, 187500.00, -187500.02, -187500.02, -0.022, -0.012, 0.984, 15:46:36.497, 1578577596497
130, -185400.38, -185390.77, -185555.86, -185561.30, -185544.31, -185496.27, -185626.20, 132289.13, 0.000, 0.000, 0.000, 15:46:36.497, 1578577596497
131, -187500.02, -187500.02, -187500.02, 187500.00, -187500.02, 187500.00, -187500.02, -187500.02, 0.000, 0.000, 0.000, 15:46:36.498, 1578577596498
132, -185404.05, -185394.50, -185559.64, -185565.03, -185548.16, -185500.03, -185629.95, 132250.64, 0.000, 0.000, 0.000, 15:46:36.498, 1578577596498
133, -187500.02, -187500.02, -187500.02, 187500.00, -187500.02, 187500.00, -187500.02, -187500.02, 0.000, 0.000, 0.000, 15:46:36.498, 1578577596498
134, -185408.88, -185399.27, -185564.48, -185569.86, -185552.86, -185504.86, -185634.83, 132212.75, 0.000, 0.000, 0.000, 15:46:36.498, 1578577596498
135, -187500.02, -187500.02, -187500.02, 187500.00, -187500.02, 187500.00, -187500.02, -187500.02, 0.000, 0.000, 0.000, 15:46:36.498, 1578577596498
136, -185410.91, -185401.36, -185566.45, -185571.86, -185554.83, -185506.89, -185636.89, 132177.73, 0.000, 0.000, 0.000, 15:46:36.498, 1578577596498
137, -187500.02, -187500.02, -187500.02, 187500.00, -187500.02, 187500.00, -187500.02, -187500.02, 0.000, 0.000, 0.000, 15:46:36.498, 1578577596498
138, -185415.36, -185405.75, -185570.75, -185576.22, -185559.23, -185511.22, -185641.22, 132145.23, 0.000, 0.000, 0.000, 15:46:36.498, 1578577596498
139, -187500.02, -187500.02, -187500.02, 187500.00, -187500.02, 187500.00, -187500.02, -187500.02, -0.016, -0.014, 0.980, 15:46:36.498, 1578577596498
140, -185419.50, -185409.91, -185574.97, -185580.50, -185563.58, -185515.41, -185645.36, 132109.38, 0.000, 0.000, 0.000, 15:46:36.498, 1578577596498
141, -187500.02, -187500.02, -187500.02, 187500.00, -187500.02, 187500.00, -187500.02, -187500.02, 0.000, 0.000, 0.000, 15:46:36.498, 1578577596498
142, -185421.92, -185412.27, -185577.34, -185582.75, -185565.83, -185517.75, -185647.75, 132075.22, 0.000, 0.000, 0.000, 15:46:36.498, 1578577596498
143, -187500.02, -187500.02, -187500.02, 187500.00, -187500.02, 187500.00, -187500.02, -187500.02, 0.000, 0.000, 0.000, 15:46:36.498, 1578577596498
144, -185424.88, -185415.27, -185580.31, -185585.88, -185568.88, -185520.77, -185650.91, 132040.69, 0.000, 0.000, 0.000, 15:46:36.498, 1578577596498
145, -187500.02, -187500.02, -187500.02, 187500.00, -187500.02, 187500.00, -187500.02, -187500.02, 0.000, 0.000, 0.000, 15:46:36.498, 1578577596498
146, -185429.66, -185420.13, -185585.14, -185590.50, -185573.67, -185525.66, -185655.58, 132005.84, 0.000, 0.000, 0.000, 15:46:36.498, 1578577596498
147, -187500.02, -187500.02, -187500.02, 187500.00, -187500.02, 187500.00, -187500.02, -187500.02, 0.000, 0.000, 0.000, 15:46:36.498, 1578577596498
148, -185433.28, -185423.69, -185588.73, -185594.11, -185577.28, -185529.11, -185659.17, 131972.03, 0.000, 0.000, 0.000, 15:46:36.499, 1578577596499
149, -187500.02, -187500.02, -187500.02, 187500.00, -187500.02, 187500.00, -187500.02, -187500.02, -0.016, -0.014, 0.984, 15:46:36.500, 1578577596500
150, -185438.06, -185428.44, -185593.41, -185598.78, -185581.97, -185533.89, -185663.86, 131934.56, 0.000, 0.000, 0.000, 15:46:36.500, 1578577596500
151, -187500.02, -187500.02, -187500.02, 187495.66, -187500.02, 187500.00, -187500.02, -187500.02, 0.000, 0.000, 0.000, 15:46:36.500, 1578577596500
152, -185441.38, -185431.77, -185596.83, -185602.22, -185585.28, -185537.31, -185667.16, 131905.17, 0.000, 0.000, 0.000, 15:46:36.500, 1578577596500
153, -187500.02, -187500.02, -187500.02, 187473.66, -187500.02, 187500.00, -187500.02, -187500.02, 0.000, 0.000, 0.000, 15:46:36.500, 1578577596500
154, -185443.75, -185434.22, -185599.17, -185604.50, -185587.58, -185539.64, -185669.56, 131869.05, 0.000, 0.000, 0.000, 15:46:36.500, 1578577596500
155, -187500.02, -187500.02, -187500.02, 187445.70, -187500.02, 187498.11, -187500.02, -187500.02, 0.000, 0.000, 0.000, 15:46:36.500, 1578577596500
156, -185445.22, -185435.63, -185600.72, -185606.05, -185589.19, -185541.11, -185671.08, 131831.03, 0.000, 0.000, 0.000, 15:46:36.500, 1578577596500
157, -187500.02, -187500.02, -187500.02, 187425.36, -187500.02, 187481.38, -187500.02, -187500.02, 0.000, 0.000, 0.000, 15:46:36.500, 1578577596500
158, -185448.69, -185438.97, -185604.13, -185609.42, -185592.47, -185544.50, -185674.48, 131795.27, -0.012, -0.020, 0.964, 15:46:36.500, 1578577596500
159, -187500.02, -187500.02, -187500.02, 187403.72, -187500.02, 187459.78, -187500.02, -187500.02, 0.000, 0.000, 0.000, 15:46:36.500, 1578577596500
160, -185454.27, -185444.69, -185609.73, -185615.09, -185598.08, -185550.19, -185680.09, 131760.16, 0.000, 0.000, 0.000, 15:46:36.500, 1578577596500
161, -187500.02, -187500.02, -187500.02, 187380.66, -187500.02, 187436.78, -187500.02, -187500.02, 0.000, 0.000, 0.000, 15:46:36.500, 1578577596500
162, -185458.34, -185448.80, -185613.80, -185619.14, -185602.23, -185554.34, -185684.20, 131730.52, 0.000, 0.000, 0.000, 15:46:36.500, 1578577596500
163, -187500.02, -187500.02, -187500.02, 187359.89, -187500.02, 187416.13, -187500.02, -187500.02, 0.000, 0.000, 0.000, 15:46:36.500, 1578577596500
164, -185460.67, -185451.05, -185616.17, -185621.36, -185604.47, -185556.48, -185686.48, 131695.72, 0.000, 0.000, 0.000, 15:46:36.500, 1578577596500
165, -187500.02, -187500.02, -187500.02, 187337.66, -187500.02, 187393.80, -187500.02, -187500.02, 0.000, 0.000, 0.000, 15:46:36.500, 1578577596500
166, -185464.91, -185455.25, -185620.30, -185625.53, -185608.64, -185560.69, -185690.69, 131658.03, 0.000, 0.000, 0.000, 15:46:36.500, 1578577596500
167, -187500.02, -187500.02, -187500.02, 187314.98, -187500.02, 187371.06, -187500.02, -187500.02, 0.000, 0.000, 0.000, 15:46:36.501, 1578577596501
168, -185471.19, -185461.56, -185626.58, -185631.88, -185614.92, -185567.06, -185696.97, 131626.36, -0.016, -0.018, 0.966, 15:46:36.501, 1578577596501
169, -187500.02, -187500.02, -187500.02, 187292.08, -187500.02, 187348.31, -187500.02, -187500.02, 0.000, 0.000, 0.000, 15:46:36.501, 1578577596501
170, -185475.38, -185465.73, -185630.88, -185636.13, -185619.16, -185571.31, -185701.34, 131591.13, 0.000, 0.000, 0.000, 15:46:36.501, 1578577596501
171, -187500.02, -187500.02, -187500.02, 187269.69, -187500.02, 187326.03, -187500.02, -187500.02, 0.000, 0.000, 0.000, 15:46:36.501, 1578577596501
172, -185478.09, -185468.53, -185633.53, -185638.81, -185621.89, -185573.98, -185704.03, 131559.09, 0.000, 0.000, 0.000, 15:46:36.501, 1578577596501
173, -187500.02, -187500.02, -187500.02, 187248.83, -187500.02, 187305.22, -187500.02, -187500.02, 0.000, 0.000, 0.000, 15:46:36.501, 1578577596501
174, -185480.88, -185471.27, -185636.27, -185641.64, -185624.69, -185576.78, -185706.78, 131525.64, 0.000, 0.000, 0.000, 15:46:36.501, 1578577596501
175, -187500.02, -187500.02, -187500.02, 187227.77, -187500.02, 187284.17, -187500.02, -187500.02, 0.000, 0.000, 0.000, 15:46:36.501, 1578577596501
176, -185484.92, -185475.22, -185640.31, -185645.61, -185628.66, -185580.78, -185710.78, 131494.86, 0.000, 0.000, 0.000, 15:46:36.501, 1578577596501
177, -187500.02, -187500.02, -187500.02, 187202.30, -187500.02, 187258.66, -187500.02, -187500.02, 0.000, 0.000, 0.000, 15:46:36.501, 1578577596501
178, -185487.55, -185478.02, -185642.97, -185648.23, -185631.41, -185583.52, -185713.48, 131466.41, -0.012, -0.008, 0.972, 15:46:36.501, 1578577596501
179, -187500.02, -187500.02, -187500.02, 187181.55, -187500.02, 187237.92, -187500.02, -187500.02, 0.000, 0.000, 0.000, 15:46:36.501, 1578577596501
180, -185494.78, -185485.34, -185650.20, -185655.64, -185638.77, -185590.78, -185720.84, 131429.17, 0.000, 0.000, 0.000, 15:46:36.501, 1578577596501
181, -187500.02, -187500.02, -187500.02, 187161.86, -187500.02, 187218.14, -187500.02, -187500.02, 0.000, 0.000, 0.000, 15:46:36.501, 1578577596501
182, -185497.55, -185488.00, -185652.94, -185658.34, -185641.48, -185593.45, -185723.45, 131397.55, 0.000, 0.000, 0.000, 15:46:36.501, 1578577596501
183, -187500.02, -187500.02, -187500.02, 187136.23, -187500.02, 187192.70, -187500.02, -187500.02, 0.000, 0.000, 0.000, 15:46:36.502, 1578577596502
184, -185499.09, -185489.47, -185654.45, -185659.75, -185643.02, -185594.84, -185724.92, 131363.55, 0.000, 0.000, 0.000, 15:46:36.502, 1578577596502
185, -187500.02, -187500.02, -187500.02, 187114.67, -187500.02, 187171.06, -187500.02, -187500.02, 0.000, 0.000, 0.000, 15:46:36.502, 1578577596502
186, -185503.63, -185494.11, -185659.06, -185664.33, -185647.50, -185599.52, -185729.52, 131331.14, 0.000, 0.000, 0.000, 15:46:36.502, 1578577596502
187, -187500.02, -187500.02, -187500.02, 187094.38, -187500.02, 187150.80, -187500.02, -187500.02, 0.000, 0.000, 0.000, 15:46:36.502, 1578577596502
188, -185506.64, -185497.09, -185662.08, -185667.38, -185650.59, -185602.55, -185732.58, 131300.41, -0.016, -0.012, 0.982, 15:46:36.502, 1578577596502
189, -187500.02, -187500.02, -187500.02, 187072.06, -187500.02, 187128.58, -187500.02, -187500.02, 0.000, 0.000, 0.000, 15:46:36.502, 1578577596502
190, -185511.45, -185501.95, -185666.86, -185672.31, -185655.42, -185607.31, -185737.33, 131263.52, 0.000, 0.000, 0.000, 15:46:36.502, 1578577596502
191, -187500.02, -187500.02, -187500.02, 187051.28, -187500.02, 187107.75, -187500.02, -187500.02, 0.000, 0.000, 0.000, 15:46:36.502, 1578577596502
192, -185514.20, -185504.77, -185669.75, -185675.13, -185658.30, -185610.22, -185740.20, 131231.17, 0.000, 0.000, 0.000, 15:46:36.502, 1578577596502
193, -187500.02, -187500.02, -187500.02, 187027.50, -187500.02, 187083.92, -187500.02, -187500.02, 0.000, 0.000, 0.000, 15:46:36.502, 1578577596502
194, -185518.13, -185508.56, -185673.61, -185679.05, -185662.08, -185614.06, -185744.05, 131195.75, 0.000, 0.000, 0.000, 15:46:36.502, 1578577596502
195, -187500.02, -187500.02, -187500.02, 187005.30, -187500.02, 187061.70, -187500.02, -187500.02, 0.000, 0.000, 0.000, 15:46:36.502, 1578577596502
196, -185522.88, -185513.23, -185678.30, -185683.67, -185666.77, -185618.78, -185748.83, 131159.45, 0.000, 0.000, 0.000, 15:46:36.502, 1578577596502
197, -187500.02, -187500.02, -187500.02, 186983.75, -187500.02, 187040.16, -187500.02, -187500.02, -0.018, -0.016, 0.980, 15:46:36.502, 1578577596502
198, -185525.34, -185515.81, -185680.83, -185686.22, -185669.25, -185621.31, -185751.30, 131126.48, 0.000, 0.000, 0.000, 15:46:36.503, 1578577596503
199, -187500.02, -187500.02, -187500.02, 186959.91, -187500.02, 187016.33, -187500.02, -187500.02, 0.000, 0.000, 0.000, 15:46:36.503, 1578577596503
200, -185529.83, -185520.25, -185685.30, -185690.73, -185673.77, -185625.78, -185755.73, 131089.72, 0.000, 0.000, 0.000, 15:46:36.503, 1578577596503
201, -187500.02, -187500.02, -187500.02, 186937.67, -187500.02, 186994.05, -187500.02, -187500.02, 0.000, 0.000, 0.000, 15:46:36.503, 1578577596503
202, -185534.78, -185525.13, -185690.22, -185695.67, -185678.59, -185630.78, -185760.61, 131057.13, 0.000, 0.000, 0.000, 15:46:36.503, 1578577596503
203, -187500.02, -187500.02, -187500.02, 186917.27, -187500.02, 186973.78, -187500.02, -187500.02, 0.000, 0.000, 0.000, 15:46:36.503, 1578577596503
204, -185538.98, -185529.36, -185694.44, -185699.83, -185682.75, -185634.94, -185764.88, 131019.88, 0.000, 0.000, 0.000, 15:46:36.503, 1578577596503
205, -187500.02, -187500.02, -187500.02, 186892.63, -187500.02, 186949.17, -187500.02, -187500.02, 0.000, 0.000, 0.000, 15:46:36.503, 1578577596503
206, -185543.83, -185534.20, -185699.31, -185704.61, -185687.64, -185639.72, -185769.75, 130982.45, 0.000, 0.000, 0.000, 15:46:36.503, 1578577596503
207, -187500.02, -187500.02, -187500.02, 186870.77, -187500.02, 186927.30, -187500.02, -187500.02, -0.022, -0.022, 0.980, 15:46:36.503, 1578577596503
208, -185547.09, -185537.52, -185702.58, -185707.89, -185690.98, -185643.02, -185773.05, 130953.37, 0.000, 0.000, 0.000, 15:46:36.503, 1578577596503
209, -187500.02, -187500.02, -187500.02, 186850.39, -187500.02, 186906.80, -187500.02, -187500.02, 0.000, 0.000, 0.000, 15:46:36.504, 1578577596504
210, -185550.86, -185541.25, -185706.22, -185711.66, -185694.70, -185646.66, -185776.78, 130919.35, 0.000, 0.000, 0.000, 15:46:36.978, 1578577596978
211, -187500.02, -187500.02, -187500.02, 186826.47, -187500.02, 186882.91, -187500.02, -187500.02, 0.000, 0.000, 0.000, 15:46:36.978, 1578577596978
212, -185556.69, -185547.03, -185712.13, -185717.44, -185700.52, -185652.63, -185782.63, 130885.46, 0.000, 0.000, 0.000, 15:46:36.978, 1578577596978
213, -187500.02, -187500.02, -187500.02, 186801.84, -187500.02, 186858.23, -187500.02, -187500.02, 0.000, 0.000, 0.000, 15:46:36.979, 1578577596979
214, -185560.17, -185550.56, -185715.56, -185720.86, -185703.98, -185656.05, -185786.00, 130848.18, 0.000, 0.000, 0.000, 15:46:36.979, 1578577596979
215, -187500.02, -187500.02, -187500.02, 186783.27, -187500.02, 186839.83, -187500.02, -187500.02, 0.000, 0.000, 0.000, 15:46:36.979, 1578577596979
216, -185563.55, -185553.94, -185718.89, -185724.34, -185707.42, -185659.48, -185789.48, 130815.57, 0.000, 0.000, 0.000, 15:46:36.979, 1578577596979
217, -187500.02, -187500.02, -187500.02, 186762.66, -187500.02, 186819.30, -187500.02, -187500.02, -0.018, -0.012, 0.982, 15:46:36.979, 1578577596979
218, -185565.89, -185556.28, -185721.20, -185726.66, -185709.69, -185661.73, -185791.73, 130787.16, 0.000, 0.000, 0.000, 15:46:36.979, 1578577596979
219, -187500.02, -187500.02, -187500.02, 186739.52, -187500.02, 186796.03, -187500.02, -187500.02, 0.000, 0.000, 0.000, 15:46:36.979, 1578577596979
220, -185571.70, -185562.19, -185727.05, -185732.42, -185715.56, -185667.63, -185797.63, 130754.03, 0.000, 0.000, 0.000, 15:46:36.980, 1578577596980
221, -187500.02, -187500.02, -187500.02, 186716.61, -187500.02, 186773.27, -187500.02, -187500.02, 0.000, 0.000, 0.000, 15:46:36.980, 1578577596980
222, -185576.69, -185567.16, -185732.03, -185737.38, -185720.45, -185672.63, -185802.63, 130725.36, 0.000, 0.000, 0.000, 15:46:36.980, 1578577596980
223, -187500.02, -187500.02, -187500.02, 186692.53, -187500.02, 186749.22, -187500.02, -187500.02, 0.000, 0.000, 0.000, 15:46:36.980, 1578577596980
224, -185578.80, -185569.31, -185734.23, -185739.55, -185722.61, -185674.70, -185804.70, 130692.26, 0.000, 0.000, 0.000, 15:46:36.980, 1578577596980
225, -187500.02, -187500.02, -187500.02, 186671.92, -187500.02, 186728.67, -187500.02, -187500.02, 0.000, 0.000, 0.000, 15:46:36.980, 1578577596980
226, -185581.39, -185571.84, -185736.73, -185742.05, -185725.16, -185677.30, -185807.34, 130660.52, 0.000, 0.000, 0.000, 15:46:36.981, 1578577596981
227, -187500.02, -187500.02, -187500.02, 186649.48, -187500.02, 186706.28, -187500.02, -187500.02, -0.014, -0.010, 0.982, 15:46:36.981, 1578577596981
228, -185586.06, -185576.52, -185741.41, -185746.75, -185729.91, -185681.92, -185811.98, 130631.93, 0.000, 0.000, 0.000, 15:46:36.981, 1578577596981
229, -187500.02, -187500.02, -187500.02, 186626.73, -187500.02, 186683.44, -187500.02, -187500.02, 0.000, 0.000, 0.000, 15:46:36.981, 1578577596981
230, -185588.89, -185579.36, -185744.17, -185749.56, -185732.69, -185684.72, -185814.73, 130597.48, 0.000, 0.000, 0.000, 15:46:36.981, 1578577596981
231, -187500.02, -187500.02, -187500.02, 186604.53, -187500.02, 186661.16, -187500.02, -187500.02, 0.000, 0.000, 0.000, 15:46:36.982, 1578577596982
232, -185593.41, -185583.88, -185748.72, -185754.05, -185737.22, -185689.28, -185819.25, 130569.41, 0.000, 0.000, 0.000, 15:46:36.982, 1578577596982
233, -187500.02, -187500.02, -187500.02, 186583.81, -187500.02, 186640.45, -187500.02, -187500.02, 0.000, 0.000, 0.000, 15:46:36.982, 1578577596982
234, -185596.50, -185586.97, -185751.84, -185757.09, -185740.27, -185692.44, -185822.39, 130538.14, 0.000, 0.000, 0.000, 15:46:36.983, 1578577596983
235, -187500.02, -187500.02, -187500.02, 186559.16, -187500.02, 186615.83, -187500.02, -187500.02, 0.000, 0.000, 0.000, 15:46:36.983, 1578577596983
236, -185602.31, -185592.72, -185757.66, -185762.88, -185746.08, -185698.13, -185828.19, 130507.34, -0.014, -0.016, 0.976, 15:46:36.983, 1578577596983
237, -187500.02, -187500.02, -187500.02, 186532.00, -187500.02, 186588.78, -187500.02, -187500.02, 0.000, 0.000, 0.000, 15:46:36.983, 1578577596983
238, -185603.42, -185593.80, -185758.66, -185764.02, -185747.13, -185699.20, -185829.16, 130478.41, 0.000, 0.000, 0.000, 15:46:36.984, 1578577596984
239, -187500.02, -187500.02, -187500.02, 186510.84, -187500.02, 186567.45, -187500.02, -187500.02, 0.000, 0.000, 0.000, 15:46:36.984, 1578577596984
240, -185609.30, -185599.77, -185764.56, -185769.97, -185753.08, -185705.08, -185835.09, 130447.28, 0.000, 0.000, 0.000, 15:46:36.984, 1578577596984
241, -187500.02, -187500.02, -187500.02, 186495.22, -187500.02, 186551.92, -187500.02, -187500.02, 0.000, 0.000, 0.000, 15:46:36.984, 1578577596984
242, -185612.70, -185603.11, -185768.00, -185773.34, -185756.48, -185708.44, -185838.50, 130421.15, 0.000, 0.000, 0.000, 15:46:36.984, 1578577596984
243, -187500.02, -187500.02, -187500.02, 186472.63, -187500.02, 186529.44, -187500.02, -187500.02, 0.000, 0.000, 0.000, 15:46:36.984, 1578577596984
244, -185616.30, -185606.73, -185771.63, -185776.97, -185760.20, -185712.13, -185842.17, 130389.19, 0.000, 0.000, 0.000, 15:46:36.985, 1578577596985
245, -187500.02, -187500.02, -187500.02, 186447.19, -187500.02, 186503.94, -187500.02, -187500.02, 0.000, 0.000, 0.000, 15:46:36.985, 1578577596985
246, -185619.00, -185609.48, -185774.30, -185779.77, -185762.77, -185714.77, -185845.00, 130356.69, -0.016, -0.012, 0.978, 15:46:36.985, 1578577596985
247, -187500.02, -187500.02, -187500.02, 186424.94, -187500.02, 186481.73, -187500.02, -187500.02, 0.000, 0.000, 0.000, 15:46:36.985, 1578577596985
248, -185623.66, -185614.11, -185778.95, -185784.30, -185767.44, -185719.41, -185849.63, 130329.40, 0.000, 0.000, 0.000, 15:46:36.985, 1578577596985
249, -187500.02, -187500.02, -187500.02, 186403.13, -187500.02, 186460.02, -187500.02, -187500.02, 0.000, 0.000, 0.000, 15:46:36.985, 1578577596985
250, -185628.69, -185619.14, -185784.08, -185789.34, -185772.45, -185724.44, -185854.64, 130295.49, 0.000, 0.000, 0.000, 15:46:36.985, 1578577596985
251, -187500.02, -187500.02, -187500.02, 186383.61, -187500.02, 186440.50, -187500.02, -187500.02, 0.000, 0.000, 0.000, 15:46:36.985, 1578577596985
252, -185633.78, -185624.28, -185789.14, -185794.38, -185777.56, -185729.44, -185859.67, 130265.94, 0.000, 0.000, 0.000, 15:46:36.985, 1578577596985
253, -187500.02, -187500.02, -187500.02, 186357.59, -187500.02, 186414.53, -187500.02, -187500.02, 0.000, 0.000, 0.000, 15:46:36.986, 1578577596986
254, -185637.47, -185627.98, -185792.77, -185798.09, -185781.25, -185733.16, -185863.41, 130235.48, 0.000, 0.000, 0.000, 15:46:36.986, 1578577596986
255, -187500.02, -187500.02, -187500.02, 186334.81, -187500.02, 186391.61, -187500.02, -187500.02, 0.000, 0.000, 0.000, 15:46:36.986, 1578577596986
0, -185638.92, -185629.36, -185794.22, -185799.55, -185782.63, -185734.67, -185864.81, 130206.98, -0.020, -0.014, 0.988, 15:46:36.986, 1578577596986
1, -187500.02, -187500.02, -187500.02, 186312.02, -187500.02, 186368.80, -187500.02, -187500.02, 0.000, 0.000, 0.000, 15:46:36.986, 1578577596986
2, -185642.50, -185632.97, -185797.80, -185803.11, -185786.28, -185738.30, -185868.45, 130182.97, 0.000, 0.000, 0.000, 15:46:36.986, 1578577596986
3, -187500.02, -187500.02, -187500.02, 186289.80, -187500.02, 186346.69, -187500.02, -187500.02, 0.000, 0.000, 0.000, 15:46:36.986, 1578577596986
4, -185648.42, -185638.78, -185803.67, -185809.00, -185792.14, -185744.22, -185874.27, 130150.49, 0.000, 0.000, 0.000, 15:46:36.986, 1578577596986
5, -187500.02, -187500.02, -187500.02, 186264.59, -187500.02, 186321.55, -187500.02, -187500.02, 0.000, 0.000, 0.000, 15:46:36.986, 1578577596986
6, -185651.38, -185641.73, -185806.61, -185811.91, -185795.16, -185747.08, -185877.30, 130121.34, 0.000, 0.000, 0.000, 15:46:36.986, 1578577596986
7, -187500.02, -187500.02, -187500.02, 186243.20, -187500.02, 186300.22, -187500.02, -187500.02, 0.000, 0.000, 0.000, 15:46:36.986, 1578577596986
8, -185652.44, -185642.81, -185807.67, -185812.97, -185796.14, -185748.22, -185878.33, 130093.02, 0.000, 0.000, 0.000, 15:46:36.986, 1578577596986
9, -187500.02, -187500.02, -187500.02, 186220.92, -187500.02, 186277.95, -187500.02, -187500.02, 0.000, 0.000, 0.000, 15:46:36.986, 1578577596986
10, -185657.88, -185648.42, -185813.28, -185818.58, -185801.70, -185753.81, -185883.92, 130064.13, -0.020, -0.014, 0.986, 15:46:36.986, 1578577596986
11, -187500.02, -187500.02, -187500.02, 186202.16, -187500.02, 186259.31, -187500.02, -187500.02, 0.000, 0.000, 0.000, 15:46:36.986, 1578577596986
12, -185660.42, -185650.88, -185815.86, -185821.16, -185804.28, -185756.36, -185886.44, 130038.45, 0.000, 0.000, 0.000, 15:46:36.986, 1578577596986
13, -187500.02, -187500.02, -187500.02, 186180.91, -187500.02, 186237.95, -187500.02, -187500.02, 0.000, 0.000, 0.000, 15:46:36.987, 1578577596987
14, -185663.23, -185653.72, -185818.61, -185823.88, -185807.08, -185759.13, -185889.17, 130007.71, 0.000, 0.000, 0.000, 15:46:36.987, 1578577596987
15, -187500.02, -187500.02, -187500.02, 186157.80, -187500.02, 186214.67, -187500.02, -187500.02, 0.000, 0.000, 0.000, 15:46:36.987, 1578577596987
16, -185667.08, -185657.56, -185822.30, -185827.59, -185810.77, -185762.86, -185892.92, 129981.67, 0.000, 0.000, 0.000, 15:46:36.987, 1578577596987
17, -187500.02, -187500.02, -187500.02, 186138.19, -187500.02, 186195.13, -187500.02, -187500.02, 0.000, 0.000, 0.000, 15:46:36.987, 1578577596987
18, -185670.13, -185660.73, -185825.42, -185830.75, -185813.89, -185766.03, -185896.13, 129956.13, 0.000, 0.000, 0.000, 15:46:36.987, 1578577596987
19, -187500.02, -187500.02, -187500.02, 186116.84, -187500.02, 186173.75, -187500.02, -187500.02, -0.014, -0.012, 0.980, 15:46:36.987, 1578577596987
20, -185675.75, -185666.22, -185830.97, -185836.20, -185819.45, -185771.44, -185901.64, 129928.98, 0.000, 0.000, 0.000, 15:46:36.987, 1578577596987
21, -187500.02, -187500.02, -187500.02, 186095.56, -187500.02, 186152.52, -187500.02, -187500.02, 0.000, 0.000, 0.000, 15:46:36.987, 1578577596987
22, -185678.55, -185668.98, -185833.81, -185839.02, -185822.23, -185774.22, -185904.50, 129901.96, 0.000, 0.000, 0.000, 15:46:36.987, 1578577596987
23, -187500.02, -187500.02, -187500.02, 186072.33, -187500.02, 186129.41, -187500.02, -187500.02, 0.000, 0.000, 0.000, 15:46:36.987, 1578577596987
24, -185683.02, -185673.45, -185838.28, -185843.53, -185826.73, -185778.80, -185909.02, 129872.91, 0.000, 0.000, 0.000, 15:46:36.987, 1578577596987
25, -187500.02, -187500.02, -187500.02, 186053.39, -187500.02, 186110.44, -187500.02, -187500.02, 0.000, 0.000, 0.000, 15:46:36.987, 1578577596987
26, -185688.08, -185678.64, -185843.48, -185848.69, -185831.81, -185783.92, -185914.16, 129846.58, 0.000, 0.000, 0.000, 15:46:36.987, 1578577596987
27, -187500.02, -187500.02, -187500.02, 186030.59, -187500.02, 186087.50, -187500.02, -187500.02, 0.000, 0.000, 0.000, 15:46:36.987, 1578577596987
28, -185690.89, -185681.34, -185846.19, -185851.47, -185834.72, -185786.67, -185916.84, 129815.69, 0.000, 0.000, 0.000, 15:46:36.987, 1578577596987
29, -187500.02, -187500.02, -187500.02, 186010.36, -187500.02, 186067.27, -187500.02, -187500.02, -0.014, -0.014, 0.978, 15:46:36.987, 1578577596987
30, -185695.00, -185685.44, -185850.22, -185855.48, -185838.66, -185790.78, -185920.86, 129787.61, 0.000, 0.000, 0.000, 15:46:36.988, 1578577596988
31, -187500.02, -187500.02, -187500.02, 185986.72, -187500.02, 186043.75, -187500.02, -187500.02, 0.000, 0.000, 0.000, 15:46:36.988, 1578577596988
32, -185696.41, -185686.81, -185851.63, -185856.84, -185840.00, -185792.09, -185922.27, 129762.11, 0.000, 0.000, 0.000, 15:46:36.988, 1578577596988
33, -187500.02, -187500.02, -187500.02, 185960.61, -187500.02, 186017.69, -187500.02, -187500.02, 0.000, 0.000, 0.000, 15:46:36.988, 1578577596988
34, -185701.06, -185691.47, -185856.30, -185861.56, -185844.75, -185796.83, -185927.03, 129733.12, 0.000, 0.000, 0.000, 15:46:36.988, 1578577596988
35, -187500.02, -187500.02, -187500.02, 185939.58, -187500.02, 185996.56, -187500.02, -187500.02, 0.000, 0.000, 0.000, 15:46:36.988, 1578577596988
36, -185705.50, -185695.98, -185860.66, -185866.03, -185849.27, -185801.31, -185931.48, 129708.04, 0.000, 0.000, 0.000, 15:46:36.988, 1578577596988
37, -187500.02, -187500.02, -187500.02, 185916.78, -187500.02, 185973.75, -187500.02, -187500.02, 0.000, 0.000, 0.000, 15:46:36.988, 1578577596988
38, -185708.50, -185698.89, -185863.67, -185868.94, -185852.20, -185804.13, -185934.34, 129676.97, 0.000, 0.000, 0.000, 15:46:36.988, 1578577596988
39, -187500.02, -187500.02, -187500.02, 185895.70, -187500.02, 185952.73, -187500.02, -187500.02, -0.020, -0.014, 0.978, 15:46:36.988, 1578577596988
