%OpenBCI Raw EEG Data
%Number of channels = 8
%Sample Rate = 250.0 Hz
%First Column = SampleIndex
%Last Column = Timestamp 
%Other Columns = EEG data in microvolts followed by Accel Data (in G) interleaved with Aux Data
0, 0.00, 0.00, 0.00, 0.00, 0.00, 0.00, 0.00, 0.00, 0.000, 0.000, 0.000, 16:18:24.136, 1574777904136
1, -187500.02, -187500.02, -31244.88, -187500.02, -187500.02, 14081.78, -187500.02, -187500.02, 0.002, -0.004, 0.980, 16:18:24.152, 1574777904152
2, -187500.02, -187500.02, -31299.13, -187500.02, -187500.02, 14146.28, -187500.02, -187500.02, 0.000, 0.000, 0.000, 16:18:24.635, 1574777904635
3, -187500.02, -187500.02, -31362.45, -187500.02, -187500.02, 14111.35, -187500.02, -187500.02, 0.000, 0.000, 0.000, 16:18:24.635, 1574777904635
4, -187500.02, -187500.02, -31355.34, -187500.02, -187500.02, 14015.79, -187500.02, -187500.02, 0.000, 0.000, 0.000, 16:18:24.635, 1574777904635
5, -187500.02, -187500.02, -31291.97, -187500.02, -187500.02, 13988.86, -187500.02, -187500.02, 0.000, 0.000, 0.000, 16:18:24.635, 1574777904635
6, -187500.02, -187500.02, -31267.83, -187500.02, -187500.02, 14059.54, -187500.02, -187500.02, 0.000, 0.000, 0.000, 16:18:24.635, 1574777904635
7, -187500.02, -187500.02, -31312.38, -187500.02, -187500.02, 14136.99, -187500.02, -187500.02, 0.000, 0.000, 0.000, 16:18:24.635, 1574777904635
8, -187500.02, -187500.02, -31377.58, -187500.02, -187500.02, 14095.55, -187500.02, -187500.02, 0.000, -0.006, 0.980, 16:18:24.635, 1574777904635
9, -187500.02, -187500.02, -31364.73, -187500.02, -187500.02, 14004.84, -187500.02, -187500.02, 0.000, 0.000, 0.000, 16:18:24.636, 1574777904636
10, -187500.02, -187500.02, -31294.21, -187500.02, -187500.02, 13990.16, -187500.02, -187500.02, 0.000, 0.000, 0.000, 16:18:24.636, 1574777904636
11, -187500.02, -187500.02, -31266.71, -187500.02, -187500.02, 14066.02, -187500.02, -187500.02, 0.000, 0.000, 0.000, 16:18:24.636, 1574777904636
12, -187500.02, -187500.02, -31314.28, -187500.02, -187500.02, 14141.03, -187500.02, -187500.02, 0.000, 0.000, 0.000, 16:18:24.636, 1574777904636
13, -187500.02, -187500.02, -31370.27, -187500.02, -187500.02, 14116.94, -187500.02, -187500.02, 0.000, 0.000, 0.000, 16:18:24.636, 1574777904636
14, -187500.02, -187500.02, -31359.90, -187500.02, -187500.02, 14024.15, -187500.02, -187500.02, 0.000, 0.000, 0.000, 16:18:24.636, 1574777904636
15, -187500.02, -187500.02, -31291.12, -187500.02, -187500.02, 13994.36, -187500.02, -187500.02, 0.000, 0.000, 0.000, 16:18:24.636, 1574777904636
16, -187500.02, -187500.02, -31257.48, -187500.02, -187500.02, 14061.71, -187500.02, -187500.02, 0.000, 0.000, 0.000, 16:18:24.636, 1574777904636
17, -187500.02, -187500.02, -31308.60, -187500.02, -187500.02, 14130.73, -187500.02, -187500.02, 0.000, -0.004, 0.980, 16:18:24.636, 1574777904636
18, -187500.02, -187500.02, -31368.59, -187500.02, -187500.02, 14097.98, -187500.02, -187500.02, 0.000, 0.000, 0.000, 16:18:24.636, 1574777904636
19, -187500.02, -187500.02, -31356.84, -187500.02, -187500.02, 14007.46, -187500.02, -187500.02, 0.000, 0.000, 0.000, 16:18:24.636, 1574777904636
20, -187500.02, -187500.02, -31287.21, -187500.02, -187500.02, 13985.24, -187500.02, -187500.02, 0.000, 0.000, 0.000, 16:18:24.636, 1574777904636
21, -187500.02, -187500.02, -31265.15, -187500.02, -187500.02, 14057.01, -187500.02, -187500.02, 0.000, 0.000, 0.000, 16:18:24.636, 1574777904636
22, -187500.02, -187500.02, -31327.85, -187500.02, -187500.02, 14121.18, -187500.02, -187500.02, 0.000, 0.000, 0.000, 16:18:24.637, 1574777904637
23, -187500.02, -187500.02, -31381.33, -187500.02, -187500.02, 14093.04, -187500.02, -187500.02, 0.000, 0.000, 0.000, 16:18:24.637, 1574777904637
24, -187500.02, -187500.02, -31360.95, -187500.02, -187500.02, 14012.00, -187500.02, -187500.02, 0.000, 0.000, 0.000, 16:18:24.637, 1574777904637
25, -187500.02, -187500.02, -31284.55, -187500.02, -187500.02, 13980.99, -187500.02, -187500.02, 0.000, 0.000, 0.000, 16:18:24.637, 1574777904637
26, -187500.02, -187500.02, -31259.05, -187500.02, -187500.02, 14049.43, -187500.02, -187500.02, 0.000, 0.000, 0.000, 16:18:24.637, 1574777904637
27, -187500.02, -187500.02, -31315.44, -187500.02, -187500.02, 14119.84, -187500.02, -187500.02, -0.002, -0.010, 0.976, 16:18:24.637, 1574777904637
28, -187500.02, -187500.02, -31370.09, -187500.02, -187500.02, 14101.18, -187500.02, -187500.02, 0.000, 0.000, 0.000, 16:18:24.637, 1574777904637
29, -187500.02, -187500.02, -31348.19, -187500.02, -187500.02, 14016.11, -187500.02, -187500.02, 0.000, 0.000, 0.000, 16:18:24.637, 1574777904637
30, -187500.02, -187500.02, -31282.16, -187500.02, -187500.02, 13994.67, -187500.02, -187500.02, 0.000, 0.000, 0.000, 16:18:24.637, 1574777904637
31, -187500.02, -187500.02, -31251.34, -187500.02, -187500.02, 14072.46, -187500.02, -187500.02, 0.000, 0.000, 0.000, 16:18:24.637, 1574777904637
32, -187500.02, -187500.02, -31303.06, -187500.02, -187500.02, 14134.75, -187500.02, -187500.02, 0.000, 0.000, 0.000, 16:18:24.637, 1574777904637
33, -187500.02, -187500.02, -31367.68, -187500.02, -187500.02, 14103.37, -187500.02, -187500.02, 0.000, 0.000, 0.000, 16:18:24.637, 1574777904637
34, -187500.02, -187500.02, -31355.50, -187500.02, -187500.02, 14011.71, -187500.02, -187500.02, 0.000, 0.000, 0.000, 16:18:24.637, 1574777904637
35, -187500.02, -187500.02, -31283.32, -187500.02, -187500.02, 13989.20, -187500.02, -187500.02, 0.000, 0.000, 0.000, 16:18:24.637, 1574777904637
36, -187500.02, -187500.02, -31253.97, -187500.02, -187500.02, 14067.90, -187500.02, -187500.02, 0.000, 0.000, 0.000, 16:18:24.638, 1574777904638
37, -187500.02, -187500.02, -31307.39, -187500.02, -187500.02, 14141.14, -187500.02, -187500.02, -0.002, -0.012, 0.976, 16:18:24.638, 1574777904638
38, -187500.02, -187500.02, -31365.55, -187500.02, -187500.02, 14111.35, -187500.02, -187500.02, 0.000, 0.000, 0.000, 16:18:24.638, 1574777904638
39, -187500.02, -187500.02, -31342.20, -187500.02, -187500.02, 14028.60, -187500.02, -187500.02, 0.000, 0.000, 0.000, 16:18:24.638, 1574777904638
40, -187500.02, -187500.02, -31269.44, -187500.02, -187500.02, 14006.92, -187500.02, -187500.02, 0.000, 0.000, 0.000, 16:18:24.638, 1574777904638
41, -187500.02, -187500.02, -31246.53, -187500.02, -187500.02, 14069.55, -187500.02, -187500.02, 0.000, 0.000, 0.000, 16:18:24.638, 1574777904638
42, -187500.02, -187500.02, -31302.10, -187500.02, -187500.02, 14145.39, -187500.02, -187500.02, 0.000, 0.000, 0.000, 16:18:24.638, 1574777904638
43, -187500.02, -187500.02, -31356.57, -187500.02, -187500.02, 14118.30, -187500.02, -187500.02, 0.000, 0.000, 0.000, 16:18:24.638, 1574777904638
44, -187500.02, -187500.02, -31335.24, -187500.02, -187500.02, 14033.05, -187500.02, -187500.02, 0.000, 0.000, 0.000, 16:18:24.638, 1574777904638
45, -187500.02, -187500.02, -31266.29, -187500.02, -187500.02, 14009.74, -187500.02, -187500.02, 0.000, 0.000, 0.000, 16:18:24.638, 1574777904638
46, -187500.02, -187500.02, -31239.85, -187500.02, -187500.02, 14084.57, -187500.02, -187500.02, 0.000, 0.000, 0.000, 16:18:24.638, 1574777904638
47, -187500.02, -187500.02, -31296.06, -187500.02, -187500.02, 14154.98, -187500.02, -187500.02, 0.000, -0.008, 0.974, 16:18:24.638, 1574777904638
48, -187500.02, -187500.02, -31360.59, -187500.02, -187500.02, 14117.81, -187500.02, -187500.02, 0.000, 0.000, 0.000, 16:18:24.638, 1574777904638
49, -187500.02, -187500.02, -31341.06, -187500.02, -187500.02, 14031.93, -187500.02, -187500.02, 0.000, 0.000, 0.000, 16:18:24.638, 1574777904638
50, -187500.02, -187500.02, -31274.02, -187500.02, -187500.02, 14003.17, -187500.02, -187500.02, 0.000, 0.000, 0.000, 16:18:24.639, 1574777904639
51, -187500.02, -187500.02, -31237.54, -187500.02, -187500.02, 14078.74, -187500.02, -187500.02, 0.000, 0.000, 0.000, 16:18:24.639, 1574777904639
52, -187500.02, -187500.02, -31291.93, -187500.02, -187500.02, 14148.90, -187500.02, -187500.02, 0.000, 0.000, 0.000, 16:18:24.639, 1574777904639
53, -187500.02, -187500.02, -31353.37, -187500.02, -187500.02, 14121.23, -187500.02, -187500.02, 0.000, 0.000, 0.000, 16:18:24.639, 1574777904639
54, -187500.02, -187500.02, -31341.93, -187500.02, -187500.02, 14025.52, -187500.02, -187500.02, 0.000, 0.000, 0.000, 16:18:24.639, 1574777904639
55, -187500.02, -187500.02, -31264.21, -187500.02, -187500.02, 14016.31, -187500.02, -187500.02, 0.000, 0.000, 0.000, 16:18:24.639, 1574777904639
56, -187500.02, -187500.02, -31225.88, -187500.02, -187500.02, 14094.52, -187500.02, -187500.02, 0.000, -0.004, 0.972, 16:18:24.639, 1574777904639
57, -187500.02, -187500.02, -31276.46, -187500.02, -187500.02, 14161.82, -187500.02, -187500.02, 0.000, 0.000, 0.000, 16:18:24.640, 1574777904640
58, -187500.02, -187500.02, -31347.85, -187500.02, -187500.02, 14123.87, -187500.02, -187500.02, 0.000, 0.000, 0.000, 16:18:24.640, 1574777904640
59, -187500.02, -187500.02, -31341.08, -187500.02, -187500.02, 14030.19, -187500.02, -187500.02, 0.000, 0.000, 0.000, 16:18:24.640, 1574777904640
60, -187500.02, -187500.02, -31278.43, -187500.02, -187500.02, 14007.91, -187500.02, -187500.02, 0.000, 0.000, 0.000, 16:18:24.640, 1574777904640
61, -187500.02, -187500.02, -31253.35, -187500.02, -187500.02, 14084.57, -187500.02, -187500.02, 0.000, 0.000, 0.000, 16:18:24.640, 1574777904640
62, -187500.02, -187500.02, -31303.10, -187500.02, -187500.02, 14160.08, -187500.02, -187500.02, 0.000, 0.000, 0.000, 16:18:24.640, 1574777904640
63, -187500.02, -187500.02, -31357.66, -187500.02, -187500.02, 14142.80, -187500.02, -187500.02, 0.000, 0.000, 0.000, 16:18:24.640, 1574777904640
64, -187500.02, -187500.02, -31345.88, -187500.02, -187500.02, 14055.58, -187500.02, -187500.02, 0.000, 0.000, 0.000, 16:18:24.640, 1574777904640
65, -187500.02, -187500.02, -31274.27, -187500.02, -187500.02, 14024.38, -187500.02, -187500.02, 0.000, 0.000, 0.000, 16:18:24.640, 1574777904640
66, -187500.02, -187500.02, -31248.83, -187500.02, -187500.02, 14093.18, -187500.02, -187500.02, 0.000, -0.006, 0.972, 16:18:24.640, 1574777904640
67, -187500.02, -187500.02, -31297.36, -187500.02, -187500.02, 14170.98, -187500.02, -187500.02, 0.000, 0.000, 0.000, 16:18:24.640, 1574777904640
68, -187500.02, -187500.02, -31355.65, -187500.02, -187500.02, 14156.59, -187500.02, -187500.02, 0.000, 0.000, 0.000, 16:18:24.640, 1574777904640
69, -187500.02, -187500.02, -31340.07, -187500.02, -187500.02, 14072.72, -187500.02, -187500.02, 0.000, 0.000, 0.000, 16:18:24.640, 1574777904640
70, -187500.02, -187500.02, -31273.51, -187500.02, -187500.02, 14037.30, -187500.02, -187500.02, 0.000, 0.000, 0.000, 16:18:24.640, 1574777904640
71, -187500.02, -187500.02, -31243.92, -187500.02, -187500.02, 14102.70, -187500.02, -187500.02, 0.000, 0.000, 0.000, 16:18:24.640, 1574777904640
72, -187500.02, -187500.02, -31291.26, -187500.02, -187500.02, 14190.18, -187500.02, -187500.02, 0.000, 0.000, 0.000, 16:18:24.640, 1574777904640
73, -187500.02, -187500.02, -31348.05, -187500.02, -187500.02, 14166.20, -187500.02, -187500.02, 0.000, 0.000, 0.000, 16:18:24.640, 1574777904640
74, -187500.02, -187500.02, -31341.23, -187500.02, -187500.02, 14063.85, -187500.02, -187500.02, 0.000, 0.000, 0.000, 16:18:24.640, 1574777904640
75, -187500.02, -187500.02, -31265.82, -187500.02, -187500.02, 14046.57, -187500.02, -187500.02, 0.000, 0.000, 0.000, 16:18:24.640, 1574777904640
76, -187500.02, -187500.02, -31233.30, -187500.02, -187500.02, 14127.31, -187500.02, -187500.02, -0.002, -0.010, 0.972, 16:18:24.640, 1574777904640
77, -187500.02, -187500.02, -31286.27, -187500.02, -187500.02, 14201.65, -187500.02, -187500.02, 0.000, 0.000, 0.000, 16:18:24.641, 1574777904641
78, -187500.02, -187500.02, -31357.24, -187500.02, -187500.02, 14169.96, -187500.02, -187500.02, 0.000, 0.000, 0.000, 16:18:24.641, 1574777904641
79, -187500.02, -187500.02, -31345.24, -187500.02, -187500.02, 14073.69, -187500.02, -187500.02, 0.000, 0.000, 0.000, 16:18:24.641, 1574777904641
80, -187500.02, -187500.02, -31272.82, -187500.02, -187500.02, 14049.19, -187500.02, -187500.02, 0.000, 0.000, 0.000, 16:18:24.641, 1574777904641
81, -187500.02, -187500.02, -31241.35, -187500.02, -187500.02, 14127.67, -187500.02, -187500.02, 0.000, 0.000, 0.000, 16:18:24.641, 1574777904641
82, -187500.02, -187500.02, -31290.85, -187500.02, -187500.02, 14194.45, -187500.02, -187500.02, 0.000, 0.000, 0.000, 16:18:24.641, 1574777904641
83, -187500.02, -187500.02, -31349.77, -187500.02, -187500.02, 14169.80, -187500.02, -187500.02, 0.000, 0.000, 0.000, 16:18:24.641, 1574777904641
84, -187500.02, -187500.02, -31343.76, -187500.02, -187500.02, 14078.09, -187500.02, -187500.02, 0.000, 0.000, 0.000, 16:18:24.641, 1574777904641
85, -187500.02, -187500.02, -31274.87, -187500.02, -187500.02, 14054.49, -187500.02, -187500.02, 0.000, 0.000, 0.000, 16:18:24.641, 1574777904641
86, -187500.02, -187500.02, -31245.14, -187500.02, -187500.02, 14124.47, -187500.02, -187500.02, -0.002, -0.008, 0.968, 16:18:24.641, 1574777904641
87, -187500.02, -187500.02, -31302.28, -187500.02, -187500.02, 14188.93, -187500.02, -187500.02, 0.000, 0.000, 0.000, 16:18:24.641, 1574777904641
88, -187500.02, -187500.02, -31367.14, -187500.02, -187500.02, 14167.00, -187500.02, -187500.02, 0.000, 0.000, 0.000, 16:18:24.641, 1574777904641
89, -187500.02, -187500.02, -31349.79, -187500.02, -187500.02, 14080.64, -187500.02, -187500.02, 0.000, 0.000, 0.000, 16:18:24.641, 1574777904641
90, -187500.02, -187500.02, -31273.02, -187500.02, -187500.02, 14046.35, -187500.02, -187500.02, 0.000, 0.000, 0.000, 16:18:24.641, 1574777904641
91, -187500.02, -187500.02, -31243.40, -187500.02, -187500.02, 14120.36, -187500.02, -187500.02, 0.000, 0.000, 0.000, 16:18:24.642, 1574777904642
92, -187500.02, -187500.02, -31297.72, -187500.02, -187500.02, 14189.80, -187500.02, -187500.02, 0.000, 0.000, 0.000, 16:18:24.642, 1574777904642
93, -187500.02, -187500.02, -31361.24, -187500.02, -187500.02, 14160.46, -187500.02, -187500.02, 0.000, 0.000, 0.000, 16:18:24.642, 1574777904642
94, -187500.02, -187500.02, -31353.60, -187500.02, -187500.02, 14068.08, -187500.02, -187500.02, 0.000, 0.000, 0.000, 16:18:24.642, 1574777904642
95, -187500.02, -187500.02, -31281.20, -187500.02, -187500.02, 14037.77, -187500.02, -187500.02, 0.000, -0.010, 0.972, 16:18:24.642, 1574777904642
96, -187500.02, -187500.02, -31251.18, -187500.02, -187500.02, 14102.30, -187500.02, -187500.02, 0.000, 0.000, 0.000, 16:18:24.642, 1574777904642
97, -187500.02, -187500.02, -31300.31, -187500.02, -187500.02, 14180.55, -187500.02, -187500.02, 0.000, 0.000, 0.000, 16:18:24.642, 1574777904642
98, -187500.02, -187500.02, -31369.31, -187500.02, -187500.02, 14150.17, -187500.02, -187500.02, 0.000, 0.000, 0.000, 16:18:24.642, 1574777904642
99, -187500.02, -187500.02, -31354.45, -187500.02, -187500.02, 14065.86, -187500.02, -187500.02, 0.000, 0.000, 0.000, 16:18:24.642, 1574777904642
100, -187500.02, -187500.02, -31290.41, -187500.02, -187500.02, 14027.44, -187500.02, -187500.02, 0.000, 0.000, 0.000, 16:18:24.642, 1574777904642
101, -187500.02, -187500.02, -31262.80, -187500.02, -187500.02, 14093.13, -187500.02, -187500.02, 0.000, 0.000, 0.000, 16:18:24.642, 1574777904642
102, -187500.02, -187500.02, -31309.90, -187500.02, -187500.02, 14174.60, -187500.02, -187500.02, 0.000, 0.000, 0.000, 16:18:24.642, 1574777904642
103, -187500.02, -187500.02, -31367.19, -187500.02, -187500.02, 14150.53, -187500.02, -187500.02, 0.000, 0.000, 0.000, 16:18:24.643, 1574777904643
104, -187500.02, -187500.02, -31349.01, -187500.02, -187500.02, 14078.98, -187500.02, -187500.02, 0.000, 0.000, 0.000, 16:18:24.643, 1574777904643
105, -187500.02, -187500.02, -31277.13, -187500.02, -187500.02, 14040.38, -187500.02, -187500.02, 0.000, -0.006, 0.974, 16:18:24.643, 1574777904643
106, -187500.02, -187500.02, -31248.30, -187500.02, -187500.02, 14104.40, -187500.02, -187500.02, 0.000, 0.000, 0.000, 16:18:24.643, 1574777904643
107, -187500.02, -187500.02, -31310.70, -187500.02, -187500.02, 14172.68, -187500.02, -187500.02, 0.000, 0.000, 0.000, 16:18:24.643, 1574777904643
108, -187500.02, -187500.02, -31374.72, -187500.02, -187500.02, 14147.96, -187500.02, -187500.02, 0.000, 0.000, 0.000, 16:18:24.643, 1574777904643
109, -187500.02, -187500.02, -31360.35, -187500.02, -187500.02, 14064.99, -187500.02, -187500.02, 0.000, 0.000, 0.000, 16:18:24.643, 1574777904643
110, -187500.02, -187500.02, -31288.96, -187500.02, -187500.02, 14044.11, -187500.02, -187500.02, 0.000, 0.000, 0.000, 16:18:24.643, 1574777904643
111, -187500.02, -187500.02, -31253.35, -187500.02, -187500.02, 14117.65, -187500.02, -187500.02, 0.000, 0.000, 0.000, 16:18:24.643, 1574777904643
112, -187500.02, -187500.02, -31304.22, -187500.02, -187500.02, 14179.54, -187500.02, -187500.02, 0.000, 0.000, 0.000, 16:18:24.643, 1574777904643
113, -187500.02, -187500.02, -31363.65, -187500.02, -187500.02, 14155.94, -187500.02, -187500.02, 0.000, 0.000, 0.000, 16:18:24.644, 1574777904644
114, -187500.02, -187500.02, -31346.42, -187500.02, -187500.02, 14083.77, -187500.02, -187500.02, 0.000, 0.000, 0.000, 16:18:24.644, 1574777904644
115, -187500.02, -187500.02, -31280.64, -187500.02, -187500.02, 14043.56, -187500.02, -187500.02, -0.002, -0.004, 0.982, 16:18:24.644, 1574777904644
116, -187500.02, -187500.02, -31257.64, -187500.02, -187500.02, 14101.00, -187500.02, -187500.02, 0.000, 0.000, 0.000, 16:18:24.644, 1574777904644
117, -187500.02, -187500.02, -31307.17, -187500.02, -187500.02, 14175.77, -187500.02, -187500.02, 0.000, 0.000, 0.000, 16:18:24.644, 1574777904644
118, -187500.02, -187500.02, -31358.38, -187500.02, -187500.02, 14163.09, -187500.02, -187500.02, 0.000, 0.000, 0.000, 16:18:24.644, 1574777904644
119, -187500.02, -187500.02, -31351.65, -187500.02, -187500.02, 14075.97, -187500.02, -187500.02, 0.000, 0.000, 0.000, 16:18:24.644, 1574777904644
120, -187500.02, -187500.02, -31282.76, -187500.02, -187500.02, 14056.43, -187500.02, -187500.02, 0.000, 0.000, 0.000, 16:18:24.644, 1574777904644
121, -187500.02, -187500.02, -31248.77, -187500.02, -187500.02, 14129.45, -187500.02, -187500.02, 0.000, 0.000, 0.000, 16:18:24.644, 1574777904644
122, -187500.02, -187500.02, -31299.55, -187500.02, -187500.02, 14183.37, -187500.02, -187500.02, 0.000, 0.000, 0.000, 16:18:24.644, 1574777904644
123, -187500.02, -187500.02, -31356.77, -187500.02, -187500.02, 14163.58, -187500.02, -187500.02, 0.000, 0.000, 0.000, 16:18:25.113, 1574777905113
124, -187500.02, -187500.02, -31346.11, -187500.02, -187500.02, 14085.69, -187500.02, -187500.02, 0.000, 0.000, 0.000, 16:18:25.114, 1574777905114
125, -187500.02, -187500.02, -31272.64, -187500.02, -187500.02, 14060.66, -187500.02, -187500.02, -0.002, -0.008, 0.976, 16:18:25.114, 1574777905114
126, -187500.02, -187500.02, -31242.75, -187500.02, -187500.02, 14122.97, -187500.02, -187500.02, 0.000, 0.000, 0.000, 16:18:25.114, 1574777905114
127, -187500.02, -187500.02, -31297.34, -187500.02, -187500.02, 14187.50, -187500.02, -187500.02, 0.000, 0.000, 0.000, 16:18:25.114, 1574777905114
128, -187500.02, -187500.02, -31359.85, -187500.02, -187500.02, 14163.23, -187500.02, -187500.02, 0.000, 0.000, 0.000, 16:18:25.114, 1574777905114
129, -187500.02, -187500.02, -31351.88, -187500.02, -187500.02, 14084.35, -187500.02, -187500.02, 0.000, 0.000, 0.000, 16:18:25.114, 1574777905114
130, -187500.02, -187500.02, -31279.16, -187500.02, -187500.02, 14055.42, -187500.02, -187500.02, 0.000, 0.000, 0.000, 16:18:25.114, 1574777905114
131, -187500.02, -187500.02, -31246.40, -187500.02, -187500.02, 14114.19, -187500.02, -187500.02, 0.000, 0.000, 0.000, 16:18:25.114, 1574777905114
132, -187500.02, -187500.02, -31295.03, -187500.02, -187500.02, 14186.88, -187500.02, -187500.02, 0.000, 0.000, 0.000, 16:18:25.114, 1574777905114
133, -187500.02, -187500.02, -31351.56, -187500.02, -187500.02, 14170.69, -187500.02, -187500.02, 0.000, 0.000, 0.000, 16:18:25.114, 1574777905114
134, -187500.02, -187500.02, -31336.12, -187500.02, -187500.02, 14091.46, -187500.02, -187500.02, 0.002, -0.012, 0.976, 16:18:25.114, 1574777905114
135, -187500.02, -187500.02, -31278.40, -187500.02, -187500.02, 14054.53, -187500.02, -187500.02, 0.000, 0.000, 0.000, 16:18:25.115, 1574777905115
136, -187500.02, -187500.02, -31252.50, -187500.02, -187500.02, 14104.15, -187500.02, -187500.02, 0.000, 0.000, 0.000, 16:18:25.115, 1574777905115
137, -187500.02, -187500.02, -31294.72, -187500.02, -187500.02, 14181.58, -187500.02, -187500.02, 0.000, 0.000, 0.000, 16:18:25.115, 1574777905115
138, -187500.02, -187500.02, -31353.04, -187500.02, -187500.02, 14167.52, -187500.02, -187500.02, 0.000, 0.000, 0.000, 16:18:25.115, 1574777905115
139, -187500.02, -187500.02, -31346.22, -187500.02, -187500.02, 14078.25, -187500.02, -187500.02, 0.000, 0.000, 0.000, 16:18:25.115, 1574777905115
140, -187500.02, -187500.02, -31286.65, -187500.02, -187500.02, 14044.00, -187500.02, -187500.02, 0.000, 0.000, 0.000, 16:18:25.115, 1574777905115
141, -187500.02, -187500.02, -31249.91, -187500.02, -187500.02, 14111.15, -187500.02, -187500.02, 0.000, 0.000, 0.000, 16:18:25.115, 1574777905115
142, -187500.02, -187500.02, -31295.53, -187500.02, -187500.02, 14177.35, -187500.02, -187500.02, 0.000, 0.000, 0.000, 16:18:25.115, 1574777905115
143, -187500.02, -187500.02, -31354.29, -187500.02, -187500.02, 14160.92, -187500.02, -187500.02, 0.000, 0.000, 0.000, 16:18:25.115, 1574777905115
144, -187500.02, -187500.02, -31345.37, -187500.02, -187500.02, 14086.00, -187500.02, -187500.02, 0.004, -0.008, 0.974, 16:18:25.115, 1574777905115
145, -187500.02, -187500.02, -31286.70, -187500.02, -187500.02, 14052.41, -187500.02, -187500.02, 0.000, 0.000, 0.000, 16:18:25.115, 1574777905115
146, -187500.02, -187500.02, -31252.70, -187500.02, -187500.02, 14119.66, -187500.02, -187500.02, 0.000, 0.000, 0.000, 16:18:25.115, 1574777905115
147, -187500.02, -187500.02, -31291.01, -187500.02, -187500.02, 14187.99, -187500.02, -187500.02, 0.000, 0.000, 0.000, 16:18:25.115, 1574777905115
148, -187500.02, -187500.02, -31345.97, -187500.02, -187500.02, 14168.59, -187500.02, -187500.02, 0.000, 0.000, 0.000, 16:18:25.115, 1574777905115
149, -187500.02, -187500.02, -31336.41, -187500.02, -187500.02, 14097.92, -187500.02, -187500.02, 0.000, 0.000, 0.000, 16:18:25.116, 1574777905116
150, -187500.02, -187500.02, -31277.53, -187500.02, -187500.02, 14074.69, -187500.02, -187500.02, 0.000, 0.000, 0.000, 16:18:25.116, 1574777905116
151, -187500.02, -187500.02, -31242.15, -187500.02, -187500.02, 14123.78, -187500.02, -187500.02, 0.000, 0.000, 0.000, 16:18:25.116, 1574777905116
152, -187500.02, -187500.02, -31273.80, -187500.02, -187500.02, 14197.78, -187500.02, -187500.02, 0.000, 0.000, 0.000, 16:18:25.116, 1574777905116
153, -187500.02, -187500.02, -31336.56, -187500.02, -187500.02, 14175.65, -187500.02, -187500.02, 0.000, 0.000, 0.000, 16:18:25.116, 1574777905116
154, -187500.02, -187500.02, -31344.12, -187500.02, -187500.02, 14077.31, -187500.02, -187500.02, 0.002, -0.008, 0.974, 16:18:25.116, 1574777905116
155, -187500.02, -187500.02, -31286.47, -187500.02, -187500.02, 14048.83, -187500.02, -187500.02, 0.000, 0.000, 0.000, 16:18:25.116, 1574777905116
156, -187500.02, -187500.02, -31252.01, -187500.02, -187500.02, 14105.83, -187500.02, -187500.02, 0.000, 0.000, 0.000, 16:18:25.116, 1574777905116
157, -187500.02, -187500.02, -31282.70, -187500.02, -187500.02, 14185.29, -187500.02, -187500.02, 0.000, 0.000, 0.000, 16:18:25.116, 1574777905116
158, -187500.02, -187500.02, -31334.17, -187500.02, -187500.02, 14171.34, -187500.02, -187500.02, 0.000, 0.000, 0.000, 16:18:25.116, 1574777905116
159, -187500.02, -187500.02, -31331.15, -187500.02, -187500.02, 14094.54, -187500.02, -187500.02, 0.000, 0.000, 0.000, 16:18:25.116, 1574777905116
160, -187500.02, -187500.02, -31274.43, -187500.02, -187500.02, 14070.62, -187500.02, -187500.02, 0.000, 0.000, 0.000, 16:18:25.116, 1574777905116
161, -187500.02, -187500.02, -31241.46, -187500.02, -187500.02, 14129.23, -187500.02, -187500.02, 0.000, 0.000, 0.000, 16:18:25.116, 1574777905116
162, -187500.02, -187500.02, -31281.31, -187500.02, -187500.02, 14182.58, -187500.02, -187500.02, 0.000, 0.000, 0.000, 16:18:25.116, 1574777905116
163, -187500.02, -187500.02, -31343.78, -187500.02, -187500.02, 14154.15, -187500.02, -187500.02, 0.000, 0.000, 0.000, 16:18:25.117, 1574777905117
164, -187500.02, -187500.02, -31344.10, -187500.02, -187500.02, 14077.73, -187500.02, -187500.02, -0.002, -0.006, 0.976, 16:18:25.117, 1574777905117
165, -187500.02, -187500.02, -31286.94, -187500.02, -187500.02, 14054.80, -187500.02, -187500.02, 0.000, 0.000, 0.000, 16:18:25.117, 1574777905117
166, -187500.02, -187500.02, -31253.28, -187500.02, -187500.02, 14112.06, -187500.02, -187500.02, 0.000, 0.000, 0.000, 16:18:25.117, 1574777905117
167, -187500.02, -187500.02, -31287.79, -187500.02, -187500.02, 14177.91, -187500.02, -187500.02, 0.000, 0.000, 0.000, 16:18:25.117, 1574777905117
168, -187500.02, -187500.02, -31335.63, -187500.02, -187500.02, 14173.87, -187500.02, -187500.02, 0.000, 0.000, 0.000, 16:18:25.117, 1574777905117
169, -187500.02, -187500.02, -31334.71, -187500.02, -187500.02, 14095.37, -187500.02, -187500.02, 0.000, 0.000, 0.000, 16:18:25.117, 1574777905117
170, -187500.02, -187500.02, -31289.85, -187500.02, -187500.02, 14041.66, -187500.02, -187500.02, 0.000, 0.000, 0.000, 16:18:25.117, 1574777905117
171, -187500.02, -187500.02, -31254.87, -187500.02, -187500.02, 14099.99, -187500.02, -187500.02, 0.000, 0.000, 0.000, 16:18:25.117, 1574777905117
172, -187500.02, -187500.02, -31288.62, -187500.02, -187500.02, 14170.67, -187500.02, -187500.02, 0.000, 0.000, 0.000, 16:18:25.117, 1574777905117
173, -187500.02, -187500.02, -31337.35, -187500.02, -187500.02, 14154.55, -187500.02, -187500.02, 0.000, 0.000, 0.000, 16:18:25.117, 1574777905117
174, -187500.02, -187500.02, -31332.09, -187500.02, -187500.02, 14087.77, -187500.02, -187500.02, 0.000, -0.006, 0.976, 16:18:25.117, 1574777905117
175, -187500.02, -187500.02, -31277.91, -187500.02, -187500.02, 14061.42, -187500.02, -187500.02, 0.000, 0.000, 0.000, 16:18:25.117, 1574777905117
176, -187500.02, -187500.02, -31250.73, -187500.02, -187500.02, 14113.81, -187500.02, -187500.02, 0.000, 0.000, 0.000, 16:18:25.117, 1574777905117
177, -187500.02, -187500.02, -31289.29, -187500.02, -187500.02, 14171.54, -187500.02, -187500.02, 0.000, 0.000, 0.000, 16:18:25.118, 1574777905118
178, -187500.02, -187500.02, -31335.09, -187500.02, -187500.02, 14163.52, -187500.02, -187500.02, 0.000, 0.000, 0.000, 16:18:25.118, 1574777905118
179, -187500.02, -187500.02, -31329.23, -187500.02, -187500.02, 14091.23, -187500.02, -187500.02, 0.000, 0.000, 0.000, 16:18:25.119, 1574777905119
180, -187500.02, -187500.02, -31281.42, -187500.02, -187500.02, 14058.38, -187500.02, -187500.02, 0.000, 0.000, 0.000, 16:18:25.119, 1574777905119
181, -187500.02, -187500.02, -31252.25, -187500.02, -187500.02, 14107.93, -187500.02, -187500.02, 0.000, 0.000, 0.000, 16:18:25.119, 1574777905119
182, -187500.02, -187500.02, -31285.94, -187500.02, -187500.02, 14169.91, -187500.02, -187500.02, 0.000, 0.000, 0.000, 16:18:25.119, 1574777905119
183, -187500.02, -187500.02, -31337.03, -187500.02, -187500.02, 14157.26, -187500.02, -187500.02, 0.000, -0.010, 0.974, 16:18:25.119, 1574777905119
184, -187500.02, -187500.02, -31333.28, -187500.02, -187500.02, 14089.44, -187500.02, -187500.02, 0.000, 0.000, 0.000, 16:18:25.120, 1574777905120
185, -187500.02, -187500.02, -31283.86, -187500.02, -187500.02, 14065.50, -187500.02, -187500.02, 0.000, 0.000, 0.000, 16:18:25.120, 1574777905120
186, -187500.02, -187500.02, -31257.42, -187500.02, -187500.02, 14101.92, -187500.02, -187500.02, 0.000, 0.000, 0.000, 16:18:25.120, 1574777905120
187, -187500.02, -187500.02, -31283.37, -187500.02, -187500.02, 14165.95, -187500.02, -187500.02, 0.000, 0.000, 0.000, 16:18:25.120, 1574777905120
188, -187500.02, -187500.02, -31332.09, -187500.02, -187500.02, 14156.25, -187500.02, -187500.02, 0.000, 0.000, 0.000, 16:18:25.120, 1574777905120
189, -187500.02, -187500.02, -31338.04, -187500.02, -187500.02, 14079.50, -187500.02, -187500.02, 0.000, 0.000, 0.000, 16:18:25.120, 1574777905120
190, -187500.02, -187500.02, -31288.55, -187500.02, -187500.02, 14050.35, -187500.02, -187500.02, 0.000, 0.000, 0.000, 16:18:25.120, 1574777905120
191, -187500.02, -187500.02, -31263.25, -187500.02, -187500.02, 14095.70, -187500.02, -187500.02, 0.000, 0.000, 0.000, 16:18:25.120, 1574777905120
192, -187500.02, -187500.02, -31291.35, -187500.02, -187500.02, 14166.38, -187500.02, -187500.02, 0.000, 0.000, 0.000, 16:18:25.120, 1574777905120
193, -187500.02, -187500.02, -31332.23, -187500.02, -187500.02, 14165.73, -187500.02, -187500.02, 0.000, -0.004, 0.972, 16:18:25.120, 1574777905120
194, -187500.02, -187500.02, -31329.90, -187500.02, -187500.02, 14089.00, -187500.02, -187500.02, 0.000, 0.000, 0.000, 16:18:25.120, 1574777905120
195, -187500.02, -187500.02, -31284.86, -187500.02, -187500.02, 14052.74, -187500.02, -187500.02, 0.000, 0.000, 0.000, 16:18:25.120, 1574777905120
196, -187500.02, -187500.02, -31256.92, -187500.02, -187500.02, 14098.79, -187500.02, -187500.02, 0.000, 0.000, 0.000, 16:18:25.120, 1574777905120
197, -187500.02, -187500.02, -31282.72, -187500.02, -187500.02, 14161.10, -187500.02, -187500.02, 0.000, 0.000, 0.000, 16:18:25.121, 1574777905121
198, -187500.02, -187500.02, -31327.29, -187500.02, -187500.02, 14147.40, -187500.02, -187500.02, 0.000, 0.000, 0.000, 16:18:25.121, 1574777905121
199, -187500.02, -187500.02, -31322.82, -187500.02, -187500.02, 14082.27, -187500.02, -187500.02, 0.000, 0.000, 0.000, 16:18:25.121, 1574777905121
200, -187500.02, -187500.02, -31270.00, -187500.02, -187500.02, 14059.96, -187500.02, -187500.02, 0.000, 0.000, 0.000, 16:18:25.121, 1574777905121
201, -187500.02, -187500.02, -31237.10, -187500.02, -187500.02, 14108.17, -187500.02, -187500.02, 0.000, 0.000, 0.000, 16:18:25.121, 1574777905121
202, -187500.02, -187500.02, -31268.97, -187500.02, -187500.02, 14159.92, -187500.02, -187500.02, 0.000, 0.000, 0.000, 16:18:25.121, 1574777905121
203, -187500.02, -187500.02, -31307.51, -187500.02, -187500.02, 14145.50, -187500.02, -187500.02, 0.002, -0.006, 0.976, 16:18:25.121, 1574777905121
204, -187500.02, -187500.02, -31298.79, -187500.02, -187500.02, 14089.40, -187500.02, -187500.02, 0.000, 0.000, 0.000, 16:18:25.121, 1574777905121
205, -187500.02, -187500.02, -31264.03, -187500.02, -187500.02, 14055.92, -187500.02, -187500.02, 0.000, 0.000, 0.000, 16:18:25.121, 1574777905121
206, -187500.02, -187500.02, -31244.77, -187500.02, -187500.02, 14093.85, -187500.02, -187500.02, 0.000, 0.000, 0.000, 16:18:25.121, 1574777905121
207, -187500.02, -187500.02, -31271.72, -187500.02, -187500.02, 14144.21, -187500.02, -187500.02, 0.000, 0.000, 0.000, 16:18:25.121, 1574777905121
208, -187500.02, -187500.02, -31315.33, -187500.02, -187500.02, 14126.28, -187500.02, -187500.02, 0.000, 0.000, 0.000, 16:18:25.121, 1574777905121
209, -187500.02, -187500.02, -31312.80, -187500.02, -187500.02, 14074.20, -187500.02, -187500.02, 0.000, 0.000, 0.000, 16:18:25.121, 1574777905121
210, -187500.02, -187500.02, -31260.28, -187500.02, -187500.02, 14050.82, -187500.02, -187500.02, 0.000, 0.000, 0.000, 16:18:25.122, 1574777905122
211, -187500.02, -187500.02, -31232.18, -187500.02, -187500.02, 14093.49, -187500.02, -187500.02, 0.000, 0.000, 0.000, 16:18:25.122, 1574777905122
212, -187500.02, -187500.02, -31258.78, -187500.02, -187500.02, 14155.05, -187500.02, -187500.02, 0.000, 0.000, 0.000, 16:18:25.122, 1574777905122
213, -187500.02, -187500.02, -31302.81, -187500.02, -187500.02, 14138.95, -187500.02, -187500.02, 0.000, -0.006, 0.980, 16:18:25.122, 1574777905122
214, -187500.02, -187500.02, -31308.29, -187500.02, -187500.02, 14077.11, -187500.02, -187500.02, 0.000, 0.000, 0.000, 16:18:25.122, 1574777905122
215, -187500.02, -187500.02, -31263.85, -187500.02, -187500.02, 14047.40, -187500.02, -187500.02, 0.000, 0.000, 0.000, 16:18:25.123, 1574777905123
216, -187500.02, -187500.02, -31232.67, -187500.02, -187500.02, 14092.89, -187500.02, -187500.02, 0.000, 0.000, 0.000, 16:18:25.123, 1574777905123
217, -187500.02, -187500.02, -31256.59, -187500.02, -187500.02, 14150.58, -187500.02, -187500.02, 0.000, 0.000, 0.000, 16:18:25.123, 1574777905123
218, -187500.02, -187500.02, -31295.93, -187500.02, -187500.02, 14138.68, -187500.02, -187500.02, 0.000, 0.000, 0.000, 16:18:25.123, 1574777905123
219, -187500.02, -187500.02, -31296.84, -187500.02, -187500.02, 14076.99, -187500.02, -187500.02, 0.000, 0.000, 0.000, 16:18:25.123, 1574777905123
220, -187500.02, -187500.02, -31257.84, -187500.02, -187500.02, 14046.37, -187500.02, -187500.02, 0.000, 0.000, 0.000, 16:18:25.124, 1574777905124
221, -187500.02, -187500.02, -31228.61, -187500.02, -187500.02, 14098.79, -187500.02, -187500.02, 0.000, 0.000, 0.000, 16:18:25.124, 1574777905124
222, -187500.02, -187500.02, -31257.73, -187500.02, -187500.02, 14152.25, -187500.02, -187500.02, 0.002, -0.002, 0.972, 16:18:25.124, 1574777905124
223, -187500.02, -187500.02, -31307.39, -187500.02, -187500.02, 14130.66, -187500.02, -187500.02, 0.000, 0.000, 0.000, 16:18:25.124, 1574777905124
224, -187500.02, -187500.02, -31301.09, -187500.02, -187500.02, 14079.68, -187500.02, -187500.02, 0.000, 0.000, 0.000, 16:18:25.124, 1574777905124
225, -187500.02, -187500.02, -31253.62, -187500.02, -187500.02, 14049.55, -187500.02, -187500.02, 0.000, 0.000, 0.000, 16:18:25.124, 1574777905124
226, -187500.02, -187500.02, -31226.64, -187500.02, -187500.02, 14094.92, -187500.02, -187500.02, 0.000, 0.000, 0.000, 16:18:25.124, 1574777905124
227, -187500.02, -187500.02, -31255.05, -187500.02, -187500.02, 14146.15, -187500.02, -187500.02, 0.000, 0.000, 0.000, 16:18:25.124, 1574777905124
228, -187500.02, -187500.02, -31300.53, -187500.02, -187500.02, 14133.28, -187500.02, -187500.02, 0.000, 0.000, 0.000, 16:18:25.124, 1574777905124
229, -187500.02, -187500.02, -31302.52, -187500.02, -187500.02, 14072.86, -187500.02, -187500.02, 0.000, 0.000, 0.000, 16:18:25.124, 1574777905124
230, -187500.02, -187500.02, -31257.06, -187500.02, -187500.02, 14044.20, -187500.02, -187500.02, 0.000, 0.000, 0.000, 16:18:25.124, 1574777905124
231, -187500.02, -187500.02, -31227.22, -187500.02, -187500.02, 14087.16, -187500.02, -187500.02, 0.000, 0.000, 0.000, 16:18:25.124, 1574777905124
232, -187500.02, -187500.02, -31256.23, -187500.02, -187500.02, 14141.19, -187500.02, -187500.02, 0.000, -0.008, 0.974, 16:18:25.124, 1574777905124
233, -187500.02, -187500.02, -31297.02, -187500.02, -187500.02, 14139.47, -187500.02, -187500.02, 0.000, 0.000, 0.000, 16:18:25.125, 1574777905125
234, -187500.02, -187500.02, -31296.96, -187500.02, -187500.02, 14082.92, -187500.02, -187500.02, 0.000, 0.000, 0.000, 16:18:25.125, 1574777905125
235, -187500.02, -187500.02, -31253.26, -187500.02, -187500.02, 14052.92, -187500.02, -187500.02, 0.000, 0.000, 0.000, 16:18:25.125, 1574777905125
236, -187500.02, -187500.02, -31224.31, -187500.02, -187500.02, 14094.90, -187500.02, -187500.02, 0.000, 0.000, 0.000, 16:18:25.125, 1574777905125
237, -187500.02, -187500.02, -31253.24, -187500.02, -187500.02, 14153.33, -187500.02, -187500.02, 0.000, 0.000, 0.000, 16:18:25.125, 1574777905125
238, -187500.02, -187500.02, -31303.08, -187500.02, -187500.02, 14136.23, -187500.02, -187500.02, 0.000, 0.000, 0.000, 16:18:25.125, 1574777905125
239, -187500.02, -187500.02, -31300.96, -187500.02, -187500.02, 14081.44, -187500.02, -187500.02, 0.000, 0.000, 0.000, 16:18:25.125, 1574777905125
240, -187500.02, -187500.02, -31253.39, -187500.02, -187500.02, 14049.70, -187500.02, -187500.02, 0.000, 0.000, 0.000, 16:18:25.125, 1574777905125
241, -187500.02, -187500.02, -31222.68, -187500.02, -187500.02, 14101.13, -187500.02, -187500.02, 0.000, 0.000, 0.000, 16:18:25.125, 1574777905125
242, -187500.02, -187500.02, -31252.34, -187500.02, -187500.02, 14153.64, -187500.02, -187500.02, 0.000, -0.008, 0.976, 16:18:25.125, 1574777905125
243, -187500.02, -187500.02, -31296.84, -187500.02, -187500.02, 14148.05, -187500.02, -187500.02, 0.000, 0.000, 0.000, 16:18:25.594, 1574777905594
244, -187500.02, -187500.02, -31299.06, -187500.02, -187500.02, 14085.78, -187500.02, -187500.02, 0.000, 0.000, 0.000, 16:18:25.594, 1574777905594
245, -187500.02, -187500.02, -31253.95, -187500.02, -187500.02, 14067.70, -187500.02, -187500.02, 0.000, 0.000, 0.000, 16:18:25.594, 1574777905594
246, -187500.02, -187500.02, -31219.78, -187500.02, -187500.02, 14107.71, -187500.02, -187500.02, 0.000, 0.000, 0.000, 16:18:25.594, 1574777905594
247, -187500.02, -187500.02, -31246.26, -187500.02, -187500.02, 14162.85, -187500.02, -187500.02, 0.000, 0.000, 0.000, 16:18:25.595, 1574777905595
248, -187500.02, -187500.02, -31292.44, -187500.02, -187500.02, 14155.40, -187500.02, -187500.02, 0.000, 0.000, 0.000, 16:18:25.595, 1574777905595
249, -187500.02, -187500.02, -31294.54, -187500.02, -187500.02, 14098.36, -187500.02, -187500.02, 0.000, 0.000, 0.000, 16:18:25.595, 1574777905595
250, -187500.02, -187500.02, -31250.42, -187500.02, -187500.02, 14068.32, -187500.02, -187500.02, 0.000, 0.000, 0.000, 16:18:25.595, 1574777905595
251, -187500.02, -187500.02, -31215.69, -187500.02, -187500.02, 14116.53, -187500.02, -187500.02, 0.000, 0.000, 0.000, 16:18:25.595, 1574777905595
252, -187500.02, -187500.02, -31234.53, -187500.02, -187500.02, 14180.64, -187500.02, -187500.02, -0.002, -0.008, 0.974, 16:18:25.595, 1574777905595
253, -187500.02, -187500.02, -31275.39, -187500.02, -187500.02, 14172.59, -187500.02, -187500.02, 0.000, 0.000, 0.000, 16:18:25.595, 1574777905595
254, -187500.02, -187500.02, -31275.14, -187500.02, -187500.02, 14105.67, -187500.02, -187500.02, 0.000, 0.000, 0.000, 16:18:25.595, 1574777905595
255, -187500.02, -187500.02, -31227.20, -187500.02, -187500.02, 14077.58, -187500.02, -187500.02, 0.000, 0.000, 0.000, 16:18:25.595, 1574777905595
0, -187500.02, -187500.02, -31214.57, -187500.02, -187500.02, 14106.95, -187500.02, -187500.02, 0.000, 0.000, 0.000, 16:18:25.595, 1574777905595
1, -187500.02, -187500.02, -31249.55, -187500.02, -187500.02, 14156.01, -187500.02, -187500.02, 0.000, 0.000, 0.000, 16:18:25.595, 1574777905595
2, -187500.02, -187500.02, -31292.35, -187500.02, -187500.02, 14147.07, -187500.02, -187500.02, 0.000, 0.000, 0.000, 16:18:25.596, 1574777905596
3, -187500.02, -187500.02, -31296.26, -187500.02, -187500.02, 14089.15, -187500.02, -187500.02, 0.000, 0.000, 0.000, 16:18:25.596, 1574777905596
4, -187500.02, -187500.02, -31250.55, -187500.02, -187500.02, 14065.04, -187500.02, -187500.02, 0.000, 0.000, 0.000, 16:18:25.596, 1574777905596
5, -187500.02, -187500.02, -31230.04, -187500.02, -187500.02, 14094.92, -187500.02, -187500.02, 0.000, -0.008, 0.978, 16:18:25.596, 1574777905596
6, -187500.02, -187500.02, -31252.30, -187500.02, -187500.02, 14156.77, -187500.02, -187500.02, 0.000, 0.000, 0.000, 16:18:25.596, 1574777905596
7, -187500.02, -187500.02, -31294.01, -187500.02, -187500.02, 14153.10, -187500.02, -187500.02, 0.000, 0.000, 0.000, 16:18:25.596, 1574777905596
8, -187500.02, -187500.02, -31294.41, -187500.02, -187500.02, 14090.90, -187500.02, -187500.02, 0.000, 0.000, 0.000, 16:18:25.596, 1574777905596
9, -187500.02, -187500.02, -31255.14, -187500.02, -187500.02, 14065.86, -187500.02, -187500.02, 0.000, 0.000, 0.000, 16:18:25.596, 1574777905596
10, -187500.02, -187500.02, -31223.84, -187500.02, -187500.02, 14108.42, -187500.02, -187500.02, 0.000, 0.000, 0.000, 16:18:25.596, 1574777905596
11, -187500.02, -187500.02, -31245.86, -187500.02, -187500.02, 14165.93, -187500.02, -187500.02, 0.000, 0.000, 0.000, 16:18:25.596, 1574777905596
12, -187500.02, -187500.02, -31287.55, -187500.02, -187500.02, 14155.16, -187500.02, -187500.02, 0.000, 0.000, 0.000, 16:18:25.596, 1574777905596
13, -187500.02, -187500.02, -31291.59, -187500.02, -187500.02, 14093.85, -187500.02, -187500.02, 0.000, 0.000, 0.000, 16:18:25.596, 1574777905596
14, -187500.02, -187500.02, -31255.38, -187500.02, -187500.02, 14056.65, -187500.02, -187500.02, 0.000, 0.000, 0.000, 16:18:25.597, 1574777905597
15, -187500.02, -187500.02, -31225.03, -187500.02, -187500.02, 14096.75, -187500.02, -187500.02, -0.002, -0.006, 0.974, 16:18:25.597, 1574777905597
16, -187500.02, -187500.02, -31247.09, -187500.02, -187500.02, 14157.08, -187500.02, -187500.02, 0.000, 0.000, 0.000, 16:18:25.597, 1574777905597
17, -187500.02, -187500.02, -31285.36, -187500.02, -187500.02, 14154.38, -187500.02, -187500.02, 0.000, 0.000, 0.000, 16:18:25.597, 1574777905597
18, -187500.02, -187500.02, -31285.82, -187500.02, -187500.02, 14091.41, -187500.02, -187500.02, 0.000, 0.000, 0.000, 16:18:25.597, 1574777905597
19, -187500.02, -187500.02, -31246.02, -187500.02, -187500.02, 14061.46, -187500.02, -187500.02, 0.000, 0.000, 0.000, 16:18:25.597, 1574777905597
20, -187500.02, -187500.02, -31215.64, -187500.02, -187500.02, 14114.48, -187500.02, -187500.02, 0.000, 0.000, 0.000, 16:18:25.597, 1574777905597
21, -187500.02, -187500.02, -31244.23, -187500.02, -187500.02, 14157.68, -187500.02, -187500.02, 0.000, 0.000, 0.000, 16:18:25.597, 1574777905597
22, -187500.02, -187500.02, -31286.61, -187500.02, -187500.02, 14144.92, -187500.02, -187500.02, 0.000, 0.000, 0.000, 16:18:25.597, 1574777905597
23, -187500.02, -187500.02, -31284.51, -187500.02, -187500.02, 14096.86, -187500.02, -187500.02, 0.000, 0.000, 0.000, 16:18:25.597, 1574777905597
24, -187500.02, -187500.02, -31244.92, -187500.02, -187500.02, 14070.78, -187500.02, -187500.02, 0.000, 0.000, 0.000, 16:18:25.597, 1574777905597
25, -187500.02, -187500.02, -31223.73, -187500.02, -187500.02, 14111.33, -187500.02, -187500.02, 0.000, -0.010, 0.978, 16:18:25.597, 1574777905597
26, -187500.02, -187500.02, -31249.06, -187500.02, -187500.02, 14164.10, -187500.02, -187500.02, 0.000, 0.000, 0.000, 16:18:25.598, 1574777905598
27, -187500.02, -187500.02, -31296.17, -187500.02, -187500.02, 14151.20, -187500.02, -187500.02, 0.000, 0.000, 0.000, 16:18:25.598, 1574777905598
28, -187500.02, -187500.02, -31291.39, -187500.02, -187500.02, 14095.90, -187500.02, -187500.02, 0.000, 0.000, 0.000, 16:18:25.598, 1574777905598
29, -187500.02, -187500.02, -31246.80, -187500.02, -187500.02, 14071.50, -187500.02, -187500.02, 0.000, 0.000, 0.000, 16:18:25.598, 1574777905598
30, -187500.02, -187500.02, -31224.42, -187500.02, -187500.02, 14113.00, -187500.02, -187500.02, 0.000, 0.000, 0.000, 16:18:25.598, 1574777905598
31, -187500.02, -187500.02, -31248.63, -187500.02, -187500.02, 14168.35, -187500.02, -187500.02, 0.000, 0.000, 0.000, 16:18:25.598, 1574777905598
32, -187500.02, -187500.02, -31288.64, -187500.02, -187500.02, 14163.23, -187500.02, -187500.02, 0.000, 0.000, 0.000, 16:18:25.598, 1574777905598
33, -187500.02, -187500.02, -31291.79, -187500.02, -187500.02, 14104.80, -187500.02, -187500.02, 0.000, 0.000, 0.000, 16:18:25.598, 1574777905598
34, -187500.02, -187500.02, -31249.06, -187500.02, -187500.02, 14077.91, -187500.02, -187500.02, 0.000, 0.000, 0.000, 16:18:25.598, 1574777905598
35, -187500.02, -187500.02, -31218.48, -187500.02, -187500.02, 14118.90, -187500.02, -187500.02, -0.002, -0.008, 0.970, 16:18:25.598, 1574777905598
36, -187500.02, -187500.02, -31241.72, -187500.02, -187500.02, 14169.53, -187500.02, -187500.02, 0.000, 0.000, 0.000, 16:18:25.599, 1574777905599
37, -187500.02, -187500.02, -31281.91, -187500.02, -187500.02, 14165.31, -187500.02, -187500.02, 0.000, 0.000, 0.000, 16:18:25.599, 1574777905599
38, -187500.02, -187500.02, -31284.44, -187500.02, -187500.02, 14107.97, -187500.02, -187500.02, 0.000, 0.000, 0.000, 16:18:25.599, 1574777905599
39, -187500.02, -187500.02, -31249.93, -187500.02, -187500.02, 14074.58, -187500.02, -187500.02, 0.000, 0.000, 0.000, 16:18:25.599, 1574777905599
40, -187500.02, -187500.02, -31223.31, -187500.02, -187500.02, 14109.23, -187500.02, -187500.02, 0.000, 0.000, 0.000, 16:18:25.599, 1574777905599
41, -187500.02, -187500.02, -31248.16, -187500.02, -187500.02, 14163.50, -187500.02, -187500.02, 0.000, 0.000, 0.000, 16:18:25.599, 1574777905599
42, -187500.02, -187500.02, -31285.31, -187500.02, -187500.02, 14162.49, -187500.02, -187500.02, 0.000, 0.000, 0.000, 16:18:25.599, 1574777905599
43, -187500.02, -187500.02, -31284.51, -187500.02, -187500.02, 14093.67, -187500.02, -187500.02, 0.000, 0.000, 0.000, 16:18:25.599, 1574777905599
44, -187500.02, -187500.02, -31244.41, -187500.02, -187500.02, 14067.20, -187500.02, -187500.02, 0.000, -0.006, 0.974, 16:18:25.599, 1574777905599
45, -187500.02, -187500.02, -31212.53, -187500.02, -187500.02, 14116.89, -187500.02, -187500.02, 0.000, 0.000, 0.000, 16:18:25.599, 1574777905599
46, -187500.02, -187500.02, -31238.44, -187500.02, -187500.02, 14167.61, -187500.02, -187500.02, 0.000, 0.000, 0.000, 16:18:25.600, 1574777905600
47, -187500.02, -187500.02, -31280.35, -187500.02, -187500.02, 14171.03, -187500.02, -187500.02, 0.000, 0.000, 0.000, 16:18:25.600, 1574777905600
48, -187500.02, -187500.02, -31284.82, -187500.02, -187500.02, 14114.10, -187500.02, -187500.02, 0.000, 0.000, 0.000, 16:18:25.600, 1574777905600
49, -187500.02, -187500.02, -31246.64, -187500.02, -187500.02, 14071.99, -187500.02, -187500.02, 0.000, 0.000, 0.000, 16:18:25.600, 1574777905600
50, -187500.02, -187500.02, -31212.44, -187500.02, -187500.02, 14116.20, -187500.02, -187500.02, 0.000, 0.000, 0.000, 16:18:25.600, 1574777905600
51, -187500.02, -187500.02, -31235.71, -187500.02, -187500.02, 14168.35, -187500.02, -187500.02, 0.000, 0.000, 0.000, 16:18:25.600, 1574777905600
52, -187500.02, -187500.02, -31272.17, -187500.02, -187500.02, 14160.17, -187500.02, -187500.02, 0.000, 0.000, 0.000, 16:18:25.601, 1574777905601
53, -187500.02, -187500.02, -31278.52, -187500.02, -187500.02, 14100.89, -187500.02, -187500.02, 0.000, 0.000, 0.000, 16:18:25.601, 1574777905601
54, -187500.02, -187500.02, -31242.40, -187500.02, -187500.02, 14071.41, -187500.02, -187500.02, -0.002, -0.004, 0.976, 16:18:25.601, 1574777905601
55, -187500.02, -187500.02, -31212.29, -187500.02, -187500.02, 14123.35, -187500.02, -187500.02, 0.000, 0.000, 0.000, 16:18:25.601, 1574777905601
56, -187500.02, -187500.02, -31233.52, -187500.02, -187500.02, 14175.99, -187500.02, -187500.02, 0.000, 0.000, 0.000, 16:18:25.601, 1574777905601
57, -187500.02, -187500.02, -31273.06, -187500.02, -187500.02, 14164.75, -187500.02, -187500.02, 0.000, 0.000, 0.000, 16:18:25.601, 1574777905601
58, -187500.02, -187500.02, -31281.71, -187500.02, -187500.02, 14098.23, -187500.02, -187500.02, 0.000, 0.000, 0.000, 16:18:25.601, 1574777905601
59, -187500.02, -187500.02, -31240.29, -187500.02, -187500.02, 14077.75, -187500.02, -187500.02, 0.000, 0.000, 0.000, 16:18:25.601, 1574777905601
60, -187500.02, -187500.02, -31213.67, -187500.02, -187500.02, 14109.27, -187500.02, -187500.02, 0.000, 0.000, 0.000, 16:18:25.601, 1574777905601
61, -187500.02, -187500.02, -31233.37, -187500.02, -187500.02, 14166.92, -187500.02, -187500.02, 0.000, 0.000, 0.000, 16:18:25.601, 1574777905601
62, -187500.02, -187500.02, -31272.15, -187500.02, -187500.02, 14169.44, -187500.02, -187500.02, 0.000, 0.000, 0.000, 16:18:25.601, 1574777905601
63, -187500.02, -187500.02, -31278.18, -187500.02, -187500.02, 14117.54, -187500.02, -187500.02, 0.000, 0.000, 0.000, 16:18:25.601, 1574777905601
64, -187500.02, -187500.02, -31242.87, -187500.02, -187500.02, 14083.12, -187500.02, -187500.02, 0.000, -0.008, 0.978, 16:18:25.602, 1574777905602
65, -187500.02, -187500.02, -31217.92, -187500.02, -187500.02, 14114.48, -187500.02, -187500.02, 0.000, 0.000, 0.000, 16:18:25.602, 1574777905602
66, -187500.02, -187500.02, -31235.53, -187500.02, -187500.02, 14170.76, -187500.02, -187500.02, 0.000, 0.000, 0.000, 16:18:25.602, 1574777905602
67, -187500.02, -187500.02, -31270.92, -187500.02, -187500.02, 14164.81, -187500.02, -187500.02, 0.000, 0.000, 0.000, 16:18:25.602, 1574777905602
68, -187500.02, -187500.02, -31273.42, -187500.02, -187500.02, 14106.39, -187500.02, -187500.02, 0.000, 0.000, 0.000, 16:18:25.602, 1574777905602
69, -187500.02, -187500.02, -31235.31, -187500.02, -187500.02, 14076.14, -187500.02, -187500.02, 0.000, 0.000, 0.000, 16:18:25.602, 1574777905602
70, -187500.02, -187500.02, -31210.41, -187500.02, -187500.02, 14119.93, -187500.02, -187500.02, 0.000, 0.000, 0.000, 16:18:25.602, 1574777905602
71, -187500.02, -187500.02, -31232.87, -187500.02, -187500.02, 14179.72, -187500.02, -187500.02, 0.000, 0.000, 0.000, 16:18:25.602, 1574777905602
72, -187500.02, -187500.02, -31275.05, -187500.02, -187500.02, 14166.94, -187500.02, -187500.02, 0.000, 0.000, 0.000, 16:18:25.602, 1574777905602
73, -187500.02, -187500.02, -31272.37, -187500.02, -187500.02, 14110.30, -187500.02, -187500.02, 0.000, 0.000, 0.000, 16:18:25.603, 1574777905603
74, -187500.02, -187500.02, -31231.24, -187500.02, -187500.02, 14083.54, -187500.02, -187500.02, 0.000, -0.010, 0.978, 16:18:25.603, 1574777905603
75, -187500.02, -187500.02, -31203.46, -187500.02, -187500.02, 14129.45, -187500.02, -187500.02, 0.000, 0.000, 0.000, 16:18:25.603, 1574777905603
76, -187500.02, -187500.02, -31227.67, -187500.02, -187500.02, 14177.89, -187500.02, -187500.02, 0.000, 0.000, 0.000, 16:18:25.603, 1574777905603
77, -187500.02, -187500.02, -31268.26, -187500.02, -187500.02, 14164.75, -187500.02, -187500.02, 0.000, 0.000, 0.000, 16:18:25.603, 1574777905603
78, -187500.02, -187500.02, -31279.50, -187500.02, -187500.02, 14107.04, -187500.02, -187500.02, 0.000, 0.000, 0.000, 16:18:25.603, 1574777905603
79, -187500.02, -187500.02, -31240.32, -187500.02, -187500.02, 14083.23, -187500.02, -187500.02, 0.000, 0.000, 0.000, 16:18:25.603, 1574777905603
80, -187500.02, -187500.02, -31206.23, -187500.02, -187500.02, 14128.11, -187500.02, -187500.02, 0.000, 0.000, 0.000, 16:18:25.603, 1574777905603
81, -187500.02, -187500.02, -31229.21, -187500.02, -187500.02, 14178.45, -187500.02, -187500.02, 0.000, 0.000, 0.000, 16:18:25.603, 1574777905603
82, -187500.02, -187500.02, -31277.11, -187500.02, -187500.02, 14162.87, -187500.02, -187500.02, 0.000, 0.000, 0.000, 16:18:25.603, 1574777905603
83, -187500.02, -187500.02, -31281.36, -187500.02, -187500.02, 14102.88, -187500.02, -187500.02, 0.000, -0.010, 0.980, 16:18:25.603, 1574777905603
84, -187500.02, -187500.02, -31246.60, -187500.02, -187500.02, 14072.81, -187500.02, -187500.02, 0.000, 0.000, 0.000, 16:18:25.603, 1574777905603
85, -187500.02, -187500.02, -31217.81, -187500.02, -187500.02, 14112.29, -187500.02, -187500.02, 0.000, 0.000, 0.000, 16:18:25.603, 1574777905603
86, -187500.02, -187500.02, -31238.95, -187500.02, -187500.02, 14162.40, -187500.02, -187500.02, 0.000, 0.000, 0.000, 16:18:25.604, 1574777905604
87, -187500.02, -187500.02, -31281.06, -187500.02, -187500.02, 14148.65, -187500.02, -187500.02, 0.000, 0.000, 0.000, 16:18:25.604, 1574777905604
88, -187500.02, -187500.02, -31288.19, -187500.02, -187500.02, 14091.19, -187500.02, -187500.02, 0.000, 0.000, 0.000, 16:18:25.604, 1574777905604
89, -187500.02, -187500.02, -31245.53, -187500.02, -187500.02, 14070.67, -187500.02, -187500.02, 0.000, 0.000, 0.000, 16:18:25.604, 1574777905604
90, -187500.02, -187500.02, -31215.06, -187500.02, -187500.02, 14108.15, -187500.02, -187500.02, 0.000, 0.000, 0.000, 16:18:25.604, 1574777905604
91, -187500.02, -187500.02, -31238.39, -187500.02, -187500.02, 14157.57, -187500.02, -187500.02, 0.000, 0.000, 0.000, 16:18:25.604, 1574777905604
92, -187500.02, -187500.02, -31281.76, -187500.02, -187500.02, 14151.83, -187500.02, -187500.02, 0.000, 0.000, 0.000, 16:18:25.604, 1574777905604
93, -187500.02, -187500.02, -31293.36, -187500.02, -187500.02, 14085.13, -187500.02, -187500.02, 0.002, -0.006, 0.978, 16:18:25.604, 1574777905604
94, -187500.02, -187500.02, -31261.30, -187500.02, -187500.02, 14060.19, -187500.02, -187500.02, 0.000, 0.000, 0.000, 16:18:25.604, 1574777905604
95, -187500.02, -187500.02, -31230.41, -187500.02, -187500.02, 14094.90, -187500.02, -187500.02, 0.000, 0.000, 0.000, 16:18:25.604, 1574777905604
96, -187500.02, -187500.02, -31246.98, -187500.02, -187500.02, 14146.66, -187500.02, -187500.02, 0.000, 0.000, 0.000, 16:18:25.604, 1574777905604
97, -187500.02, -187500.02, -31291.50, -187500.02, -187500.02, 14141.68, -187500.02, -187500.02, 0.000, 0.000, 0.000, 16:18:25.604, 1574777905604
98, -187500.02, -187500.02, -31288.66, -187500.02, -187500.02, 14096.19, -187500.02, -187500.02, 0.000, 0.000, 0.000, 16:18:25.605, 1574777905605
99, -187500.02, -187500.02, -31252.41, -187500.02, -187500.02, 14066.24, -187500.02, -187500.02, 0.000, 0.000, 0.000, 16:18:25.605, 1574777905605
100, -187500.02, -187500.02, -31228.13, -187500.02, -187500.02, 14104.75, -187500.02, -187500.02, 0.000, 0.000, 0.000, 16:18:25.605, 1574777905605
101, -187500.02, -187500.02, -31242.53, -187500.02, -187500.02, 14162.42, -187500.02, -187500.02, 0.000, 0.000, 0.000, 16:18:25.605, 1574777905605
102, -187500.02, -187500.02, -31285.31, -187500.02, -187500.02, 14155.87, -187500.02, -187500.02, 0.000, 0.000, 0.000, 16:18:25.606, 1574777905606
103, -187500.02, -187500.02, -31293.04, -187500.02, -187500.02, 14097.16, -187500.02, -187500.02, 0.002, -0.006, 0.974, 16:18:25.606, 1574777905606
104, -187500.02, -187500.02, -31256.92, -187500.02, -187500.02, 14064.79, -187500.02, -187500.02, 0.000, 0.000, 0.000, 16:18:25.606, 1574777905606
105, -187500.02, -187500.02, -31230.68, -187500.02, -187500.02, 14107.46, -187500.02, -187500.02, 0.000, 0.000, 0.000, 16:18:25.606, 1574777905606
106, -187500.02, -187500.02, -31245.61, -187500.02, -187500.02, 14160.79, -187500.02, -187500.02, 0.000, 0.000, 0.000, 16:18:25.606, 1574777905606
107, -187500.02, -187500.02, -31286.32, -187500.02, -187500.02, 14156.23, -187500.02, -187500.02, 0.000, 0.000, 0.000, 16:18:26.074, 1574777906074
108, -187500.02, -187500.02, -31297.11, -187500.02, -187500.02, 14101.47, -187500.02, -187500.02, 0.000, 0.000, 0.000, 16:18:26.074, 1574777906074
109, -187500.02, -187500.02, -31258.00, -187500.02, -187500.02, 14069.17, -187500.02, -187500.02, 0.000, 0.000, 0.000, 16:18:26.074, 1574777906074
110, -187500.02, -187500.02, -31224.58, -187500.02, -187500.02, 14104.58, -187500.02, -187500.02, 0.000, 0.000, 0.000, 16:18:26.074, 1574777906074
111, -187500.02, -187500.02, -31244.97, -187500.02, -187500.02, 14151.18, -187500.02, -187500.02, 0.000, 0.000, 0.000, 16:18:26.075, 1574777906075
112, -187500.02, -187500.02, -31286.94, -187500.02, -187500.02, 14154.00, -187500.02, -187500.02, 0.000, 0.000, 0.000, 16:18:26.075, 1574777906075
113, -187500.02, -187500.02, -31286.50, -187500.02, -187500.02, 14106.57, -187500.02, -187500.02, 0.000, -0.006, 0.972, 16:18:26.075, 1574777906075
114, -187500.02, -187500.02, -31256.43, -187500.02, -187500.02, 14068.88, -187500.02, -187500.02, 0.000, 0.000, 0.000, 16:18:26.075, 1574777906075
115, -187500.02, -187500.02, -31231.89, -187500.02, -187500.02, 14101.74, -187500.02, -187500.02, 0.000, 0.000, 0.000, 16:18:26.075, 1574777906075
116, -187500.02, -187500.02, -31247.20, -187500.02, -187500.02, 14156.97, -187500.02, -187500.02, 0.000, 0.000, 0.000, 16:18:26.076, 1574777906076
117, -187500.02, -187500.02, -31295.99, -187500.02, -187500.02, 14149.17, -187500.02, -187500.02, 0.000, 0.000, 0.000, 16:18:26.076, 1574777906076
118, -187500.02, -187500.02, -31298.95, -187500.02, -187500.02, 14086.87, -187500.02, -187500.02, 0.000, 0.000, 0.000, 16:18:26.076, 1574777906076
119, -187500.02, -187500.02, -31250.62, -187500.02, -187500.02, 14059.38, -187500.02, -187500.02, 0.000, 0.000, 0.000, 16:18:26.076, 1574777906076
120, -187500.02, -187500.02, -31228.25, -187500.02, -187500.02, 14099.10, -187500.02, -187500.02, 0.000, 0.000, 0.000, 16:18:26.076, 1574777906076
121, -187500.02, -187500.02, -31246.49, -187500.02, -187500.02, 14158.31, -187500.02, -187500.02, 0.000, 0.000, 0.000, 16:18:26.076, 1574777906076
122, -187500.02, -187500.02, -31275.99, -187500.02, -187500.02, 14160.41, -187500.02, -187500.02, 0.000, 0.000, 0.000, 16:18:26.076, 1574777906076
123, -187500.02, -187500.02, -31280.17, -187500.02, -187500.02, 14112.73, -187500.02, -187500.02, -0.002, -0.004, 0.970, 16:18:26.076, 1574777906076
124, -187500.02, -187500.02, -31240.32, -187500.02, -187500.02, 14089.22, -187500.02, -187500.02, 0.000, 0.000, 0.000, 16:18:26.076, 1574777906076
125, -187500.02, -187500.02, -31212.18, -187500.02, -187500.02, 14107.39, -187500.02, -187500.02, 0.000, 0.000, 0.000, 16:18:26.076, 1574777906076
126, -187500.02, -187500.02, -31229.10, -187500.02, -187500.02, 14167.21, -187500.02, -187500.02, 0.000, 0.000, 0.000, 16:18:26.076, 1574777906076
127, -187500.02, -187500.02, -31277.91, -187500.02, -187500.02, 14157.95, -187500.02, -187500.02, 0.000, 0.000, 0.000, 16:18:26.076, 1574777906076
128, -187500.02, -187500.02, -31284.60, -187500.02, -187500.02, 14101.20, -187500.02, -187500.02, 0.000, 0.000, 0.000, 16:18:26.076, 1574777906076
129, -187500.02, -187500.02, -31246.58, -187500.02, -187500.02, 14073.28, -187500.02, -187500.02, 0.000, 0.000, 0.000, 16:18:26.076, 1574777906076
130, -187500.02, -187500.02, -31219.11, -187500.02, -187500.02, 14109.96, -187500.02, -187500.02, 0.000, 0.000, 0.000, 16:18:26.076, 1574777906076
131, -187500.02, -187500.02, -31234.91, -187500.02, -187500.02, 14174.02, -187500.02, -187500.02, 0.000, 0.000, 0.000, 16:18:26.076, 1574777906076
132, -187500.02, -187500.02, -31269.33, -187500.02, -187500.02, 14175.99, -187500.02, -187500.02, 0.000, -0.004, 0.970, 16:18:26.076, 1574777906076
133, -187500.02, -187500.02, -31280.73, -187500.02, -187500.02, 14115.55, -187500.02, -187500.02, 0.000, 0.000, 0.000, 16:18:26.076, 1574777906076
134, -187500.02, -187500.02, -31256.03, -187500.02, -187500.02, 14073.93, -187500.02, -187500.02, 0.000, 0.000, 0.000, 16:18:26.076, 1574777906076
135, -187500.02, -187500.02, -31231.96, -187500.02, -187500.02, 14094.58, -187500.02, -187500.02, 0.000, 0.000, 0.000, 16:18:26.077, 1574777906077
136, -187500.02, -187500.02, -31247.02, -187500.02, -187500.02, 14149.68, -187500.02, -187500.02, 0.000, 0.000, 0.000, 16:18:26.077, 1574777906077
137, -187500.02, -187500.02, -31283.77, -187500.02, -187500.02, 14157.84, -187500.02, -187500.02, 0.000, 0.000, 0.000, 16:18:26.077, 1574777906077
138, -187500.02, -187500.02, -31287.48, -187500.02, -187500.02, 14108.93, -187500.02, -187500.02, 0.000, 0.000, 0.000, 16:18:26.077, 1574777906077
139, -187500.02, -187500.02, -31250.17, -187500.02, -187500.02, 14077.78, -187500.02, -187500.02, 0.000, 0.000, 0.000, 16:18:26.077, 1574777906077
140, -187500.02, -187500.02, -31225.97, -187500.02, -187500.02, 14109.85, -187500.02, -187500.02, 0.000, 0.000, 0.000, 16:18:26.077, 1574777906077
141, -187500.02, -187500.02, -31231.53, -187500.02, -187500.02, 14180.62, -187500.02, -187500.02, 0.000, 0.000, 0.000, 16:18:26.077, 1574777906077
142, -187500.02, -187500.02, -31265.55, -187500.02, -187500.02, 14186.92, -187500.02, -187500.02, -0.004, -0.006, 0.972, 16:18:26.077, 1574777906077
143, -187500.02, -187500.02, -31277.13, -187500.02, -187500.02, 14114.30, -187500.02, -187500.02, 0.000, 0.000, 0.000, 16:18:26.077, 1574777906077
144, -187500.02, -187500.02, -31246.53, -187500.02, -187500.02, 14071.00, -187500.02, -187500.02, 0.000, 0.000, 0.000, 16:18:26.077, 1574777906077
145, -187500.02, -187500.02, -31220.18, -187500.02, -187500.02, 14111.97, -187500.02, -187500.02, 0.000, 0.000, 0.000, 16:18:26.077, 1574777906077
146, -187500.02, -187500.02, -31241.72, -187500.02, -187500.02, 14169.91, -187500.02, -187500.02, 0.000, 0.000, 0.000, 16:18:26.077, 1574777906077
147, -187500.02, -187500.02, -31283.75, -187500.02, -187500.02, 14168.73, -187500.02, -187500.02, 0.000, 0.000, 0.000, 16:18:26.077, 1574777906077
148, -187500.02, -187500.02, -31285.94, -187500.02, -187500.02, 14117.34, -187500.02, -187500.02, 0.000, 0.000, 0.000, 16:18:26.078, 1574777906078
149, -187500.02, -187500.02, -31248.39, -187500.02, -187500.02, 14086.38, -187500.02, -187500.02, 0.000, 0.000, 0.000, 16:18:26.078, 1574777906078
150, -187500.02, -187500.02, -31211.91, -187500.02, -187500.02, 14128.16, -187500.02, -187500.02, 0.000, 0.000, 0.000, 16:18:26.078, 1574777906078
151, -187500.02, -187500.02, -31234.51, -187500.02, -187500.02, 14177.02, -187500.02, -187500.02, 0.000, 0.000, 0.000, 16:18:26.078, 1574777906078
152, -187500.02, -187500.02, -31277.55, -187500.02, -187500.02, 14158.49, -187500.02, -187500.02, -0.002, -0.006, 0.974, 16:18:26.078, 1574777906078
153, -187500.02, -187500.02, -31286.88, -187500.02, -187500.02, 14107.17, -187500.02, -187500.02, 0.000, 0.000, 0.000, 16:18:26.078, 1574777906078
154, -187500.02, -187500.02, -31254.15, -187500.02, -187500.02, 14076.66, -187500.02, -187500.02, 0.000, 0.000, 0.000, 16:18:26.078, 1574777906078
155, -187500.02, -187500.02, -31219.11, -187500.02, -187500.02, 14114.41, -187500.02, -187500.02, 0.000, 0.000, 0.000, 16:18:26.078, 1574777906078
156, -187500.02, -187500.02, -31232.74, -187500.02, -187500.02, 14170.29, -187500.02, -187500.02, 0.000, 0.000, 0.000, 16:18:26.078, 1574777906078
157, -187500.02, -187500.02, -31271.77, -187500.02, -187500.02, 14170.67, -187500.02, -187500.02, 0.000, 0.000, 0.000, 16:18:26.078, 1574777906078
158, -187500.02, -187500.02, -31279.03, -187500.02, -187500.02, 14116.22, -187500.02, -187500.02, 0.000, 0.000, 0.000, 16:18:26.078, 1574777906078
159, -187500.02, -187500.02, -31243.18, -187500.02, -187500.02, 14086.00, -187500.02, -187500.02, 0.000, 0.000, 0.000, 16:18:26.079, 1574777906079
160, -187500.02, -187500.02, -31215.86, -187500.02, -187500.02, 14117.29, -187500.02, -187500.02, 0.000, 0.000, 0.000, 16:18:26.079, 1574777906079
161, -187500.02, -187500.02, -31240.81, -187500.02, -187500.02, 14163.16, -187500.02, -187500.02, 0.000, 0.000, 0.000, 16:18:26.079, 1574777906079
162, -187500.02, -187500.02, -31276.55, -187500.02, -187500.02, 14169.35, -187500.02, -187500.02, -0.002, -0.008, 0.974, 16:18:26.079, 1574777906079
163, -187500.02, -187500.02, -31281.51, -187500.02, -187500.02, 14117.00, -187500.02, -187500.02, 0.000, 0.000, 0.000, 16:18:26.079, 1574777906079
164, -187500.02, -187500.02, -31245.17, -187500.02, -187500.02, 14083.70, -187500.02, -187500.02, 0.000, 0.000, 0.000, 16:18:26.079, 1574777906079
165, -187500.02, -187500.02, -31213.96, -187500.02, -187500.02, 14115.28, -187500.02, -187500.02, 0.000, 0.000, 0.000, 16:18:26.079, 1574777906079
166, -187500.02, -187500.02, -31230.77, -187500.02, -187500.02, 14169.98, -187500.02, -187500.02, 0.000, 0.000, 0.000, 16:18:26.079, 1574777906079
167, -187500.02, -187500.02, -31271.70, -187500.02, -187500.02, 14177.80, -187500.02, -187500.02, 0.000, 0.000, 0.000, 16:18:26.079, 1574777906079
168, -187500.02, -187500.02, -31280.93, -187500.02, -187500.02, 14120.96, -187500.02, -187500.02, 0.000, 0.000, 0.000, 16:18:26.079, 1574777906079
169, -187500.02, -187500.02, -31243.16, -187500.02, -187500.02, 14087.95, -187500.02, -187500.02, 0.000, 0.000, 0.000, 16:18:26.080, 1574777906080
170, -187500.02, -187500.02, -31220.60, -187500.02, -187500.02, 14126.19, -187500.02, -187500.02, 0.000, 0.000, 0.000, 16:18:26.080, 1574777906080
171, -187500.02, -187500.02, -31233.66, -187500.02, -187500.02, 14178.11, -187500.02, -187500.02, 0.002, -0.010, 0.978, 16:18:26.080, 1574777906080
172, -187500.02, -187500.02, -31266.56, -187500.02, -187500.02, 14179.72, -187500.02, -187500.02, 0.000, 0.000, 0.000, 16:18:26.080, 1574777906080
173, -187500.02, -187500.02, -31277.00, -187500.02, -187500.02, 14119.17, -187500.02, -187500.02, 0.000, 0.000, 0.000, 16:18:26.080, 1574777906080
174, -187500.02, -187500.02, -31239.45, -187500.02, -187500.02, 14087.46, -187500.02, -187500.02, 0.000, 0.000, 0.000, 16:18:26.080, 1574777906080
175, -187500.02, -187500.02, -31212.80, -187500.02, -187500.02, 14113.20, -187500.02, -187500.02, 0.000, 0.000, 0.000, 16:18:26.080, 1574777906080
176, -187500.02, -187500.02, -31234.42, -187500.02, -187500.02, 14171.30, -187500.02, -187500.02, 0.000, 0.000, 0.000, 16:18:26.080, 1574777906080
177, -187500.02, -187500.02, -31281.18, -187500.02, -187500.02, 14173.98, -187500.02, -187500.02, 0.000, 0.000, 0.000, 16:18:26.080, 1574777906080
178, -187500.02, -187500.02, -31286.88, -187500.02, -187500.02, 14110.16, -187500.02, -187500.02, 0.000, 0.000, 0.000, 16:18:26.080, 1574777906080
179, -187500.02, -187500.02, -31253.41, -187500.02, -187500.02, 14080.12, -187500.02, -187500.02, 0.000, 0.000, 0.000, 16:18:26.080, 1574777906080
180, -187500.02, -187500.02, -31222.95, -187500.02, -187500.02, 14111.21, -187500.02, -187500.02, 0.000, 0.000, 0.000, 16:18:26.080, 1574777906080
181, -187500.02, -187500.02, -31237.03, -187500.02, -187500.02, 14165.04, -187500.02, -187500.02, 0.000, -0.006, 0.978, 16:18:26.081, 1574777906081
182, -187500.02, -187500.02, -31275.54, -187500.02, -187500.02, 14168.37, -187500.02, -187500.02, 0.000, 0.000, 0.000, 16:18:26.081, 1574777906081
183, -187500.02, -187500.02, -31282.09, -187500.02, -187500.02, 14115.93, -187500.02, -187500.02, 0.000, 0.000, 0.000, 16:18:26.081, 1574777906081
184, -187500.02, -187500.02, -31241.46, -187500.02, -187500.02, 14087.39, -187500.02, -187500.02, 0.000, 0.000, 0.000, 16:18:26.081, 1574777906081
185, -187500.02, -187500.02, -31214.43, -187500.02, -187500.02, 14125.25, -187500.02, -187500.02, 0.000, 0.000, 0.000, 16:18:26.081, 1574777906081
186, -187500.02, -187500.02, -31239.85, -187500.02, -187500.02, 14164.32, -187500.02, -187500.02, 0.000, 0.000, 0.000, 16:18:26.081, 1574777906081
187, -187500.02, -187500.02, -31277.18, -187500.02, -187500.02, 14161.26, -187500.02, -187500.02, 0.000, 0.000, 0.000, 16:18:26.081, 1574777906081
188, -187500.02, -187500.02, -31283.43, -187500.02, -187500.02, 14111.86, -187500.02, -187500.02, 0.000, 0.000, 0.000, 16:18:26.081, 1574777906081
189, -187500.02, -187500.02, -31257.51, -187500.02, -187500.02, 14063.11, -187500.02, -187500.02, 0.000, 0.000, 0.000, 16:18:26.081, 1574777906081
190, -187500.02, -187500.02, -31232.90, -187500.02, -187500.02, 14086.25, -187500.02, -187500.02, 0.000, 0.000, 0.000, 16:18:26.082, 1574777906082
191, -187500.02, -187500.02, -31248.27, -187500.02, -187500.02, 14148.18, -187500.02, -187500.02, 0.000, -0.004, 0.978, 16:18:26.082, 1574777906082
192, -187500.02, -187500.02, -31288.06, -187500.02, -187500.02, 14156.88, -187500.02, -187500.02, 0.000, 0.000, 0.000, 16:18:26.082, 1574777906082
193, -187500.02, -187500.02, -31294.92, -187500.02, -187500.02, 14106.43, -187500.02, -187500.02, 0.000, 0.000, 0.000, 16:18:26.082, 1574777906082
194, -187500.02, -187500.02, -31254.42, -187500.02, -187500.02, 14069.62, -187500.02, -187500.02, 0.000, 0.000, 0.000, 16:18:26.082, 1574777906082
195, -187500.02, -187500.02, -31220.65, -187500.02, -187500.02, 14102.97, -187500.02, -187500.02, 0.000, 0.000, 0.000, 16:18:26.082, 1574777906082
196, -187500.02, -187500.02, -31238.19, -187500.02, -187500.02, 14159.38, -187500.02, -187500.02, 0.000, 0.000, 0.000, 16:18:26.082, 1574777906082
197, -187500.02, -187500.02, -31280.51, -187500.02, -187500.02, 14155.11, -187500.02, -187500.02, 0.000, 0.000, 0.000, 16:18:26.082, 1574777906082
198, -187500.02, -187500.02, -31283.66, -187500.02, -187500.02, 14103.53, -187500.02, -187500.02, 0.000, 0.000, 0.000, 16:18:26.082, 1574777906082
199, -187500.02, -187500.02, -31241.79, -187500.02, -187500.02, 14081.49, -187500.02, -187500.02, 0.000, 0.000, 0.000, 16:18:26.082, 1574777906082
200, -187500.02, -187500.02, -31212.56, -187500.02, -187500.02, 14119.62, -187500.02, -187500.02, 0.000, 0.000, 0.000, 16:18:26.082, 1574777906082
201, -187500.02, -187500.02, -31242.64, -187500.02, -187500.02, 14170.47, -187500.02, -187500.02, 0.000, -0.002, 0.976, 16:18:26.083, 1574777906083
202, -187500.02, -187500.02, -31288.22, -187500.02, -187500.02, 14164.03, -187500.02, -187500.02, 0.000, 0.000, 0.000, 16:18:26.083, 1574777906083
203, -187500.02, -187500.02, -31295.93, -187500.02, -187500.02, 14099.17, -187500.02, -187500.02, 0.000, 0.000, 0.000, 16:18:26.083, 1574777906083
204, -187500.02, -187500.02, -31253.77, -187500.02, -187500.02, 14061.19, -187500.02, -187500.02, 0.000, 0.000, 0.000, 16:18:26.083, 1574777906083
205, -187500.02, -187500.02, -31219.89, -187500.02, -187500.02, 14102.61, -187500.02, -187500.02, 0.000, 0.000, 0.000, 16:18:26.083, 1574777906083
206, -187500.02, -187500.02, -31237.05, -187500.02, -187500.02, 14165.55, -187500.02, -187500.02, 0.000, 0.000, 0.000, 16:18:26.083, 1574777906083
207, -187500.02, -187500.02, -31281.29, -187500.02, -187500.02, 14163.88, -187500.02, -187500.02, 0.000, 0.000, 0.000, 16:18:26.083, 1574777906083
208, -187500.02, -187500.02, -31290.03, -187500.02, -187500.02, 14114.08, -187500.02, -187500.02, 0.000, 0.000, 0.000, 16:18:26.083, 1574777906083
209, -187500.02, -187500.02, -31248.14, -187500.02, -187500.02, 14080.93, -187500.02, -187500.02, 0.000, 0.000, 0.000, 16:18:26.083, 1574777906083
210, -187500.02, -187500.02, -31215.71, -187500.02, -187500.02, 14103.97, -187500.02, -187500.02, -0.002, -0.004, 0.978, 16:18:26.083, 1574777906083
211, -187500.02, -187500.02, -31235.67, -187500.02, -187500.02, 14154.98, -187500.02, -187500.02, 0.000, 0.000, 0.000, 16:18:26.083, 1574777906083
212, -187500.02, -187500.02, -31279.79, -187500.02, -187500.02, 14157.93, -187500.02, -187500.02, 0.000, 0.000, 0.000, 16:18:26.083, 1574777906083
213, -187500.02, -187500.02, -31293.13, -187500.02, -187500.02, 14104.75, -187500.02, -187500.02, 0.000, 0.000, 0.000, 16:18:26.084, 1574777906084
214, -187500.02, -187500.02, -31244.74, -187500.02, -187500.02, 14083.03, -187500.02, -187500.02, 0.000, 0.000, 0.000, 16:18:26.084, 1574777906084
215, -187500.02, -187500.02, -31208.09, -187500.02, -187500.02, 14127.62, -187500.02, -187500.02, 0.000, 0.000, 0.000, 16:18:26.084, 1574777906084
216, -187500.02, -187500.02, -31232.18, -187500.02, -187500.02, 14173.62, -187500.02, -187500.02, 0.000, 0.000, 0.000, 16:18:26.084, 1574777906084
217, -187500.02, -187500.02, -31274.16, -187500.02, -187500.02, 14160.79, -187500.02, -187500.02, 0.000, 0.000, 0.000, 16:18:26.085, 1574777906085
218, -187500.02, -187500.02, -31280.37, -187500.02, -187500.02, 14113.47, -187500.02, -187500.02, 0.000, 0.000, 0.000, 16:18:26.085, 1574777906085
219, -187500.02, -187500.02, -31248.45, -187500.02, -187500.02, 14074.25, -187500.02, -187500.02, 0.000, 0.000, 0.000, 16:18:26.085, 1574777906085
220, -187500.02, -187500.02, -31218.48, -187500.02, -187500.02, 14099.21, -187500.02, -187500.02, -0.004, -0.010, 0.976, 16:18:26.085, 1574777906085
221, -187500.02, -187500.02, -31229.92, -187500.02, -187500.02, 14165.64, -187500.02, -187500.02, 0.000, 0.000, 0.000, 16:18:26.085, 1574777906085
222, -187500.02, -187500.02, -31269.69, -187500.02, -187500.02, 14175.43, -187500.02, -187500.02, 0.000, 0.000, 0.000, 16:18:26.085, 1574777906085
223, -187500.02, -187500.02, -31278.63, -187500.02, -187500.02, 14122.50, -187500.02, -187500.02, 0.000, 0.000, 0.000, 16:18:26.085, 1574777906085
224, -187500.02, -187500.02, -31247.16, -187500.02, -187500.02, 14085.60, -187500.02, -187500.02, 0.000, 0.000, 0.000, 16:18:26.086, 1574777906086
225, -187500.02, -187500.02, -31211.88, -187500.02, -187500.02, 14112.89, -187500.02, -187500.02, 0.000, 0.000, 0.000, 16:18:26.086, 1574777906086
226, -187500.02, -187500.02, -31220.42, -187500.02, -187500.02, 14169.17, -187500.02, -187500.02, 0.000, 0.000, 0.000, 16:18:26.086, 1574777906086
227, -187500.02, -187500.02, -31260.70, -187500.02, -187500.02, 14178.94, -187500.02, -187500.02, 0.000, 0.000, 0.000, 16:18:26.555, 1574777906555
228, -187500.02, -187500.02, -31268.73, -187500.02, -187500.02, 14126.53, -187500.02, -187500.02, 0.000, 0.000, 0.000, 16:18:26.555, 1574777906555
229, -187500.02, -187500.02, -31234.44, -187500.02, -187500.02, 14090.38, -187500.02, -187500.02, 0.000, 0.000, 0.000, 16:18:26.555, 1574777906555
230, -187500.02, -187500.02, -31207.44, -187500.02, -187500.02, 14119.33, -187500.02, -187500.02, -0.002, -0.008, 0.978, 16:18:26.555, 1574777906555
231, -187500.02, -187500.02, -31226.86, -187500.02, -187500.02, 14179.48, -187500.02, -187500.02, 0.000, 0.000, 0.000, 16:18:26.555, 1574777906555
232, -187500.02, -187500.02, -31263.83, -187500.02, -187500.02, 14180.64, -187500.02, -187500.02, 0.000, 0.000, 0.000, 16:18:26.555, 1574777906555
233, -187500.02, -187500.02, -31272.12, -187500.02, -187500.02, 14124.27, -187500.02, -187500.02, 0.000, 0.000, 0.000, 16:18:26.555, 1574777906555
234, -187500.02, -187500.02, -31232.85, -187500.02, -187500.02, 14094.23, -187500.02, -187500.02, 0.000, 0.000, 0.000, 16:18:26.555, 1574777906555
235, -187500.02, -187500.02, -31203.73, -187500.02, -187500.02, 14123.02, -187500.02, -187500.02, 0.000, 0.000, 0.000, 16:18:26.556, 1574777906556
236, -187500.02, -187500.02, -31226.08, -187500.02, -187500.02, 14168.08, -187500.02, -187500.02, 0.000, 0.000, 0.000, 16:18:26.556, 1574777906556
237, -187500.02, -187500.02, -31271.47, -187500.02, -187500.02, 14165.26, -187500.02, -187500.02, 0.000, 0.000, 0.000, 16:18:26.556, 1574777906556
238, -187500.02, -187500.02, -31285.00, -187500.02, -187500.02, 14113.54, -187500.02, -187500.02, 0.000, 0.000, 0.000, 16:18:26.556, 1574777906556
239, -187500.02, -187500.02, -31250.06, -187500.02, -187500.02, 14078.92, -187500.02, -187500.02, 0.000, 0.000, 0.000, 16:18:26.556, 1574777906556
240, -187500.02, -187500.02, -31210.21, -187500.02, -187500.02, 14101.00, -187500.02, -187500.02, 0.000, -0.010, 0.976, 16:18:26.556, 1574777906556
241, -187500.02, -187500.02, -31222.05, -187500.02, -187500.02, 14162.60, -187500.02, -187500.02, 0.000, 0.000, 0.000, 16:18:26.556, 1574777906556
242, -187500.02, -187500.02, -31263.59, -187500.02, -187500.02, 14173.53, -187500.02, -187500.02, 0.000, 0.000, 0.000, 16:18:26.556, 1574777906556
243, -187500.02, -187500.02, -31277.06, -187500.02, -187500.02, 14119.78, -187500.02, -187500.02, 0.000, 0.000, 0.000, 16:18:26.556, 1574777906556
244, -187500.02, -187500.02, -31247.78, -187500.02, -187500.02, 14081.67, -187500.02, -187500.02, 0.000, 0.000, 0.000, 16:18:26.556, 1574777906556
245, -187500.02, -187500.02, -31208.55, -187500.02, -187500.02, 14120.18, -187500.02, -187500.02, 0.000, 0.000, 0.000, 16:18:26.556, 1574777906556
246, -187500.02, -187500.02, -31220.96, -187500.02, -187500.02, 14171.88, -187500.02, -187500.02, 0.000, 0.000, 0.000, 16:18:26.556, 1574777906556
247, -187500.02, -187500.02, -31258.67, -187500.02, -187500.02, 14173.26, -187500.02, -187500.02, 0.000, 0.000, 0.000, 16:18:26.557, 1574777906557
248, -187500.02, -187500.02, -31271.14, -187500.02, -187500.02, 14124.29, -187500.02, -187500.02, 0.000, 0.000, 0.000, 16:18:26.557, 1574777906557
249, -187500.02, -187500.02, -31238.78, -187500.02, -187500.02, 14087.61, -187500.02, -187500.02, 0.000, -0.008, 0.974, 16:18:26.557, 1574777906557
250, -187500.02, -187500.02, -31209.70, -187500.02, -187500.02, 14118.55, -187500.02, -187500.02, 0.000, 0.000, 0.000, 16:18:26.557, 1574777906557
251, -187500.02, -187500.02, -31224.54, -187500.02, -187500.02, 14168.73, -187500.02, -187500.02, 0.000, 0.000, 0.000, 16:18:26.558, 1574777906558
252, -187500.02, -187500.02, -31263.38, -187500.02, -187500.02, 14182.67, -187500.02, -187500.02, 0.000, 0.000, 0.000, 16:18:26.558, 1574777906558
253, -187500.02, -187500.02, -31275.43, -187500.02, -187500.02, 14143.42, -187500.02, -187500.02, 0.000, 0.000, 0.000, 16:18:26.558, 1574777906558
254, -187500.02, -187500.02, -31243.80, -187500.02, -187500.02, 14076.75, -187500.02, -187500.02, 0.000, 0.000, 0.000, 16:18:26.558, 1574777906558
255, -187500.02, -187500.02, -31205.54, -187500.02, -187500.02, 14109.47, -187500.02, -187500.02, 0.000, 0.000, 0.000, 16:18:26.558, 1574777906558
0, -187500.02, -187500.02, -31220.36, -187500.02, -187500.02, 14171.30, -187500.02, -187500.02, 0.000, 0.000, 0.000, 16:18:26.558, 1574777906558
1, -187500.02, -187500.02, -31262.06, -187500.02, -187500.02, 14176.64, -187500.02, -187500.02, 0.000, 0.000, 0.000, 16:18:26.558, 1574777906558
2, -187500.02, -187500.02, -31269.22, -187500.02, -187500.02, 14130.75, -187500.02, -187500.02, 0.000, 0.000, 0.000, 16:18:26.558, 1574777906558
3, -187500.02, -187500.02, -31229.74, -187500.02, -187500.02, 14106.19, -187500.02, -187500.02, 0.000, -0.006, 0.982, 16:18:26.558, 1574777906558
4, -187500.02, -187500.02, -31189.04, -187500.02, -187500.02, 14137.23, -187500.02, -187500.02, 0.000, 0.000, 0.000, 16:18:26.559, 1574777906559
5, -187500.02, -187500.02, -31199.66, -187500.02, -187500.02, 14195.28, -187500.02, -187500.02, 0.000, 0.000, 0.000, 16:18:26.559, 1574777906559
6, -187500.02, -187500.02, -31237.03, -187500.02, -187500.02, 14203.24, -187500.02, -187500.02, 0.000, 0.000, 0.000, 16:18:26.559, 1574777906559
7, -187500.02, -187500.02, -31250.51, -187500.02, -187500.02, 14145.75, -187500.02, -187500.02, 0.000, 0.000, 0.000, 16:18:26.559, 1574777906559
8, -187500.02, -187500.02, -31224.71, -187500.02, -187500.02, 14093.09, -187500.02, -187500.02, 0.000, 0.000, 0.000, 16:18:26.559, 1574777906559
9, -187500.02, -187500.02, -31198.43, -187500.02, -187500.02, 14111.86, -187500.02, -187500.02, 0.000, 0.000, 0.000, 16:18:26.559, 1574777906559
10, -187500.02, -187500.02, -31215.37, -187500.02, -187500.02, 14160.34, -187500.02, -187500.02, 0.000, 0.000, 0.000, 16:18:26.559, 1574777906559
11, -187500.02, -187500.02, -31260.97, -187500.02, -187500.02, 14175.92, -187500.02, -187500.02, 0.000, 0.000, 0.000, 16:18:26.559, 1574777906559
12, -187500.02, -187500.02, -31268.17, -187500.02, -187500.02, 14127.73, -187500.02, -187500.02, 0.000, 0.000, 0.000, 16:18:26.559, 1574777906559
13, -187500.02, -187500.02, -31241.41, -187500.02, -187500.02, 14079.59, -187500.02, -187500.02, -0.002, -0.008, 0.982, 16:18:26.559, 1574777906559
14, -187500.02, -187500.02, -31207.95, -187500.02, -187500.02, 14114.21, -187500.02, -187500.02, 0.000, 0.000, 0.000, 16:18:26.559, 1574777906559
15, -187500.02, -187500.02, -31211.08, -187500.02, -187500.02, 14179.61, -187500.02, -187500.02, 0.000, 0.000, 0.000, 16:18:26.559, 1574777906559
16, -187500.02, -187500.02, -31253.10, -187500.02, -187500.02, 14178.54, -187500.02, -187500.02, 0.000, 0.000, 0.000, 16:18:26.559, 1574777906559
17, -187500.02, -187500.02, -31260.59, -187500.02, -187500.02, 14131.76, -187500.02, -187500.02, 0.000, 0.000, 0.000, 16:18:26.560, 1574777906560
18, -187500.02, -187500.02, -31227.98, -187500.02, -187500.02, 14099.55, -187500.02, -187500.02, 0.000, 0.000, 0.000, 16:18:26.560, 1574777906560
19, -187500.02, -187500.02, -31194.36, -187500.02, -187500.02, 14125.65, -187500.02, -187500.02, 0.000, 0.000, 0.000, 16:18:26.560, 1574777906560
20, -187500.02, -187500.02, -31197.94, -187500.02, -187500.02, 14189.20, -187500.02, -187500.02, 0.000, 0.000, 0.000, 16:18:26.560, 1574777906560
21, -187500.02, -187500.02, -31243.31, -187500.02, -187500.02, 14189.38, -187500.02, -187500.02, 0.000, 0.000, 0.000, 16:18:26.560, 1574777906560
22, -187500.02, -187500.02, -31260.95, -187500.02, -187500.02, 14134.04, -187500.02, -187500.02, 0.000, 0.000, 0.000, 16:18:26.560, 1574777906560
23, -187500.02, -187500.02, -31234.15, -187500.02, -187500.02, 14088.68, -187500.02, -187500.02, 0.000, -0.006, 0.984, 16:18:26.560, 1574777906560
24, -187500.02, -187500.02, -31199.93, -187500.02, -187500.02, 14116.56, -187500.02, -187500.02, 0.000, 0.000, 0.000, 16:18:26.560, 1574777906560
25, -187500.02, -187500.02, -31209.11, -187500.02, -187500.02, 14174.27, -187500.02, -187500.02, 0.000, 0.000, 0.000, 16:18:26.560, 1574777906560
26, -187500.02, -187500.02, -31248.77, -187500.02, -187500.02, 14189.36, -187500.02, -187500.02, 0.000, 0.000, 0.000, 16:18:26.560, 1574777906560
27, -187500.02, -187500.02, -31259.79, -187500.02, -187500.02, 14129.16, -187500.02, -187500.02, 0.000, 0.000, 0.000, 16:18:26.560, 1574777906560
28, -187500.02, -187500.02, -31224.36, -187500.02, -187500.02, 14097.00, -187500.02, -187500.02, 0.000, 0.000, 0.000, 16:18:26.560, 1574777906560
29, -187500.02, -187500.02, -31190.32, -187500.02, -187500.02, 14129.30, -187500.02, -187500.02, 0.000, 0.000, 0.000, 16:18:26.561, 1574777906561
30, -187500.02, -187500.02, -31207.44, -187500.02, -187500.02, 14175.88, -187500.02, -187500.02, 0.000, 0.000, 0.000, 16:18:26.561, 1574777906561
31, -187500.02, -187500.02, -31245.88, -187500.02, -187500.02, 14182.14, -187500.02, -187500.02, 0.000, 0.000, 0.000, 16:18:26.561, 1574777906561
32, -187500.02, -187500.02, -31256.10, -187500.02, -187500.02, 14138.22, -187500.02, -187500.02, -0.002, -0.002, 0.980, 16:18:26.561, 1574777906561
33, -187500.02, -187500.02, -31225.19, -187500.02, -187500.02, 14104.20, -187500.02, -187500.02, 0.000, 0.000, 0.000, 16:18:26.561, 1574777906561
34, -187500.02, -187500.02, -31190.56, -187500.02, -187500.02, 14130.08, -187500.02, -187500.02, 0.000, 0.000, 0.000, 16:18:26.561, 1574777906561
35, -187500.02, -187500.02, -31205.96, -187500.02, -187500.02, 14176.37, -187500.02, -187500.02, 0.000, 0.000, 0.000, 16:18:26.561, 1574777906561
36, -187500.02, -187500.02, -31244.52, -187500.02, -187500.02, 14179.99, -187500.02, -187500.02, 0.000, 0.000, 0.000, 16:18:26.561, 1574777906561
37, -187500.02, -187500.02, -31264.08, -187500.02, -187500.02, 14119.15, -187500.02, -187500.02, 0.000, 0.000, 0.000, 16:18:26.561, 1574777906561
38, -187500.02, -187500.02, -31230.71, -187500.02, -187500.02, 14087.95, -187500.02, -187500.02, 0.000, 0.000, 0.000, 16:18:26.561, 1574777906561
39, -187500.02, -187500.02, -31192.69, -187500.02, -187500.02, 14120.58, -187500.02, -187500.02, 0.000, 0.000, 0.000, 16:18:26.561, 1574777906561
40, -187500.02, -187500.02, -31203.84, -187500.02, -187500.02, 14184.80, -187500.02, -187500.02, 0.000, 0.000, 0.000, 16:18:26.561, 1574777906561
41, -187500.02, -187500.02, -31242.26, -187500.02, -187500.02, 14197.89, -187500.02, -187500.02, 0.000, 0.000, 0.000, 16:18:26.561, 1574777906561
42, -187500.02, -187500.02, -31254.18, -187500.02, -187500.02, 14142.82, -187500.02, -187500.02, -0.004, -0.008, 0.980, 16:18:26.562, 1574777906562
43, -187500.02, -187500.02, -31224.34, -187500.02, -187500.02, 14100.91, -187500.02, -187500.02, 0.000, 0.000, 0.000, 16:18:26.562, 1574777906562
44, -187500.02, -187500.02, -31190.36, -187500.02, -187500.02, 14123.13, -187500.02, -187500.02, 0.000, 0.000, 0.000, 16:18:26.562, 1574777906562
45, -187500.02, -187500.02, -31199.84, -187500.02, -187500.02, 14179.50, -187500.02, -187500.02, 0.000, 0.000, 0.000, 16:18:26.562, 1574777906562
46, -187500.02, -187500.02, -31241.35, -187500.02, -187500.02, 14184.73, -187500.02, -187500.02, 0.000, 0.000, 0.000, 16:18:26.562, 1574777906562
47, -187500.02, -187500.02, -31252.83, -187500.02, -187500.02, 14140.63, -187500.02, -187500.02, 0.000, 0.000, 0.000, 16:18:26.562, 1574777906562
48, -187500.02, -187500.02, -31220.71, -187500.02, -187500.02, 14106.01, -187500.02, -187500.02, 0.000, 0.000, 0.000, 16:18:26.562, 1574777906562
49, -187500.02, -187500.02, -31188.39, -187500.02, -187500.02, 14130.84, -187500.02, -187500.02, 0.000, 0.000, 0.000, 16:18:26.562, 1574777906562
50, -187500.02, -187500.02, -31196.31, -187500.02, -187500.02, 14194.32, -187500.02, -187500.02, 0.000, 0.000, 0.000, 16:18:26.562, 1574777906562
51, -187500.02, -187500.02, -31234.66, -187500.02, -187500.02, 14203.44, -187500.02, -187500.02, 0.000, 0.000, 0.000, 16:18:26.562, 1574777906562
52, -187500.02, -187500.02, -31249.32, -187500.02, -187500.02, 14138.46, -187500.02, -187500.02, 0.000, -0.006, 0.982, 16:18:26.562, 1574777906562
53, -187500.02, -187500.02, -31218.17, -187500.02, -187500.02, 14108.51, -187500.02, -187500.02, 0.000, 0.000, 0.000, 16:18:26.562, 1574777906562
54, -187500.02, -187500.02, -31187.25, -187500.02, -187500.02, 14136.16, -187500.02, -187500.02, 0.000, 0.000, 0.000, 16:18:26.563, 1574777906563
55, -187500.02, -187500.02, -31190.83, -187500.02, -187500.02, 14200.02, -187500.02, -187500.02, 0.000, 0.000, 0.000, 16:18:26.563, 1574777906563
56, -187500.02, -187500.02, -31226.64, -187500.02, -187500.02, 14211.46, -187500.02, -187500.02, 0.000, 0.000, 0.000, 16:18:26.563, 1574777906563
57, -187500.02, -187500.02, -31243.69, -187500.02, -187500.02, 14159.67, -187500.02, -187500.02, 0.000, 0.000, 0.000, 16:18:26.563, 1574777906563
58, -187500.02, -187500.02, -31215.91, -187500.02, -187500.02, 14123.87, -187500.02, -187500.02, 0.000, 0.000, 0.000, 16:18:26.563, 1574777906563
59, -187500.02, -187500.02, -31183.41, -187500.02, -187500.02, 14145.28, -187500.02, -187500.02, 0.000, 0.000, 0.000, 16:18:26.563, 1574777906563
60, -187500.02, -187500.02, -31195.14, -187500.02, -187500.02, 14197.27, -187500.02, -187500.02, 0.000, 0.000, 0.000, 16:18:26.563, 1574777906563
61, -187500.02, -187500.02, -31237.54, -187500.02, -187500.02, 14210.48, -187500.02, -187500.02, 0.000, 0.000, 0.000, 16:18:26.563, 1574777906563
62, -187500.02, -187500.02, -31248.65, -187500.02, -187500.02, 14158.24, -187500.02, -187500.02, 0.000, -0.006, 0.978, 16:18:26.563, 1574777906563
63, -187500.02, -187500.02, -31215.53, -187500.02, -187500.02, 14117.32, -187500.02, -187500.02, 0.000, 0.000, 0.000, 16:18:26.563, 1574777906563
64, -187500.02, -187500.02, -31185.24, -187500.02, -187500.02, 14144.76, -187500.02, -187500.02, 0.000, 0.000, 0.000, 16:18:26.563, 1574777906563
65, -187500.02, -187500.02, -31204.73, -187500.02, -187500.02, 14196.13, -187500.02, -187500.02, 0.000, 0.000, 0.000, 16:18:26.563, 1574777906563
66, -187500.02, -187500.02, -31243.02, -187500.02, -187500.02, 14206.17, -187500.02, -187500.02, 0.000, 0.000, 0.000, 16:18:26.563, 1574777906563
67, -187500.02, -187500.02, -31260.97, -187500.02, -187500.02, 14137.90, -187500.02, -187500.02, 0.000, 0.000, 0.000, 16:18:26.564, 1574777906564
68, -187500.02, -187500.02, -31229.34, -187500.02, -187500.02, 14096.37, -187500.02, -187500.02, 0.000, 0.000, 0.000, 16:18:26.564, 1574777906564
69, -187500.02, -187500.02, -31187.72, -187500.02, -187500.02, 14131.76, -187500.02, -187500.02, 0.000, 0.000, 0.000, 16:18:26.564, 1574777906564
70, -187500.02, -187500.02, -31192.17, -187500.02, -187500.02, 14198.07, -187500.02, -187500.02, 0.000, 0.000, 0.000, 16:18:26.564, 1574777906564
71, -187500.02, -187500.02, -31235.82, -187500.02, -187500.02, 14207.13, -187500.02, -187500.02, 0.000, -0.004, 0.978, 16:18:26.564, 1574777906564
72, -187500.02, -187500.02, -31257.35, -187500.02, -187500.02, 14149.82, -187500.02, -187500.02, 0.000, 0.000, 0.000, 16:18:26.564, 1574777906564
73, -187500.02, -187500.02, -31220.16, -187500.02, -187500.02, 14114.23, -187500.02, -187500.02, 0.000, 0.000, 0.000, 16:18:26.564, 1574777906564
74, -187500.02, -187500.02, -31181.64, -187500.02, -187500.02, 14137.10, -187500.02, -187500.02, 0.000, 0.000, 0.000, 16:18:26.564, 1574777906564
75, -187500.02, -187500.02, -31190.94, -187500.02, -187500.02, 14198.12, -187500.02, -187500.02, 0.000, 0.000, 0.000, 16:18:26.564, 1574777906564
76, -187500.02, -187500.02, -31234.01, -187500.02, -187500.02, 14207.84, -187500.02, -187500.02, 0.000, 0.000, 0.000, 16:18:26.564, 1574777906564
77, -187500.02, -187500.02, -31248.34, -187500.02, -187500.02, 14157.88, -187500.02, -187500.02, 0.000, 0.000, 0.000, 16:18:26.564, 1574777906564
78, -187500.02, -187500.02, -31217.96, -187500.02, -187500.02, 14106.97, -187500.02, -187500.02, 0.000, 0.000, 0.000, 16:18:26.564, 1574777906564
79, -187500.02, -187500.02, -31186.76, -187500.02, -187500.02, 14134.59, -187500.02, -187500.02, 0.000, 0.000, 0.000, 16:18:26.564, 1574777906564
80, -187500.02, -187500.02, -31205.63, -187500.02, -187500.02, 14184.60, -187500.02, -187500.02, 0.000, 0.000, 0.000, 16:18:26.565, 1574777906565
81, -187500.02, -187500.02, -31243.54, -187500.02, -187500.02, 14188.06, -187500.02, -187500.02, 0.000, -0.004, 0.980, 16:18:26.565, 1574777906565
82, -187500.02, -187500.02, -31248.59, -187500.02, -187500.02, 14149.62, -187500.02, -187500.02, 0.000, 0.000, 0.000, 16:18:26.565, 1574777906565
83, -187500.02, -187500.02, -31218.28, -187500.02, -187500.02, 14110.21, -187500.02, -187500.02, 0.000, 0.000, 0.000, 16:18:26.565, 1574777906565
84, -187500.02, -187500.02, -31184.48, -187500.02, -187500.02, 14132.81, -187500.02, -187500.02, 0.000, 0.000, 0.000, 16:18:26.565, 1574777906565
85, -187500.02, -187500.02, -31195.81, -187500.02, -187500.02, 14186.94, -187500.02, -187500.02, 0.000, 0.000, 0.000, 16:18:26.565, 1574777906565
86, -187500.02, -187500.02, -31235.89, -187500.02, -187500.02, 14209.21, -187500.02, -187500.02, 0.000, 0.000, 0.000, 16:18:26.565, 1574777906565
87, -187500.02, -187500.02, -31251.18, -187500.02, -187500.02, 14162.96, -187500.02, -187500.02, 0.000, 0.000, 0.000, 16:18:26.565, 1574777906565
88, -187500.02, -187500.02, -31225.97, -187500.02, -187500.02, 14106.36, -187500.02, -187500.02, 0.000, 0.000, 0.000, 16:18:26.565, 1574777906565
89, -187500.02, -187500.02, -31190.90, -187500.02, -187500.02, 14131.91, -187500.02, -187500.02, 0.000, 0.000, 0.000, 16:18:26.565, 1574777906565
90, -187500.02, -187500.02, -31200.62, -187500.02, -187500.02, 14195.21, -187500.02, -187500.02, 0.000, 0.000, 0.000, 16:18:26.565, 1574777906565
91, -187500.02, -187500.02, -31246.60, -187500.02, -187500.02, 14203.44, -187500.02, -187500.02, 0.000, -0.010, 0.974, 16:18:27.036, 1574777907036
92, -187500.02, -187500.02, -31265.31, -187500.02, -187500.02, 14137.52, -187500.02, -187500.02, 0.000, 0.000, 0.000, 16:18:27.036, 1574777907036
93, -187500.02, -187500.02, -31229.32, -187500.02, -187500.02, 14092.13, -187500.02, -187500.02, 0.000, 0.000, 0.000, 16:18:27.036, 1574777907036
94, -187500.02, -187500.02, -31191.34, -187500.02, -187500.02, 14124.47, -187500.02, -187500.02, 0.000, 0.000, 0.000, 16:18:27.036, 1574777907036
95, -187500.02, -187500.02, -31209.54, -187500.02, -187500.02, 14176.33, -187500.02, -187500.02, 0.000, 0.000, 0.000, 16:18:27.036, 1574777907036
96, -187500.02, -187500.02, -31253.10, -187500.02, -187500.02, 14185.33, -187500.02, -187500.02, 0.000, 0.000, 0.000, 16:18:27.036, 1574777907036
97, -187500.02, -187500.02, -31269.17, -187500.02, -187500.02, 14132.58, -187500.02, -187500.02, 0.000, 0.000, 0.000, 16:18:27.036, 1574777907036
98, -187500.02, -187500.02, -31234.93, -187500.02, -187500.02, 14095.64, -187500.02, -187500.02, 0.000, 0.000, 0.000, 16:18:27.037, 1574777907037
99, -187500.02, -187500.02, -31193.18, -187500.02, -187500.02, 14129.81, -187500.02, -187500.02, 0.000, 0.000, 0.000, 16:18:27.037, 1574777907037
100, -187500.02, -187500.02, -31205.65, -187500.02, -187500.02, 14185.80, -187500.02, -187500.02, 0.000, 0.000, 0.000, 16:18:27.037, 1574777907037
101, -187500.02, -187500.02, -31241.21, -187500.02, -187500.02, 14205.20, -187500.02, -187500.02, -0.002, -0.004, 0.976, 16:18:27.037, 1574777907037
102, -187500.02, -187500.02, -31262.06, -187500.02, -187500.02, 14142.13, -187500.02, -187500.02, 0.000, 0.000, 0.000, 16:18:27.037, 1574777907037
103, -187500.02, -187500.02, -31234.84, -187500.02, -187500.02, 14098.03, -187500.02, -187500.02, 0.000, 0.000, 0.000, 16:18:27.037, 1574777907037
104, -187500.02, -187500.02, -31194.23, -187500.02, -187500.02, 14130.42, -187500.02, -187500.02, 0.000, 0.000, 0.000, 16:18:27.037, 1574777907037
105, -187500.02, -187500.02, -31210.12, -187500.02, -187500.02, 14181.15, -187500.02, -187500.02, 0.000, 0.000, 0.000, 16:18:27.037, 1574777907037
106, -187500.02, -187500.02, -31251.29, -187500.02, -187500.02, 14192.44, -187500.02, -187500.02, 0.000, 0.000, 0.000, 16:18:27.037, 1574777907037
107, -187500.02, -187500.02, -31263.47, -187500.02, -187500.02, 14146.08, -187500.02, -187500.02, 0.000, 0.000, 0.000, 16:18:27.037, 1574777907037
108, -187500.02, -187500.02, -31231.64, -187500.02, -187500.02, 14106.83, -187500.02, -187500.02, 0.000, 0.000, 0.000, 16:18:27.037, 1574777907037
109, -187500.02, -187500.02, -31202.99, -187500.02, -187500.02, 14120.42, -187500.02, -187500.02, 0.000, 0.000, 0.000, 16:18:27.037, 1574777907037
110, -187500.02, -187500.02, -31209.52, -187500.02, -187500.02, 14175.57, -187500.02, -187500.02, 0.000, 0.000, 0.000, 16:18:27.038, 1574777907038
111, -187500.02, -187500.02, -31251.40, -187500.02, -187500.02, 14191.52, -187500.02, -187500.02, -0.004, -0.008, 0.976, 16:18:27.038, 1574777907038
112, -187500.02, -187500.02, -31269.69, -187500.02, -187500.02, 14138.86, -187500.02, -187500.02, 0.000, 0.000, 0.000, 16:18:27.038, 1574777907038
113, -187500.02, -187500.02, -31233.75, -187500.02, -187500.02, 14096.10, -187500.02, -187500.02, 0.000, 0.000, 0.000, 16:18:27.038, 1574777907038
114, -187500.02, -187500.02, -31195.93, -187500.02, -187500.02, 14125.43, -187500.02, -187500.02, 0.000, 0.000, 0.000, 16:18:27.038, 1574777907038
115, -187500.02, -187500.02, -31206.70, -187500.02, -187500.02, 14191.75, -187500.02, -187500.02, 0.000, 0.000, 0.000, 16:18:27.038, 1574777907038
116, -187500.02, -187500.02, -31249.17, -187500.02, -187500.02, 14201.65, -187500.02, -187500.02, 0.000, 0.000, 0.000, 16:18:27.038, 1574777907038
117, -187500.02, -187500.02, -31263.52, -187500.02, -187500.02, 14149.97, -187500.02, -187500.02, 0.000, 0.000, 0.000, 16:18:27.038, 1574777907038
118, -187500.02, -187500.02, -31232.67, -187500.02, -187500.02, 14101.40, -187500.02, -187500.02, 0.000, 0.000, 0.000, 16:18:27.038, 1574777907038
119, -187500.02, -187500.02, -31200.69, -187500.02, -187500.02, 14122.73, -187500.02, -187500.02, 0.000, 0.000, 0.000, 16:18:27.038, 1574777907038
120, -187500.02, -187500.02, -31212.69, -187500.02, -187500.02, 14185.94, -187500.02, -187500.02, -0.002, -0.008, 0.974, 16:18:27.040, 1574777907040
121, -187500.02, -187500.02, -31254.40, -187500.02, -187500.02, 14193.76, -187500.02, -187500.02, 0.000, 0.000, 0.000, 16:18:27.040, 1574777907040
122, -187500.02, -187500.02, -31270.29, -187500.02, -187500.02, 14147.83, -187500.02, -187500.02, 0.000, 0.000, 0.000, 16:18:27.040, 1574777907040
123, -187500.02, -187500.02, -31232.31, -187500.02, -187500.02, 14113.74, -187500.02, -187500.02, 0.000, 0.000, 0.000, 16:18:27.040, 1574777907040
124, -187500.02, -187500.02, -31195.48, -187500.02, -187500.02, 14133.70, -187500.02, -187500.02, 0.000, 0.000, 0.000, 16:18:27.041, 1574777907041
125, -187500.02, -187500.02, -31209.79, -187500.02, -187500.02, 14179.59, -187500.02, -187500.02, 0.000, 0.000, 0.000, 16:18:27.041, 1574777907041
126, -187500.02, -187500.02, -31253.37, -187500.02, -187500.02, 14197.51, -187500.02, -187500.02, 0.000, 0.000, 0.000, 16:18:27.041, 1574777907041
127, -187500.02, -187500.02, -31269.84, -187500.02, -187500.02, 14149.28, -187500.02, -187500.02, 0.000, 0.000, 0.000, 16:18:27.041, 1574777907041
128, -187500.02, -187500.02, -31231.82, -187500.02, -187500.02, 14106.10, -187500.02, -187500.02, 0.000, 0.000, 0.000, 16:18:27.041, 1574777907041
129, -187500.02, -187500.02, -31197.00, -187500.02, -187500.02, 14131.31, -187500.02, -187500.02, 0.000, 0.000, 0.000, 16:18:27.041, 1574777907041
130, -187500.02, -187500.02, -31202.39, -187500.02, -187500.02, 14194.83, -187500.02, -187500.02, -0.002, -0.004, 0.980, 16:18:27.041, 1574777907041
131, -187500.02, -187500.02, -31244.25, -187500.02, -187500.02, 14206.39, -187500.02, -187500.02, 0.000, 0.000, 0.000, 16:18:27.041, 1574777907041
132, -187500.02, -187500.02, -31252.65, -187500.02, -187500.02, 14160.79, -187500.02, -187500.02, 0.000, 0.000, 0.000, 16:18:27.042, 1574777907042
133, -187500.02, -187500.02, -31234.91, -187500.02, -187500.02, 14101.76, -187500.02, -187500.02, 0.000, 0.000, 0.000, 16:18:27.042, 1574777907042
134, -187500.02, -187500.02, -31207.68, -187500.02, -187500.02, 14118.66, -187500.02, -187500.02, 0.000, 0.000, 0.000, 16:18:27.042, 1574777907042
135, -187500.02, -187500.02, -31208.24, -187500.02, -187500.02, 14193.63, -187500.02, -187500.02, 0.000, 0.000, 0.000, 16:18:27.042, 1574777907042
136, -187500.02, -187500.02, -31238.71, -187500.02, -187500.02, 14209.94, -187500.02, -187500.02, 0.000, 0.000, 0.000, 16:18:27.042, 1574777907042
137, -187500.02, -187500.02, -31252.14, -187500.02, -187500.02, 14169.89, -187500.02, -187500.02, 0.000, 0.000, 0.000, 16:18:27.042, 1574777907042
138, -187500.02, -187500.02, -31228.20, -187500.02, -187500.02, 14118.43, -187500.02, -187500.02, 0.000, 0.000, 0.000, 16:18:27.043, 1574777907043
139, -187500.02, -187500.02, -31193.09, -187500.02, -187500.02, 14134.50, -187500.02, -187500.02, 0.000, 0.000, 0.000, 16:18:27.043, 1574777907043
140, -187500.02, -187500.02, -31203.95, -187500.02, -187500.02, 14185.89, -187500.02, -187500.02, -0.002, -0.008, 0.978, 16:18:27.043, 1574777907043
141, -187500.02, -187500.02, -31249.97, -187500.02, -187500.02, 14200.29, -187500.02, -187500.02, 0.000, 0.000, 0.000, 16:18:27.043, 1574777907043
142, -187500.02, -187500.02, -31265.48, -187500.02, -187500.02, 14162.11, -187500.02, -187500.02, 0.000, 0.000, 0.000, 16:18:27.043, 1574777907043
143, -187500.02, -187500.02, -31237.12, -187500.02, -187500.02, 14111.39, -187500.02, -187500.02, 0.000, 0.000, 0.000, 16:18:27.043, 1574777907043
144, -187500.02, -187500.02, -31193.09, -187500.02, -187500.02, 14138.10, -187500.02, -187500.02, 0.000, 0.000, 0.000, 16:18:27.044, 1574777907044
145, -187500.02, -187500.02, -31196.28, -187500.02, -187500.02, 14202.88, -187500.02, -187500.02, 0.000, 0.000, 0.000, 16:18:27.044, 1574777907044
146, -187500.02, -187500.02, -31241.75, -187500.02, -187500.02, 14211.93, -187500.02, -187500.02, 0.000, 0.000, 0.000, 16:18:27.044, 1574777907044
147, -187500.02, -187500.02, -31262.40, -187500.02, -187500.02, 14158.26, -187500.02, -187500.02, 0.000, 0.000, 0.000, 16:18:27.044, 1574777907044
148, -187500.02, -187500.02, -31236.21, -187500.02, -187500.02, 14113.99, -187500.02, -187500.02, 0.000, 0.000, 0.000, 16:18:27.045, 1574777907045
149, -187500.02, -187500.02, -31208.58, -187500.02, -187500.02, 14132.09, -187500.02, -187500.02, 0.000, 0.000, 0.000, 16:18:27.045, 1574777907045
150, -187500.02, -187500.02, -31218.30, -187500.02, -187500.02, 14174.56, -187500.02, -187500.02, 0.000, -0.008, 0.978, 16:18:27.045, 1574777907045
151, -187500.02, -187500.02, -31246.87, -187500.02, -187500.02, 14201.34, -187500.02, -187500.02, 0.000, 0.000, 0.000, 16:18:27.045, 1574777907045
152, -187500.02, -187500.02, -31267.14, -187500.02, -187500.02, 14157.88, -187500.02, -187500.02, 0.000, 0.000, 0.000, 16:18:27.045, 1574777907045
153, -187500.02, -187500.02, -31239.85, -187500.02, -187500.02, 14101.85, -187500.02, -187500.02, 0.000, 0.000, 0.000, 16:18:27.046, 1574777907046
154, -187500.02, -187500.02, -31204.91, -187500.02, -187500.02, 14118.72, -187500.02, -187500.02, 0.000, 0.000, 0.000, 16:18:27.046, 1574777907046
155, -187500.02, -187500.02, -31216.04, -187500.02, -187500.02, 14180.01, -187500.02, -187500.02, 0.000, 0.000, 0.000, 16:18:27.046, 1574777907046
156, -187500.02, -187500.02, -31254.78, -187500.02, -187500.02, 14203.59, -187500.02, -187500.02, 0.000, 0.000, 0.000, 16:18:27.046, 1574777907046
157, -187500.02, -187500.02, -31267.81, -187500.02, -187500.02, 14152.59, -187500.02, -187500.02, 0.000, 0.000, 0.000, 16:18:27.046, 1574777907046
158, -187500.02, -187500.02, -31234.24, -187500.02, -187500.02, 14102.83, -187500.02, -187500.02, 0.000, 0.000, 0.000, 16:18:27.047, 1574777907047
159, -187500.02, -187500.02, -31195.84, -187500.02, -187500.02, 14132.38, -187500.02, -187500.02, 0.000, -0.004, 0.978, 16:18:27.047, 1574777907047
160, -187500.02, -187500.02, -31211.39, -187500.02, -187500.02, 14183.08, -187500.02, -187500.02, 0.000, 0.000, 0.000, 16:18:27.047, 1574777907047
161, -187500.02, -187500.02, -31251.69, -187500.02, -187500.02, 14208.49, -187500.02, -187500.02, 0.000, 0.000, 0.000, 16:18:27.048, 1574777907048
162, -187500.02, -187500.02, -31272.97, -187500.02, -187500.02, 14150.64, -187500.02, -187500.02, 0.000, 0.000, 0.000, 16:18:27.049, 1574777907049
163, -187500.02, -187500.02, -31241.81, -187500.02, -187500.02, 14103.55, -187500.02, -187500.02, 0.000, 0.000, 0.000, 16:18:27.049, 1574777907049
164, -187500.02, -187500.02, -31204.73, -187500.02, -187500.02, 14125.18, -187500.02, -187500.02, 0.000, 0.000, 0.000, 16:18:27.049, 1574777907049
165, -187500.02, -187500.02, -31211.10, -187500.02, -187500.02, 14185.85, -187500.02, -187500.02, 0.000, 0.000, 0.000, 16:18:27.049, 1574777907049
166, -187500.02, -187500.02, -31246.15, -187500.02, -187500.02, 14206.21, -187500.02, -187500.02, 0.000, 0.000, 0.000, 16:18:27.049, 1574777907049
167, -187500.02, -187500.02, -31267.74, -187500.02, -187500.02, 14158.04, -187500.02, -187500.02, 0.000, 0.000, 0.000, 16:18:27.050, 1574777907050
168, -187500.02, -187500.02, -31244.92, -187500.02, -187500.02, 14096.40, -187500.02, -187500.02, 0.000, 0.000, 0.000, 16:18:27.050, 1574777907050
169, -187500.02, -187500.02, -31211.26, -187500.02, -187500.02, 14119.66, -187500.02, -187500.02, 0.002, -0.004, 0.976, 16:18:27.050, 1574777907050
170, -187500.02, -187500.02, -31208.87, -187500.02, -187500.02, 14185.67, -187500.02, -187500.02, 0.000, 0.000, 0.000, 16:18:27.050, 1574777907050
171, -187500.02, -187500.02, -31248.65, -187500.02, -187500.02, 14197.85, -187500.02, -187500.02, 0.000, 0.000, 0.000, 16:18:27.050, 1574777907050
172, -187500.02, -187500.02, -31262.96, -187500.02, -187500.02, 14157.06, -187500.02, -187500.02, 0.000, 0.000, 0.000, 16:18:27.051, 1574777907051
173, -187500.02, -187500.02, -31238.26, -187500.02, -187500.02, 14115.93, -187500.02, -187500.02, 0.000, 0.000, 0.000, 16:18:27.051, 1574777907051
174, -187500.02, -187500.02, -31206.74, -187500.02, -187500.02, 14129.39, -187500.02, -187500.02, 0.000, 0.000, 0.000, 16:18:27.051, 1574777907051
175, -187500.02, -187500.02, -31210.37, -187500.02, -187500.02, 14190.21, -187500.02, -187500.02, 0.000, 0.000, 0.000, 16:18:27.052, 1574777907052
176, -187500.02, -187500.02, -31245.77, -187500.02, -187500.02, 14213.34, -187500.02, -187500.02, 0.000, 0.000, 0.000, 16:18:27.052, 1574777907052
177, -187500.02, -187500.02, -31255.36, -187500.02, -187500.02, 14180.46, -187500.02, -187500.02, 0.000, 0.000, 0.000, 16:18:27.052, 1574777907052
178, -187500.02, -187500.02, -31228.56, -187500.02, -187500.02, 14131.62, -187500.02, -187500.02, 0.000, 0.000, 0.000, 16:18:27.052, 1574777907052
179, -187500.02, -187500.02, -31193.65, -187500.02, -187500.02, 14147.65, -187500.02, -187500.02, 0.002, -0.006, 0.978, 16:18:27.053, 1574777907053
180, -187500.02, -187500.02, -31202.41, -187500.02, -187500.02, 14206.50, -187500.02, -187500.02, 0.000, 0.000, 0.000, 16:18:27.053, 1574777907053
181, -187500.02, -187500.02, -31244.03, -187500.02, -187500.02, 14224.11, -187500.02, -187500.02, 0.000, 0.000, 0.000, 16:18:27.053, 1574777907053
182, -187500.02, -187500.02, -31272.26, -187500.02, -187500.02, 14162.15, -187500.02, -187500.02, 0.000, 0.000, 0.000, 16:18:27.053, 1574777907053
183, -187500.02, -187500.02, -31250.82, -187500.02, -187500.02, 14108.20, -187500.02, -187500.02, 0.000, 0.000, 0.000, 16:18:27.053, 1574777907053
184, -187500.02, -187500.02, -31211.19, -187500.02, -187500.02, 14132.99, -187500.02, -187500.02, 0.000, 0.000, 0.000, 16:18:27.053, 1574777907053
185, -187500.02, -187500.02, -31209.83, -187500.02, -187500.02, 14193.51, -187500.02, -187500.02, 0.000, 0.000, 0.000, 16:18:27.053, 1574777907053
186, -187500.02, -187500.02, -31253.64, -187500.02, -187500.02, 14210.93, -187500.02, -187500.02, 0.000, 0.000, 0.000, 16:18:27.053, 1574777907053
187, -187500.02, -187500.02, -31272.23, -187500.02, -187500.02, 14165.35, -187500.02, -187500.02, 0.000, 0.000, 0.000, 16:18:27.053, 1574777907053
188, -187500.02, -187500.02, -31244.54, -187500.02, -187500.02, 14109.47, -187500.02, -187500.02, 0.000, 0.000, 0.000, 16:18:27.053, 1574777907053
189, -187500.02, -187500.02, -31199.95, -187500.02, -187500.02, 14146.31, -187500.02, -187500.02, 0.002, -0.004, 0.974, 16:18:27.053, 1574777907053
190, -187500.02, -187500.02, -31197.18, -187500.02, -187500.02, 14196.53, -187500.02, -187500.02, 0.000, 0.000, 0.000, 16:18:27.053, 1574777907053
191, -187500.02, -187500.02, -31244.25, -187500.02, -187500.02, 14209.99, -187500.02, -187500.02, 0.000, 0.000, 0.000, 16:18:27.053, 1574777907053
192, -187500.02, -187500.02, -31273.24, -187500.02, -187500.02, 14158.91, -187500.02, -187500.02, 0.000, 0.000, 0.000, 16:18:27.054, 1574777907054
193, -187500.02, -187500.02, -31240.63, -187500.02, -187500.02, 14117.99, -187500.02, -187500.02, 0.000, 0.000, 0.000, 16:18:27.054, 1574777907054
194, -187500.02, -187500.02, -31207.66, -187500.02, -187500.02, 14131.78, -187500.02, -187500.02, 0.000, 0.000, 0.000, 16:18:27.054, 1574777907054
195, -187500.02, -187500.02, -31207.88, -187500.02, -187500.02, 14202.34, -187500.02, -187500.02, 0.000, 0.000, 0.000, 16:18:27.054, 1574777907054
196, -187500.02, -187500.02, -31249.62, -187500.02, -187500.02, 14212.69, -187500.02, -187500.02, 0.000, 0.000, 0.000, 16:18:27.054, 1574777907054
197, -187500.02, -187500.02, -31267.25, -187500.02, -187500.02, 14167.83, -187500.02, -187500.02, 0.000, 0.000, 0.000, 16:18:27.054, 1574777907054
198, -187500.02, -187500.02, -31240.85, -187500.02, -187500.02, 14115.71, -187500.02, -187500.02, 0.002, -0.002, 0.974, 16:18:27.054, 1574777907054
199, -187500.02, -187500.02, -31202.25, -187500.02, -187500.02, 14136.70, -187500.02, -187500.02, 0.000, 0.000, 0.000, 16:18:27.054, 1574777907054
200, -187500.02, -187500.02, -31202.72, -187500.02, -187500.02, 14202.19, -187500.02, -187500.02, 0.000, 0.000, 0.000, 16:18:27.054, 1574777907054
201, -187500.02, -187500.02, -31247.49, -187500.02, -187500.02, 14217.45, -187500.02, -187500.02, 0.000, 0.000, 0.000, 16:18:27.054, 1574777907054
202, -187500.02, -187500.02, -31271.12, -187500.02, -187500.02, 14163.88, -187500.02, -187500.02, 0.000, 0.000, 0.000, 16:18:27.054, 1574777907054
203, -187500.02, -187500.02, -31240.03, -187500.02, -187500.02, 14122.99, -187500.02, -187500.02, 0.000, 0.000, 0.000, 16:18:27.054, 1574777907054
204, -187500.02, -187500.02, -31204.64, -187500.02, -187500.02, 14148.68, -187500.02, -187500.02, 0.000, 0.000, 0.000, 16:18:27.054, 1574777907054
205, -187500.02, -187500.02, -31208.38, -187500.02, -187500.02, 14199.95, -187500.02, -187500.02, 0.000, 0.000, 0.000, 16:18:27.055, 1574777907055
206, -187500.02, -187500.02, -31246.26, -187500.02, -187500.02, 14221.21, -187500.02, -187500.02, 0.000, 0.000, 0.000, 16:18:27.055, 1574777907055
207, -187500.02, -187500.02, -31273.42, -187500.02, -187500.02, 14172.62, -187500.02, -187500.02, 0.000, 0.000, 0.000, 16:18:27.055, 1574777907055
208, -187500.02, -187500.02, -31247.47, -187500.02, -187500.02, 14118.66, -187500.02, -187500.02, 0.002, 0.000, 0.976, 16:18:27.055, 1574777907055
209, -187500.02, -187500.02, -31211.13, -187500.02, -187500.02, 14132.40, -187500.02, -187500.02, 0.000, 0.000, 0.000, 16:18:27.055, 1574777907055
210, -187500.02, -187500.02, -31214.90, -187500.02, -187500.02, 14192.08, -187500.02, -187500.02, 0.000, 0.000, 0.000, 16:18:27.055, 1574777907055
211, -187500.02, -187500.02, -31247.38, -187500.02, -187500.02, 14217.30, -187500.02, -187500.02, 0.000, 0.000, 0.000, 16:18:27.055, 1574777907055
212, -187500.02, -187500.02, -31267.45, -187500.02, -187500.02, 14169.66, -187500.02, -187500.02, 0.000, 0.000, 0.000, 16:18:27.515, 1574777907515
213, -187500.02, -187500.02, -31238.78, -187500.02, -187500.02, 14125.54, -187500.02, -187500.02, 0.000, 0.000, 0.000, 16:18:27.515, 1574777907515
214, -187500.02, -187500.02, -31200.64, -187500.02, -187500.02, 14140.03, -187500.02, -187500.02, 0.000, 0.000, 0.000, 16:18:27.515, 1574777907515
215, -187500.02, -187500.02, -31206.05, -187500.02, -187500.02, 14197.25, -187500.02, -187500.02, 0.000, 0.000, 0.000, 16:18:27.515, 1574777907515
216, -187500.02, -187500.02, -31249.26, -187500.02, -187500.02, 14226.13, -187500.02, -187500.02, 0.000, 0.000, 0.000, 16:18:27.515, 1574777907515
217, -187500.02, -187500.02, -31262.82, -187500.02, -187500.02, 14184.55, -187500.02, -187500.02, 0.000, 0.000, 0.000, 16:18:27.516, 1574777907516
218, -187500.02, -187500.02, -31236.49, -187500.02, -187500.02, 14135.87, -187500.02, -187500.02, 0.000, 0.000, 0.974, 16:18:27.516, 1574777907516
219, -187500.02, -187500.02, -31200.11, -187500.02, -187500.02, 14149.95, -187500.02, -187500.02, 0.000, 0.000, 0.000, 16:18:27.516, 1574777907516
220, -187500.02, -187500.02, -31205.58, -187500.02, -187500.02, 14194.54, -187500.02, -187500.02, 0.000, 0.000, 0.000, 16:18:27.516, 1574777907516
221, -187500.02, -187500.02, -31251.69, -187500.02, -187500.02, 14207.39, -187500.02, -187500.02, 0.000, 0.000, 0.000, 16:18:27.516, 1574777907516
222, -187500.02, -187500.02, -31276.57, -187500.02, -187500.02, 14162.15, -187500.02, -187500.02, 0.000, 0.000, 0.000, 16:18:27.516, 1574777907516
223, -187500.02, -187500.02, -31244.16, -187500.02, -187500.02, 14119.80, -187500.02, -187500.02, 0.000, 0.000, 0.000, 16:18:27.516, 1574777907516
224, -187500.02, -187500.02, -31202.52, -187500.02, -187500.02, 14140.43, -187500.02, -187500.02, 0.000, 0.000, 0.000, 16:18:27.516, 1574777907516
225, -187500.02, -187500.02, -31211.10, -187500.02, -187500.02, 14200.87, -187500.02, -187500.02, 0.000, 0.000, 0.000, 16:18:27.516, 1574777907516
226, -187500.02, -187500.02, -31248.68, -187500.02, -187500.02, 14213.67, -187500.02, -187500.02, 0.000, 0.000, 0.000, 16:18:27.516, 1574777907516
227, -187500.02, -187500.02, -31270.49, -187500.02, -187500.02, 14165.82, -187500.02, -187500.02, 0.000, 0.000, 0.000, 16:18:27.516, 1574777907516
228, -187500.02, -187500.02, -31248.88, -187500.02, -187500.02, 14119.19, -187500.02, -187500.02, 0.002, -0.004, 0.974, 16:18:27.516, 1574777907516
229, -187500.02, -187500.02, -31212.47, -187500.02, -187500.02, 14124.67, -187500.02, -187500.02, 0.000, 0.000, 0.000, 16:18:27.516, 1574777907516
230, -187500.02, -187500.02, -31215.55, -187500.02, -187500.02, 14185.76, -187500.02, -187500.02, 0.000, 0.000, 0.000, 16:18:27.517, 1574777907517
231, -187500.02, -187500.02, -31251.09, -187500.02, -187500.02, 14217.00, -187500.02, -187500.02, 0.000, 0.000, 0.000, 16:18:27.517, 1574777907517
232, -187500.02, -187500.02, -31271.56, -187500.02, -187500.02, 14179.97, -187500.02, -187500.02, 0.000, 0.000, 0.000, 16:18:27.517, 1574777907517
233, -187500.02, -187500.02, -31250.22, -187500.02, -187500.02, 14128.02, -187500.02, -187500.02, 0.000, 0.000, 0.000, 16:18:27.517, 1574777907517
234, -187500.02, -187500.02, -31206.74, -187500.02, -187500.02, 14139.76, -187500.02, -187500.02, 0.000, 0.000, 0.000, 16:18:27.517, 1574777907517
235, -187500.02, -187500.02, -31208.49, -187500.02, -187500.02, 14201.31, -187500.02, -187500.02, 0.000, 0.000, 0.000, 16:18:27.517, 1574777907517
236, -187500.02, -187500.02, -31252.14, -187500.02, -187500.02, 14219.20, -187500.02, -187500.02, 0.000, 0.000, 0.000, 16:18:27.518, 1574777907518
237, -187500.02, -187500.02, -31278.09, -187500.02, -187500.02, 14167.16, -187500.02, -187500.02, 0.002, -0.004, 0.974, 16:18:27.518, 1574777907518
238, -187500.02, -187500.02, -31249.08, -187500.02, -187500.02, 14114.30, -187500.02, -187500.02, 0.000, 0.000, 0.000, 16:18:27.518, 1574777907518
239, -187500.02, -187500.02, -31207.44, -187500.02, -187500.02, 14134.24, -187500.02, -187500.02, 0.000, 0.000, 0.000, 16:18:27.518, 1574777907518
240, -187500.02, -187500.02, -31209.34, -187500.02, -187500.02, 14202.95, -187500.02, -187500.02, 0.000, 0.000, 0.000, 16:18:27.518, 1574777907518
241, -187500.02, -187500.02, -31256.14, -187500.02, -187500.02, 14207.39, -187500.02, -187500.02, 0.000, 0.000, 0.000, 16:18:27.518, 1574777907518
242, -187500.02, -187500.02, -31276.95, -187500.02, -187500.02, 14159.03, -187500.02, -187500.02, 0.000, 0.000, 0.000, 16:18:27.518, 1574777907518
243, -187500.02, -187500.02, -31247.98, -187500.02, -187500.02, 14114.88, -187500.02, -187500.02, 0.000, 0.000, 0.000, 16:18:27.518, 1574777907518
244, -187500.02, -187500.02, -31217.38, -187500.02, -187500.02, 14128.67, -187500.02, -187500.02, 0.000, 0.000, 0.000, 16:18:27.519, 1574777907519
245, -187500.02, -187500.02, -31223.24, -187500.02, -187500.02, 14176.55, -187500.02, -187500.02, 0.000, 0.000, 0.000, 16:18:27.519, 1574777907519
246, -187500.02, -187500.02, -31258.49, -187500.02, -187500.02, 14193.78, -187500.02, -187500.02, 0.000, 0.000, 0.000, 16:18:27.519, 1574777907519
247, -187500.02, -187500.02, -31274.22, -187500.02, -187500.02, 14164.93, -187500.02, -187500.02, 0.000, -0.004, 0.974, 16:18:27.519, 1574777907519
248, -187500.02, -187500.02, -31249.97, -187500.02, -187500.02, 14119.13, -187500.02, -187500.02, 0.000, 0.000, 0.000, 16:18:27.519, 1574777907519
249, -187500.02, -187500.02, -31209.61, -187500.02, -187500.02, 14137.32, -187500.02, -187500.02, 0.000, 0.000, 0.000, 16:18:27.519, 1574777907519
250, -187500.02, -187500.02, -31209.61, -187500.02, -187500.02, 14189.69, -187500.02, -187500.02, 0.000, 0.000, 0.000, 16:18:27.519, 1574777907519
251, -187500.02, -187500.02, -31250.17, -187500.02, -187500.02, 14206.19, -187500.02, -187500.02, 0.000, 0.000, 0.000, 16:18:27.520, 1574777907520
252, -187500.02, -187500.02, -31272.44, -187500.02, -187500.02, 14165.78, -187500.02, -187500.02, 0.000, 0.000, 0.000, 16:18:27.520, 1574777907520
253, -187500.02, -187500.02, -31251.72, -187500.02, -187500.02, 14117.61, -187500.02, -187500.02, 0.000, 0.000, 0.000, 16:18:27.520, 1574777907520
254, -187500.02, -187500.02, -31216.27, -187500.02, -187500.02, 14139.51, -187500.02, -187500.02, 0.000, 0.000, 0.000, 16:18:27.520, 1574777907520
255, -187500.02, -187500.02, -31217.38, -187500.02, -187500.02, 14187.99, -187500.02, -187500.02, 0.000, 0.000, 0.000, 16:18:27.520, 1574777907520
0, -187500.02, -187500.02, -31251.56, -187500.02, -187500.02, 14216.25, -187500.02, -187500.02, 0.000, 0.000, 0.000, 16:18:27.520, 1574777907520
1, -187500.02, -187500.02, -31273.15, -187500.02, -187500.02, 14172.19, -187500.02, -187500.02, 0.002, -0.002, 0.976, 16:18:27.520, 1574777907520
2, -187500.02, -187500.02, -31248.70, -187500.02, -187500.02, 14120.96, -187500.02, -187500.02, 0.000, 0.000, 0.000, 16:18:27.520, 1574777907520
3, -187500.02, -187500.02, -31213.85, -187500.02, -187500.02, 14129.92, -187500.02, -187500.02, 0.000, 0.000, 0.000, 16:18:27.521, 1574777907521
4, -187500.02, -187500.02, -31215.04, -187500.02, -187500.02, 14185.67, -187500.02, -187500.02, 0.000, 0.000, 0.000, 16:18:27.521, 1574777907521
5, -187500.02, -187500.02, -31250.58, -187500.02, -187500.02, 14222.91, -187500.02, -187500.02, 0.000, 0.000, 0.000, 16:18:27.521, 1574777907521
6, -187500.02, -187500.02, -31271.50, -187500.02, -187500.02, 14183.43, -187500.02, -187500.02, 0.000, 0.000, 0.000, 16:18:27.521, 1574777907521
7, -187500.02, -187500.02, -31244.25, -187500.02, -187500.02, 14122.35, -187500.02, -187500.02, 0.000, 0.000, 0.000, 16:18:27.521, 1574777907521
8, -187500.02, -187500.02, -31212.53, -187500.02, -187500.02, 14131.06, -187500.02, -187500.02, 0.000, 0.000, 0.000, 16:18:27.521, 1574777907521
9, -187500.02, -187500.02, -31217.00, -187500.02, -187500.02, 14181.33, -187500.02, -187500.02, 0.000, 0.000, 0.000, 16:18:27.521, 1574777907521
10, -187500.02, -187500.02, -31253.93, -187500.02, -187500.02, 14206.97, -187500.02, -187500.02, 0.000, 0.000, 0.000, 16:18:27.521, 1574777907521
11, -187500.02, -187500.02, -31279.39, -187500.02, -187500.02, 14168.35, -187500.02, -187500.02, 0.000, -0.006, 0.974, 16:18:27.522, 1574777907522
12, -187500.02, -187500.02, -31251.67, -187500.02, -187500.02, 14116.67, -187500.02, -187500.02, 0.000, 0.000, 0.000, 16:18:27.522, 1574777907522
13, -187500.02, -187500.02, -31209.14, -187500.02, -187500.02, 14134.04, -187500.02, -187500.02, 0.000, 0.000, 0.000, 16:18:27.522, 1574777907522
14, -187500.02, -187500.02, -31210.66, -187500.02, -187500.02, 14203.06, -187500.02, -187500.02, 0.000, 0.000, 0.000, 16:18:27.522, 1574777907522
15, -187500.02, -187500.02, -31250.46, -187500.02, -187500.02, 14215.91, -187500.02, -187500.02, 0.000, 0.000, 0.000, 16:18:27.522, 1574777907522
16, -187500.02, -187500.02, -31273.40, -187500.02, -187500.02, 14167.45, -187500.02, -187500.02, 0.000, 0.000, 0.000, 16:18:27.522, 1574777907522
17, -187500.02, -187500.02, -31255.92, -187500.02, -187500.02, 14108.60, -187500.02, -187500.02, 0.000, 0.000, 0.000, 16:18:27.522, 1574777907522
18, -187500.02, -187500.02, -31218.43, -187500.02, -187500.02, 14122.90, -187500.02, -187500.02, 0.000, 0.000, 0.000, 16:18:27.522, 1574777907522
19, -187500.02, -187500.02, -31216.00, -187500.02, -187500.02, 14187.48, -187500.02, -187500.02, 0.000, 0.000, 0.000, 16:18:27.523, 1574777907523
20, -187500.02, -187500.02, -31252.10, -187500.02, -187500.02, 14215.62, -187500.02, -187500.02, 0.000, -0.004, 0.980, 16:18:27.523, 1574777907523
21, -187500.02, -187500.02, -31271.70, -187500.02, -187500.02, 14181.09, -187500.02, -187500.02, 0.000, 0.000, 0.000, 16:18:27.523, 1574777907523
22, -187500.02, -187500.02, -31239.80, -187500.02, -187500.02, 14141.08, -187500.02, -187500.02, 0.000, 0.000, 0.000, 16:18:27.523, 1574777907523
23, -187500.02, -187500.02, -31196.20, -187500.02, -187500.02, 14148.07, -187500.02, -187500.02, 0.000, 0.000, 0.000, 16:18:27.523, 1574777907523
24, -187500.02, -187500.02, -31196.84, -187500.02, -187500.02, 14197.76, -187500.02, -187500.02, 0.000, 0.000, 0.000, 16:18:27.523, 1574777907523
25, -187500.02, -187500.02, -31238.51, -187500.02, -187500.02, 14217.21, -187500.02, -187500.02, 0.000, 0.000, 0.000, 16:18:27.523, 1574777907523
26, -187500.02, -187500.02, -31265.17, -187500.02, -187500.02, 14173.26, -187500.02, -187500.02, 0.000, 0.000, 0.000, 16:18:27.523, 1574777907523
27, -187500.02, -187500.02, -31242.91, -187500.02, -187500.02, 14120.96, -187500.02, -187500.02, 0.000, 0.000, 0.000, 16:18:27.524, 1574777907524
28, -187500.02, -187500.02, -31211.75, -187500.02, -187500.02, 14131.13, -187500.02, -187500.02, 0.000, 0.000, 0.000, 16:18:27.524, 1574777907524
29, -187500.02, -187500.02, -31216.76, -187500.02, -187500.02, 14190.41, -187500.02, -187500.02, 0.000, 0.000, 0.000, 16:18:27.524, 1574777907524
30, -187500.02, -187500.02, -31255.07, -187500.02, -187500.02, 14208.20, -187500.02, -187500.02, -0.004, -0.008, 0.982, 16:18:27.525, 1574777907525
31, -187500.02, -187500.02, -31279.03, -187500.02, -187500.02, 14158.51, -187500.02, -187500.02, 0.000, 0.000, 0.000, 16:18:27.525, 1574777907525
32, -187500.02, -187500.02, -31251.34, -187500.02, -187500.02, 14121.12, -187500.02, -187500.02, 0.000, 0.000, 0.000, 16:18:27.525, 1574777907525
33, -187500.02, -187500.02, -31209.09, -187500.02, -187500.02, 14126.95, -187500.02, -187500.02, 0.000, 0.000, 0.000, 16:18:27.525, 1574777907525
34, -187500.02, -187500.02, -31214.97, -187500.02, -187500.02, 14185.47, -187500.02, -187500.02, 0.000, 0.000, 0.000, 16:18:27.525, 1574777907525
35, -187500.02, -187500.02, -31256.59, -187500.02, -187500.02, 14209.88, -187500.02, -187500.02, 0.000, 0.000, 0.000, 16:18:27.525, 1574777907525
36, -187500.02, -187500.02, -31282.52, -187500.02, -187500.02, 14166.85, -187500.02, -187500.02, 0.000, 0.000, 0.000, 16:18:27.525, 1574777907525
37, -187500.02, -187500.02, -31254.04, -187500.02, -187500.02, 14118.66, -187500.02, -187500.02, 0.000, 0.000, 0.000, 16:18:27.525, 1574777907525
38, -187500.02, -187500.02, -31221.72, -187500.02, -187500.02, 14129.12, -187500.02, -187500.02, 0.000, 0.000, 0.000, 16:18:27.525, 1574777907525
39, -187500.02, -187500.02, -31223.80, -187500.02, -187500.02, 14172.77, -187500.02, -187500.02, 0.000, 0.000, 0.000, 16:18:27.525, 1574777907525
40, -187500.02, -187500.02, -31252.03, -187500.02, -187500.02, 14207.68, -187500.02, -187500.02, -0.002, -0.008, 0.980, 16:18:27.525, 1574777907525
41, -187500.02, -187500.02, -31270.45, -187500.02, -187500.02, 14168.95, -187500.02, -187500.02, 0.000, 0.000, 0.000, 16:18:27.525, 1574777907525
42, -187500.02, -187500.02, -31257.44, -187500.02, -187500.02, 14105.74, -187500.02, -187500.02, 0.000, 0.000, 0.000, 16:18:27.534, 1574777907534
43, -187500.02, -187500.02, -31220.20, -187500.02, -187500.02, 14118.99, -187500.02, -187500.02, 0.000, 0.000, 0.000, 16:18:27.535, 1574777907535
44, -187500.02, -187500.02, -31220.63, -187500.02, -187500.02, 14172.53, -187500.02, -187500.02, 0.000, 0.000, 0.000, 16:18:27.535, 1574777907535
45, -187500.02, -187500.02, -31259.83, -187500.02, -187500.02, 14199.41, -187500.02, -187500.02, 0.000, 0.000, 0.000, 16:18:27.536, 1574777907536
46, -187500.02, -187500.02, -31277.20, -187500.02, -187500.02, 14156.50, -187500.02, -187500.02, 0.000, 0.000, 0.000, 16:18:27.536, 1574777907536
47, -187500.02, -187500.02, -31255.99, -187500.02, -187500.02, 14099.61, -187500.02, -187500.02, 0.000, 0.000, 0.000, 16:18:27.536, 1574777907536
48, -187500.02, -187500.02, -31216.60, -187500.02, -187500.02, 14116.96, -187500.02, -187500.02, 0.000, 0.000, 0.000, 16:18:27.536, 1574777907536
