%OpenBCI Raw EEG Data
%Number of channels = 8
%Sample Rate = 250.0 Hz
%First Column = SampleIndex
%Last Column = Timestamp 
%Other Columns = EEG data in microvolts followed by Accel Data (in G) interleaved with Aux Data
0, -62779.54, -42062.65, -85008.51, -84750.64, -63100.20, -34799.05, -81490.73, 85054.51, -0.006, 0.000, 0.486, 16:12:57.959, 1578579177959
1, -187500.02, -187500.02, -187500.02, 187500.00, -187500.02, 187500.00, -187500.02, -187500.02, 0.000, 0.000, 0.000, 16:12:57.959, 1578579177959
2, -125721.16, -84287.80, -170007.81, -169862.72, -126390.10, -69727.92, -163246.47, 170208.89, 0.000, 0.000, 0.000, 16:12:57.959, 1578579177959
3, -187500.02, -187500.02, -187500.02, 187500.00, -187500.02, 187500.00, -187500.02, -187500.02, 0.000, 0.000, 0.000, 16:12:57.959, 1578579177959
4, -125957.51, -84527.68, -169991.47, -170499.77, -126662.80, -69922.06, -163623.91, 170320.64, 0.000, 0.000, 0.000, 16:12:57.959, 1578579177959
5, -187500.02, -187500.02, -187500.02, 187500.00, -187500.02, 187500.00, -187500.02, -187500.02, 0.000, 0.000, 0.000, 16:12:57.959, 1578579177959
6, -126214.93, -84786.76, -169985.17, -170424.31, -126954.93, -70135.81, -164021.92, 170414.16, 0.000, 0.000, 0.000, 16:12:57.959, 1578579177959
7, -187500.02, -187500.02, -187500.02, 187500.00, -187500.02, 187500.00, -187500.02, -187500.02, -0.016, -0.012, 0.734, 16:12:57.959, 1578579177959
8, -126472.38, -85047.38, -169972.81, -170282.72, -127249.33, -70349.48, -164421.75, 170507.66, 0.000, 0.000, 0.000, 16:12:57.959, 1578579177959
9, -187500.02, -187500.02, -187500.02, 187500.00, -187500.02, 187500.00, -187500.02, -187500.02, 0.000, 0.000, 0.000, 16:12:57.959, 1578579177959
10, -126727.21, -85306.97, -169962.48, -170142.77, -127538.89, -70562.60, -164823.72, 170598.09, 0.000, 0.000, 0.000, 16:12:57.959, 1578579177959
11, -187500.02, -187500.02, -187500.02, 187500.00, -187500.02, 187500.00, -187500.02, -187500.02, 0.000, 0.000, 0.000, 16:12:57.960, 1578579177960
12, -126982.16, -85569.11, -169957.88, -170002.92, -127831.08, -70778.96, -165228.36, 170686.72, 0.000, 0.000, 0.000, 16:12:57.960, 1578579177960
13, -187500.02, -187500.02, -187500.02, 187500.00, -187500.02, 187500.00, -187500.02, -187500.02, 0.000, 0.000, 0.000, 16:12:57.960, 1578579177960
14, -127241.05, -85832.73, -169950.08, -169863.94, -128124.98, -70993.85, -165633.28, 170776.13, 0.000, 0.000, 0.000, 16:12:57.960, 1578579177960
15, -187500.02, -187500.02, -187500.02, 187500.00, -187500.02, 187500.00, -187500.02, -187500.02, 0.000, 0.000, 0.000, 16:12:57.960, 1578579177960
16, -127497.43, -86095.20, -169939.03, -169723.83, -128417.49, -71204.01, -166037.33, 170867.95, -0.024, -0.006, 0.852, 16:12:57.960, 1578579177960
17, -187500.02, -187500.02, -187500.02, 187500.00, -187500.02, 187500.00, -187500.02, -187500.02, 0.000, 0.000, 0.000, 16:12:57.960, 1578579177960
18, -127754.30, -86357.44, -169928.86, -169585.78, -128709.81, -71417.66, -166440.45, 170961.20, 0.000, 0.000, 0.000, 16:12:57.960, 1578579177960
19, -187500.02, -187500.02, -187500.02, 187500.00, -187500.02, 187500.00, -187500.02, -187500.02, 0.000, 0.000, 0.000, 16:12:57.960, 1578579177960
20, -128010.49, -86618.26, -169917.06, -169344.23, -129002.53, -71633.77, -166843.66, 171052.98, 0.000, 0.000, 0.000, 16:12:57.960, 1578579177960
21, -187500.02, -187500.02, -187500.02, 187500.00, -187500.02, 187500.00, -187500.02, -187500.02, 0.000, 0.000, 0.000, 16:12:57.960, 1578579177960
22, -128240.00, -86851.21, -169917.22, -169172.95, -129270.57, -71821.38, -167220.19, 171173.31, 0.000, 0.000, 0.000, 16:12:57.960, 1578579177960
23, -187500.02, -187500.02, -187500.02, 187500.00, -187500.02, 187500.00, -187500.02, -187500.02, 0.000, 0.000, 0.000, 16:12:57.960, 1578579177960
24, -128453.26, -87068.80, -169906.25, -169613.66, -129524.33, -71993.94, -167579.73, 171304.81, 0.000, 0.000, 0.000, 16:12:57.960, 1578579177960
25, -187500.02, -187500.02, -187500.02, 187500.00, -187500.02, 187500.00, -187500.02, -187500.02, 0.000, 0.000, 0.000, 16:12:57.960, 1578579177960
26, -128679.21, -87298.45, -169886.66, -170290.69, -129787.12, -72178.52, -167953.84, 171426.20, -0.018, -0.004, 0.912, 16:12:57.960, 1578579177960
27, -187500.02, -187500.02, -187500.02, 187500.00, -187500.02, 187500.00, -187500.02, -187500.02, 0.000, 0.000, 0.000, 16:12:57.960, 1578579177960
28, -128937.15, -87558.46, -169871.33, -170340.88, -130075.39, -72387.33, -168359.28, 171518.81, 0.000, 0.000, 0.000, 16:12:57.960, 1578579177960
29, -187500.02, -187500.02, -187500.02, 187500.00, -187500.02, 187500.00, -187500.02, -187500.02, 0.000, 0.000, 0.000, 16:12:57.960, 1578579177960
30, -129197.57, -87821.34, -169865.78, -170201.94, -130369.02, -72598.48, -168766.03, 171611.28, 0.000, 0.000, 0.000, 16:12:57.960, 1578579177960
31, -187500.02, -187500.02, -187500.02, 187500.00, -187500.02, 187500.00, -187500.02, -187500.02, 0.000, 0.000, 0.000, 16:12:57.960, 1578579177960
32, -129451.62, -88083.35, -169857.11, -170060.36, -130660.29, -72806.85, -169169.31, 171706.19, 0.000, 0.000, 0.000, 16:12:57.960, 1578579177960
33, -187500.02, -187500.02, -187500.02, 187500.00, -187500.02, 187500.00, -187500.02, -187500.02, 0.000, 0.000, 0.000, 16:12:57.960, 1578579177960
34, -129708.29, -88345.29, -169848.98, -169922.00, -130951.60, -73015.81, -169575.61, 171797.72, 0.000, 0.000, 0.000, 16:12:57.960, 1578579177960
35, -187500.02, -187500.02, -187500.02, 187500.00, -187500.02, 187500.00, -187500.02, -187500.02, 0.000, 0.000, 0.000, 16:12:57.961, 1578579177961
36, -129969.53, -88605.38, -169839.44, -169784.84, -131245.02, -73226.88, -169983.11, 171888.86, -0.014, -0.022, 0.934, 16:12:57.961, 1578579177961
37, -187500.02, -187500.02, -187500.02, 187500.00, -187500.02, 187500.00, -187500.02, -187500.02, 0.000, 0.000, 0.000, 16:12:57.961, 1578579177961
38, -130247.92, -88880.68, -169824.30, -169660.34, -131555.48, -73455.20, -170287.20, 171952.98, 0.000, 0.000, 0.000, 16:12:57.961, 1578579177961
39, -187500.02, -187500.02, -187500.02, 187500.00, -187500.02, 187500.00, -187500.02, -187500.02, 0.000, 0.000, 0.000, 16:12:57.961, 1578579177961
40, -130547.52, -89181.60, -169817.89, -169557.59, -131889.28, -73709.34, -170207.64, 171973.89, 0.000, 0.000, 0.000, 16:12:57.961, 1578579177961
41, -187500.02, -187500.02, -187500.02, 187500.00, -187500.02, 187500.00, -187500.02, -187500.02, 0.000, 0.000, 0.000, 16:12:57.961, 1578579177961
42, -130829.74, -89468.13, -169811.42, -169442.63, -132209.41, -73948.35, -170246.86, 172017.30, 0.000, 0.000, 0.000, 16:12:57.961, 1578579177961
43, -187500.02, -187500.02, -187500.02, 187500.00, -187500.02, 187500.00, -187500.02, -187500.02, 0.000, 0.000, 0.000, 16:12:57.961, 1578579177961
44, -131125.50, -89763.91, -169798.63, -169239.16, -132541.42, -74197.55, -170235.94, 172041.69, 0.000, 0.000, 0.000, 16:12:57.961, 1578579177961
45, -187500.02, -187500.02, -187500.02, 187500.00, -187500.02, 187500.00, -187500.02, -187500.02, 0.000, 0.000, 0.000, 16:12:57.961, 1578579177961
46, -131384.27, -90026.88, -169805.34, -169087.25, -132835.86, -74412.62, -170190.25, 172106.59, -0.024, -0.020, 0.940, 16:12:57.961, 1578579177961
47, -187500.02, -187500.02, -187500.02, 187500.00, -187500.02, 187500.00, -187500.02, -187500.02, 0.000, 0.000, 0.000, 16:12:57.961, 1578579177961
48, -131629.16, -90275.48, -169792.88, -169570.36, -133116.13, -74613.96, -170200.80, 172184.17, 0.000, 0.000, 0.000, 16:12:57.961, 1578579177961
49, -187500.02, -187500.02, -187500.02, 187500.00, -187500.02, 187500.00, -187500.02, -187500.02, 0.000, 0.000, 0.000, 16:12:57.961, 1578579177961
50, -131889.34, -90538.20, -169777.70, -170262.48, -133410.72, -74828.99, -170196.64, 172250.38, 0.000, 0.000, 0.000, 16:12:57.961, 1578579177961
51, -187500.02, -187500.02, -187500.02, 187500.00, -187500.02, 187500.00, -187500.02, -187500.02, 0.000, 0.000, 0.000, 16:12:57.961, 1578579177961
52, -132182.63, -90838.07, -169770.75, -170253.13, -133737.52, -75078.05, -170190.58, 172277.39, 0.000, 0.000, 0.000, 16:12:57.961, 1578579177961
53, -187500.02, -187500.02, -187500.02, 187500.00, -187500.02, 187500.00, -187500.02, -187500.02, 0.000, 0.000, 0.000, 16:12:57.961, 1578579177961
54, -132473.42, -91131.41, -169770.08, -170140.98, -134064.34, -75324.91, -170159.28, 172310.17, 0.000, 0.000, 0.000, 16:12:57.961, 1578579177961
55, -187500.02, -187500.02, -187500.02, 187500.00, -187500.02, 187500.00, -187500.02, -187500.02, -0.022, -0.016, 0.958, 16:12:57.961, 1578579177961
56, -132766.34, -91422.43, -169756.39, -170029.31, -134388.20, -75567.71, -170198.22, 172344.61, 0.000, 0.000, 0.000, 16:12:57.961, 1578579177961
57, -187500.02, -187500.02, -187500.02, 187500.00, -187500.02, 187500.00, -187500.02, -187500.02, 0.000, 0.000, 0.000, 16:12:57.961, 1578579177961
58, -133058.33, -91716.20, -169753.72, -169919.25, -134713.59, -75813.05, -170133.84, 172375.00, 0.000, 0.000, 0.000, 16:12:57.961, 1578579177961
59, -187500.02, -187500.02, -187500.02, 187500.00, -187500.02, 187500.00, -187500.02, -187500.02, 0.000, 0.000, 0.000, 16:12:57.962, 1578579177962
60, -133346.92, -92007.51, -169742.63, -169804.83, -135035.27, -76057.59, -170217.20, 172411.38, 0.000, 0.000, 0.000, 16:12:57.962, 1578579177962
61, -187500.02, -187500.02, -187500.02, 187500.00, -187500.02, 187500.00, -187500.02, -187500.02, 0.000, 0.000, 0.000, 16:12:57.962, 1578579177962
62, -133646.08, -92308.37, -169733.78, -169700.92, -135369.33, -76312.95, -170105.44, 172428.92, 0.000, 0.000, 0.000, 16:12:57.962, 1578579177962
63, -187500.02, -187500.02, -187500.02, 187500.00, -187500.02, 187500.00, -187500.02, -187500.02, 0.000, 0.000, 0.000, 16:12:57.962, 1578579177962
64, -133924.92, -92592.99, -169729.48, -169583.33, -135685.44, -76549.58, -170184.45, 172475.59, 0.000, 0.000, 0.000, 16:12:57.962, 1578579177962
65, -187500.02, -187500.02, -187500.02, 187500.00, -187500.02, 187500.00, -187500.02, -187500.02, -0.024, -0.016, 0.970, 16:12:57.962, 1578579177962
66, -134218.47, -92891.74, -169721.08, -169476.80, -136015.30, -76798.27, -170125.02, 172497.95, 0.000, 0.000, 0.000, 16:12:57.962, 1578579177962
67, -187500.02, -187500.02, -187500.02, 187500.00, -187500.02, 187500.00, -187500.02, -187500.02, 0.000, 0.000, 0.000, 16:12:57.962, 1578579177962
68, -134502.94, -93179.79, -169716.30, -169364.73, -136339.72, -77039.64, -170132.20, 172538.05, 0.000, 0.000, 0.000, 16:12:57.962, 1578579177962
69, -187500.02, -187500.02, -187500.02, 187500.00, -187500.02, 187500.00, -187500.02, -187500.02, 0.000, 0.000, 0.000, 16:12:57.962, 1578579177962
70, -134795.14, -93476.27, -169701.91, -169239.72, -136670.91, -77289.85, -170153.30, 172570.22, 0.000, 0.000, 0.000, 16:12:57.962, 1578579177962
71, -187500.02, -187500.02, -187500.02, 187500.00, -187500.02, 187500.00, -187500.02, -187500.02, 0.000, 0.000, 0.000, 16:12:57.962, 1578579177962
72, -135067.75, -93750.19, -169708.19, -168910.31, -136978.38, -77516.61, -170075.09, 172623.23, 0.000, 0.000, 0.000, 16:12:57.962, 1578579177962
73, -187500.02, -187500.02, -187500.02, 187500.00, -187500.02, 187500.00, -187500.02, -187500.02, 0.000, 0.000, 0.000, 16:12:57.963, 1578579177963
74, -135310.19, -93996.95, -169693.97, -169286.97, -137256.38, -77716.03, -170129.88, 172707.00, 0.000, 0.000, 0.000, 16:12:57.963, 1578579177963
75, -187500.02, -187500.02, -187500.02, 187500.00, -187500.02, 187500.00, -187500.02, -187500.02, -0.012, -0.058, 0.974, 16:12:57.963, 1578579177963
76, -135564.38, -94254.02, -169683.53, -169977.70, -137546.27, -77926.59, -170068.83, 172776.30, 0.000, 0.000, 0.000, 16:12:57.963, 1578579177963
77, -187500.02, -187500.02, -187500.02, 187500.00, -187500.02, 187500.00, -187500.02, -187500.02, 0.000, 0.000, 0.000, 16:12:57.963, 1578579177963
78, -135848.38, -94543.61, -169671.61, -170185.13, -137865.08, -78165.12, -170124.27, 172818.72, 0.000, 0.000, 0.000, 16:12:57.964, 1578579177964
79, -187500.02, -187500.02, -187500.02, 187500.00, -187500.02, 187500.00, -187500.02, -187500.02, 0.000, 0.000, 0.000, 16:12:57.964, 1578579177964
80, -136143.63, -94841.96, -169669.89, -170077.66, -138192.69, -78414.43, -170033.25, 172848.27, 0.000, 0.000, 0.000, 16:12:57.964, 1578579177964
81, -187500.02, -187500.02, -187500.02, 187500.00, -187500.02, 187500.00, -187500.02, -187500.02, 0.000, 0.000, 0.000, 16:12:57.964, 1578579177964
82, -136427.88, -95128.62, -169660.44, -169961.55, -138509.94, -78650.63, -170130.50, 172895.88, 0.000, 0.000, 0.000, 16:12:57.964, 1578579177964
83, -187500.02, -187500.02, -187500.02, 187500.00, -187500.02, 187500.00, -187500.02, -187500.02, 0.000, 0.000, 0.000, 16:12:57.964, 1578579177964
84, -136728.45, -95433.23, -169654.16, -169861.31, -138843.67, -78905.86, -170032.33, 172916.22, 0.000, 0.000, 0.000, 16:12:57.964, 1578579177964
85, -187500.02, -187500.02, -187500.02, 187500.00, -187500.02, 187500.00, -187500.02, -187500.02, -0.018, -0.036, 0.936, 16:12:57.964, 1578579177964
86, -137013.53, -95719.29, -169649.11, -169748.53, -139163.56, -79145.22, -170090.52, 172960.41, 0.000, 0.000, 0.000, 16:12:57.964, 1578579177964
87, -187500.02, -187500.02, -187500.02, 187500.00, -187500.02, 187500.00, -187500.02, -187500.02, 0.000, 0.000, 0.000, 16:12:57.964, 1578579177964
88, -137309.84, -96014.04, -169640.33, -169644.44, -139493.61, -79395.02, -170062.84, 172985.42, 0.000, 0.000, 0.000, 16:12:57.964, 1578579177964
89, -187500.02, -187500.02, -187500.02, 187500.00, -187500.02, 187500.00, -187500.02, -187500.02, 0.000, 0.000, 0.000, 16:12:57.964, 1578579177964
90, -137596.80, -96302.02, -169635.94, -169536.91, -139817.38, -79637.56, -170021.78, 173025.92, 0.000, 0.000, 0.000, 16:12:57.965, 1578579177965
91, -187500.02, -187500.02, -187500.02, 187500.00, -187500.02, 187500.00, -187500.02, -187500.02, 0.000, 0.000, 0.000, 16:12:57.965, 1578579177965
92, -137883.39, -96591.97, -169627.30, -169427.41, -140139.59, -79879.34, -170087.94, 173064.45, 0.000, 0.000, 0.000, 16:12:57.965, 1578579177965
93, -187500.02, -187500.02, -187500.02, 187500.00, -187500.02, 187500.00, -187500.02, -187500.02, 0.000, 0.000, 0.000, 16:12:57.965, 1578579177965
94, -138184.58, -96893.02, -169621.73, -169325.56, -140473.56, -80130.60, -169984.16, 173083.92, -0.014, -0.028, 0.960, 16:12:57.965, 1578579177965
95, -187500.02, -187500.02, -187500.02, 187500.00, -187500.02, 187500.00, -187500.02, -187500.02, 0.000, 0.000, 0.000, 16:12:57.965, 1578579177965
96, -138468.56, -97176.91, -169612.30, -169212.52, -140790.23, -80364.51, -170079.16, 173131.16, 0.000, 0.000, 0.000, 16:12:57.965, 1578579177965
97, -187500.02, -187500.02, -187500.02, 187500.00, -187500.02, 187500.00, -187500.02, -187500.02, 0.000, 0.000, 0.000, 16:12:57.965, 1578579177965
98, -138760.56, -97470.91, -169602.75, -168942.77, -141117.20, -80610.45, -169994.52, 173160.03, 0.000, 0.000, 0.000, 16:12:57.965, 1578579177965
99, -187500.02, -187500.02, -187500.02, 187500.00, -187500.02, 187500.00, -187500.02, -187500.02, 0.000, 0.000, 0.000, 16:12:57.965, 1578579177965
100, -139010.59, -97720.68, -169604.52, -168959.22, -141401.20, -80813.18, -170011.28, 173240.05, 0.000, 0.000, 0.000, 16:12:57.965, 1578579177965
101, -187500.02, -187500.02, -187500.02, 187500.00, -187500.02, 187500.00, -187500.02, -187500.02, 0.000, 0.000, 0.000, 16:12:57.966, 1578579177966
102, -139259.97, -97972.37, -169591.67, -169494.53, -141686.86, -81017.05, -169976.16, 173310.92, 0.000, 0.000, 0.000, 16:12:57.966, 1578579177966
103, -187500.02, -187500.02, -187500.02, 187500.00, -187500.02, 187500.00, -187500.02, -187500.02, 0.000, 0.000, 0.000, 16:12:57.966, 1578579177966
104, -139520.08, -98234.69, -169578.98, -170108.75, -141984.33, -81235.36, -170029.58, 173378.98, -0.008, -0.022, 0.980, 16:12:57.966, 1578579177966
105, -187500.02, -187500.02, -187500.02, 187500.00, -187500.02, 187500.00, -187500.02, -187500.02, 0.000, 0.000, 0.000, 16:12:57.966, 1578579177966
106, -139813.98, -98528.72, -169570.44, -170039.19, -142311.36, -81484.27, -169993.97, 173407.80, 0.000, 0.000, 0.000, 16:12:57.966, 1578579177966
107, -187500.02, -187500.02, -187500.02, 187500.00, -187500.02, 187500.00, -187500.02, -187500.02, 0.000, 0.000, 0.000, 16:12:57.966, 1578579177966
108, -140105.22, -98821.13, -169565.64, -169931.08, -142637.31, -81731.92, -169937.05, 173439.77, 0.000, 0.000, 0.000, 16:12:57.966, 1578579177966
109, -187500.02, -187500.02, -187500.02, 187500.00, -187500.02, 187500.00, -187500.02, -187500.02, 0.000, 0.000, 0.000, 16:12:57.966, 1578579177966
110, -140394.05, -99110.00, -169558.34, -169820.88, -142958.72, -81974.33, -170021.33, 173480.59, 0.000, 0.000, 0.000, 16:12:57.966, 1578579177966
111, -187500.02, -187500.02, -187500.02, 187500.00, -187500.02, 187500.00, -187500.02, -187500.02, 0.000, 0.000, 0.000, 16:12:57.966, 1578579177966
112, -140688.83, -99405.18, -169557.59, -169719.56, -143287.66, -82222.34, -169916.59, 173505.03, 0.000, 0.000, 0.000, 16:12:57.966, 1578579177966
113, -187500.02, -187500.02, -187500.02, 187500.00, -187500.02, 187500.00, -187500.02, -187500.02, 0.000, 0.000, 0.000, 16:12:57.966, 1578579177966
114, -140972.53, -99687.37, -169548.28, -169607.95, -143603.47, -82457.66, -170012.39, 173551.33, -0.010, -0.014, 0.978, 16:12:57.966, 1578579177966
115, -187500.02, -187500.02, -187500.02, 187500.00, -187500.02, 187500.00, -187500.02, -187500.02, 0.000, 0.000, 0.000, 16:12:57.966, 1578579177966
116, -141271.41, -99986.62, -169540.92, -169509.52, -143937.36, -82711.42, -169946.66, 173572.69, 0.000, 0.000, 0.000, 16:12:57.966, 1578579177966
117, -187500.02, -187500.02, -187500.02, 187500.00, -187500.02, 187500.00, -187500.02, -187500.02, 0.000, 0.000, 0.000, 16:12:57.967, 1578579177967
118, -141560.09, -100275.31, -169535.88, -169402.84, -144261.03, -82955.73, -169929.69, 173610.53, 0.000, 0.000, 0.000, 16:12:57.967, 1578579177967
119, -187500.02, -187500.02, -187500.02, 187500.00, -187500.02, 187500.00, -187500.02, -187500.02, 0.000, 0.000, 0.000, 16:12:57.967, 1578579177967
120, -141846.11, -100565.32, -169528.66, -169296.44, -144581.92, -83197.86, -169987.67, 173645.28, 0.000, 0.000, 0.000, 16:12:57.967, 1578579177967
121, -187500.02, -187500.02, -187500.02, 187500.00, -187500.02, 187500.00, -187500.02, -187500.02, 0.000, 0.000, 0.000, 16:12:58.439, 1578579178439
122, -142140.80, -100860.73, -169520.45, -169194.97, -144910.13, -83444.16, -169885.92, 173668.02, 0.000, 0.000, 0.000, 16:12:58.439, 1578579178439
123, -187500.02, -187500.02, -187500.02, 187500.00, -187500.02, 187500.00, -187500.02, -187500.02, 0.000, 0.000, 0.000, 16:12:58.439, 1578579178439
124, -142422.98, -101144.91, -169508.30, -169083.45, -145228.89, -83678.89, -169990.48, 173713.45, -0.014, -0.018, 0.982, 16:12:58.439, 1578579178439
125, -187500.02, -187500.02, -187500.02, 187500.00, -187500.02, 187500.00, -187500.02, -187500.02, 0.000, 0.000, 0.000, 16:12:58.439, 1578579178439
126, -142711.13, -101433.98, -169510.19, -168758.13, -145552.83, -83922.64, -169900.34, 173745.63, 0.000, 0.000, 0.000, 16:12:58.439, 1578579178439
127, -187500.02, -187500.02, -187500.02, 187500.00, -187500.02, 187500.00, -187500.02, -187500.02, 0.000, 0.000, 0.000, 16:12:58.439, 1578579178439
128, -142955.22, -101677.03, -169506.95, -168969.27, -145829.48, -84121.44, -169921.52, 173833.11, 0.000, 0.000, 0.000, 16:12:58.439, 1578579178439
129, -187500.02, -187500.02, -187500.02, 187500.00, -187500.02, 187500.00, -187500.02, -187500.02, 0.000, 0.000, 0.000, 16:12:58.439, 1578579178439
130, -143209.95, -101930.10, -169495.94, -169565.98, -146116.23, -84330.38, -169891.09, 173904.36, 0.000, 0.000, 0.000, 16:12:58.439, 1578579178439
131, -187500.02, -187500.02, -187500.02, 187500.00, -187500.02, 187500.00, -187500.02, -187500.02, 0.000, 0.000, 0.000, 16:12:58.439, 1578579178439
132, -143484.56, -102205.31, -169482.72, -170031.84, -146423.75, -84557.80, -169902.75, 173957.11, 0.000, 0.000, 0.000, 16:12:58.439, 1578579178439
133, -187500.02, -187500.02, -187500.02, 187500.00, -187500.02, 187500.00, -187500.02, -187500.02, -0.020, -0.010, 0.978, 16:12:58.439, 1578579178439
134, -143781.69, -102500.56, -169474.45, -169934.94, -146752.30, -84804.52, -169917.91, 173984.94, 0.000, 0.000, 0.000, 16:12:58.439, 1578579178439
135, -187500.02, -187500.02, -187500.02, 187500.00, -187500.02, 187500.00, -187500.02, -187500.02, 0.000, 0.000, 0.000, 16:12:58.439, 1578579178439
136, -144076.23, -102796.27, -169469.80, -169834.34, -147081.94, -85050.46, -169825.16, 174012.64, 0.000, 0.000, 0.000, 16:12:58.440, 1578579178440
137, -187500.02, -187500.02, -187500.02, 187500.00, -187500.02, 187500.00, -187500.02, -187500.02, 0.000, 0.000, 0.000, 16:12:58.440, 1578579178440
138, -144358.58, -103080.03, -169463.66, -169722.67, -147399.20, -85286.70, -169935.28, 174059.20, 0.000, 0.000, 0.000, 16:12:58.440, 1578579178440
139, -187500.02, -187500.02, -187500.02, 187500.00, -187500.02, 187500.00, -187500.02, -187500.02, 0.000, 0.000, 0.000, 16:12:58.440, 1578579178440
140, -144658.73, -103380.48, -169458.00, -169626.67, -147733.47, -85543.25, -169849.73, 174077.69, 0.000, 0.000, 0.000, 16:12:58.440, 1578579178440
141, -187500.02, -187500.02, -187500.02, 187500.00, -187500.02, 187500.00, -187500.02, -187500.02, 0.000, 0.000, 0.000, 16:12:58.440, 1578579178440
142, -144944.28, -103668.30, -169451.16, -169518.63, -148053.92, -85782.69, -169893.48, 174121.98, 0.000, 0.000, 0.000, 16:12:58.440, 1578579178440
143, -187500.02, -187500.02, -187500.02, 187500.00, -187500.02, 187500.00, -187500.02, -187500.02, -0.020, -0.014, 0.974, 16:12:58.440, 1578579178440
144, -145237.73, -103966.25, -169443.92, -169417.98, -148382.86, -86031.48, -169881.33, 174150.02, 0.000, 0.000, 0.000, 16:12:58.440, 1578579178440
145, -187500.02, -187500.02, -187500.02, 187500.00, -187500.02, 187500.00, -187500.02, -187500.02, 0.000, 0.000, 0.000, 16:12:58.440, 1578579178440
146, -145528.42, -104260.71, -169440.81, -169313.94, -148707.98, -86277.41, -169818.02, 174181.13, 0.000, 0.000, 0.000, 16:12:58.440, 1578579178440
147, -187500.02, -187500.02, -187500.02, 187500.00, -187500.02, 187500.00, -187500.02, -187500.02, 0.000, 0.000, 0.000, 16:12:58.440, 1578579178440
148, -145816.98, -104550.82, -169431.58, -169209.61, -149031.64, -86518.52, -169903.97, 174219.23, 0.000, 0.000, 0.000, 16:12:58.441, 1578579178441
149, -187500.02, -187500.02, -187500.02, 187500.00, -187500.02, 187500.00, -187500.02, -187500.02, 0.000, 0.000, 0.000, 16:12:58.441, 1578579178441
150, -146118.05, -104851.54, -169425.02, -169115.03, -149369.23, -86771.77, -169800.31, 174235.98, 0.000, 0.000, 0.000, 16:12:58.441, 1578579178441
151, -187500.02, -187500.02, -187500.02, 187500.00, -187500.02, 187500.00, -187500.02, -187500.02, 0.000, 0.000, 0.000, 16:12:58.441, 1578579178441
152, -146401.44, -105134.51, -169415.31, -169005.72, -149685.81, -87009.10, -169867.58, 174283.39, 0.000, 0.000, 0.000, 16:12:58.441, 1578579178441
153, -187500.02, -187500.02, -187500.02, 187500.00, -187500.02, 187500.00, -187500.02, -187500.02, -0.018, -0.016, 0.976, 16:12:58.441, 1578579178441
154, -146692.70, -105426.38, -169408.14, -168711.39, -150008.83, -87253.67, -169822.33, 174317.16, 0.000, 0.000, 0.000, 16:12:58.441, 1578579178441
155, -187500.02, -187500.02, -187500.02, 187500.00, -187500.02, 187500.00, -187500.02, -187500.02, 0.000, 0.000, 0.000, 16:12:58.441, 1578579178441
156, -146941.08, -105677.03, -169412.14, -168811.33, -150292.78, -87461.75, -169804.28, 174396.66, 0.000, 0.000, 0.000, 16:12:58.441, 1578579178441
157, -187500.02, -187500.02, -187500.02, 187500.00, -187500.02, 187500.00, -187500.02, -187500.02, 0.000, 0.000, 0.000, 16:12:58.441, 1578579178441
158, -147188.38, -105927.77, -169398.09, -169373.89, -150578.52, -87668.26, -169803.72, 174469.59, 0.000, 0.000, 0.000, 16:12:58.441, 1578579178441
159, -187500.02, -187500.02, -187500.02, 187500.00, -187500.02, 187500.00, -187500.02, -187500.02, 0.000, 0.000, 0.000, 16:12:58.441, 1578579178441
160, -147456.44, -106196.42, -169384.44, -169931.52, -150881.67, -87892.09, -169809.44, 174529.52, 0.000, 0.000, 0.000, 16:12:58.441, 1578579178441
161, -187500.02, -187500.02, -187500.02, 187500.00, -187500.02, 187500.00, -187500.02, -187500.02, 0.000, 0.000, 0.000, 16:12:58.441, 1578579178441
162, -147748.02, -106490.45, -169376.03, -169844.03, -151206.86, -88134.76, -169825.55, 174562.53, 0.000, 0.000, 0.000, 16:12:58.441, 1578579178441
163, -187500.02, -187500.02, -187500.02, 187500.00, -187500.02, 187500.00, -187500.02, -187500.02, -0.016, -0.012, 0.978, 16:12:58.441, 1578579178441
164, -148046.58, -106791.02, -169373.00, -169743.61, -151536.22, -88382.35, -169734.81, 174588.00, 0.000, 0.000, 0.000, 16:12:58.441, 1578579178441
165, -187500.02, -187500.02, -187500.02, 187500.00, -187500.02, 187500.00, -187500.02, -187500.02, 0.000, 0.000, 0.000, 16:12:58.441, 1578579178441
166, -148329.44, -107074.27, -169363.30, -169633.78, -151849.88, -88615.63, -169847.22, 174635.27, 0.000, 0.000, 0.000, 16:12:58.442, 1578579178442
167, -187500.02, -187500.02, -187500.02, 187500.00, -187500.02, 187500.00, -187500.02, -187500.02, 0.000, 0.000, 0.000, 16:12:58.442, 1578579178442
168, -148624.75, -107371.02, -169356.91, -169535.67, -152179.67, -88863.00, -169760.05, 174658.25, 0.000, 0.000, 0.000, 16:12:58.442, 1578579178442
169, -187500.02, -187500.02, -187500.02, 187500.00, -187500.02, 187500.00, -187500.02, -187500.02, 0.000, 0.000, 0.000, 16:12:58.442, 1578579178442
170, -148911.77, -107654.07, -169356.50, -169427.30, -152495.17, -89099.66, -169760.27, 174702.02, 0.000, 0.000, 0.000, 16:12:58.442, 1578579178442
171, -187500.02, -187500.02, -187500.02, 187500.00, -187500.02, 187500.00, -187500.02, -187500.02, 0.000, 0.000, 0.000, 16:12:58.442, 1578579178442
172, -149206.25, -107944.66, -169344.48, -169324.41, -152819.36, -89342.13, -169793.91, 174735.09, 0.000, 0.000, 0.000, 16:12:58.442, 1578579178442
173, -187500.02, -187500.02, -187500.02, 187500.00, -187500.02, 187500.00, -187500.02, -187500.02, -0.014, -0.012, 0.980, 16:12:58.442, 1578579178442
174, -149503.14, -108240.76, -169341.97, -169226.19, -153149.23, -89590.46, -169697.77, 174761.22, 0.000, 0.000, 0.000, 16:12:58.442, 1578579178442
175, -187500.02, -187500.02, -187500.02, 187500.00, -187500.02, 187500.00, -187500.02, -187500.02, 0.000, 0.000, 0.000, 16:12:58.442, 1578579178442
176, -149782.14, -108522.12, -169334.80, -169113.97, -153461.06, -89822.49, -169806.02, 174813.41, 0.000, 0.000, 0.000, 16:12:58.442, 1578579178442
177, -187500.02, -187500.02, -187500.02, 187500.00, -187500.02, 187500.00, -187500.02, -187500.02, 0.000, 0.000, 0.000, 16:12:58.442, 1578579178442
178, -150075.63, -108817.05, -169327.80, -169015.22, -153788.80, -90069.08, -169725.86, 174836.23, 0.000, 0.000, 0.000, 16:12:58.442, 1578579178442
179, -187500.02, -187500.02, -187500.02, 187500.00, -187500.02, 187500.00, -187500.02, -187500.02, 0.000, 0.000, 0.000, 16:12:58.442, 1578579178442
180, -150361.13, -109101.25, -169320.14, -168907.66, -154106.75, -90303.41, -169741.78, 174877.58, 0.000, 0.000, 0.000, 16:12:58.442, 1578579178442
181, -187500.02, -187500.02, -187500.02, 187500.00, -187500.02, 187500.00, -187500.02, -187500.02, 0.000, 0.000, 0.000, 16:12:58.442, 1578579178442
182, -150642.39, -109385.97, -169315.48, -168604.98, -154423.89, -90540.14, -169762.05, 174918.28, -0.014, -0.012, 0.968, 16:12:58.442, 1578579178442
183, -187500.02, -187500.02, -187500.02, 187500.00, -187500.02, 187500.00, -187500.02, -187500.02, 0.000, 0.000, 0.000, 16:12:58.442, 1578579178442
184, -150891.81, -109638.48, -169317.52, -168719.91, -154711.22, -90742.67, -169678.64, 174993.41, 0.000, 0.000, 0.000, 16:12:58.442, 1578579178442
185, -187500.02, -187500.02, -187500.02, 187500.00, -187500.02, 187500.00, -187500.02, -187500.02, 0.000, 0.000, 0.000, 16:12:58.442, 1578579178442
186, -151134.09, -109879.56, -169302.98, -169264.84, -154989.16, -90939.63, -169737.70, 175080.14, 0.000, 0.000, 0.000, 16:12:58.443, 1578579178443
187, -187500.02, -187500.02, -187500.02, 187500.00, -187500.02, 187500.00, -187500.02, -187500.02, 0.000, 0.000, 0.000, 16:12:58.443, 1578579178443
188, -151406.38, -110153.35, -169291.38, -169834.61, -155298.47, -91168.29, -169662.19, 175132.33, 0.000, 0.000, 0.000, 16:12:58.443, 1578579178443
189, -187500.02, -187500.02, -187500.02, 187500.00, -187500.02, 187500.00, -187500.02, -187500.02, 0.000, 0.000, 0.000, 16:12:58.443, 1578579178443
190, -151693.02, -110436.44, -169282.20, -169744.80, -155615.25, -91406.38, -169752.84, 175178.30, 0.000, 0.000, 0.000, 16:12:58.443, 1578579178443
191, -187500.02, -187500.02, -187500.02, 187500.00, -187500.02, 187500.00, -187500.02, -187500.02, 0.000, 0.000, 0.000, 16:12:58.443, 1578579178443
192, -151987.88, -110731.92, -169275.09, -169642.47, -155943.52, -91653.37, -169644.17, 175204.19, -0.014, -0.014, 0.970, 16:12:58.445, 1578579178445
193, -187500.02, -187500.02, -187500.02, 187500.00, -187500.02, 187500.00, -187500.02, -187500.02, 0.000, 0.000, 0.000, 16:12:58.445, 1578579178445
194, -152265.69, -111007.23, -169268.06, -169528.13, -156258.11, -91882.34, -169714.91, 175257.42, 0.000, 0.000, 0.000, 16:12:58.445, 1578579178445
195, -187500.02, -187500.02, -187500.02, 187500.00, -187500.02, 187500.00, -187500.02, -187500.02, 0.000, 0.000, 0.000, 16:12:58.445, 1578579178445
196, -152558.34, -111300.06, -169260.08, -169426.19, -156585.78, -92126.84, -169684.16, 175288.56, 0.000, 0.000, 0.000, 16:12:58.445, 1578579178445
197, -187500.02, -187500.02, -187500.02, 187500.00, -187500.02, 187500.00, -187500.02, -187500.02, 0.000, 0.000, 0.000, 16:12:58.445, 1578579178445
198, -152846.14, -111587.99, -169254.94, -169320.05, -156906.63, -92365.81, -169620.34, 175323.56, 0.000, 0.000, 0.000, 16:12:58.445, 1578579178445
199, -187500.02, -187500.02, -187500.02, 187500.00, -187500.02, 187500.00, -187500.02, -187500.02, 0.000, 0.000, 0.000, 16:12:58.445, 1578579178445
200, -153124.70, -111867.68, -169243.48, -169208.05, -157220.73, -92595.32, -169714.36, 175368.97, 0.000, 0.000, 0.000, 16:12:58.445, 1578579178445
201, -187500.02, -187500.02, -187500.02, 187500.00, -187500.02, 187500.00, -187500.02, -187500.02, 0.000, 0.000, 0.000, 16:12:58.445, 1578579178445
202, -153415.13, -112159.02, -169239.33, -169105.14, -157545.69, -92837.54, -169608.88, 175396.59, -0.016, -0.012, 0.952, 16:12:58.445, 1578579178445
203, -187500.02, -187500.02, -187500.02, 187500.00, -187500.02, 187500.00, -187500.02, -187500.02, 0.000, 0.000, 0.000, 16:12:58.445, 1578579178445
204, -153697.56, -112440.52, -169231.16, -168992.61, -157859.25, -93069.35, -169693.23, 175448.58, 0.000, 0.000, 0.000, 16:12:58.445, 1578579178445
205, -187500.02, -187500.02, -187500.02, 187500.00, -187500.02, 187500.00, -187500.02, -187500.02, 0.000, 0.000, 0.000, 16:12:58.445, 1578579178445
206, -153992.67, -112734.28, -169226.64, -168890.41, -158188.34, -93313.05, -169626.80, 175478.06, 0.000, 0.000, 0.000, 16:12:58.445, 1578579178445
207, -187500.02, -187500.02, -187500.02, 187500.00, -187500.02, 187500.00, -187500.02, -187500.02, 0.000, 0.000, 0.000, 16:12:58.445, 1578579178445
208, -154274.53, -113014.26, -169213.30, -168762.95, -158504.53, -93543.97, -169629.22, 175526.48, 0.000, 0.000, 0.000, 16:12:58.445, 1578579178445
209, -187500.02, -187500.02, -187500.02, 187500.00, -187500.02, 187500.00, -187500.02, -187500.02, 0.000, 0.000, 0.000, 16:12:58.446, 1578579178446
210, -154545.86, -113283.06, -169216.30, -168427.78, -158807.44, -93762.88, -169638.09, 175581.80, 0.000, 0.000, 0.000, 16:12:58.446, 1578579178446
211, -187500.02, -187500.02, -187500.02, 187500.00, -187500.02, 187500.00, -187500.02, -187500.02, 0.000, 0.000, 0.000, 16:12:58.446, 1578579178446
212, -154786.52, -113520.66, -169209.03, -168780.92, -159082.41, -93954.82, -169594.50, 175667.31, -0.004, -0.026, 0.972, 16:12:58.446, 1578579178446
213, -187500.02, -187500.02, -187500.02, 187500.00, -187500.02, 187500.00, -187500.02, -187500.02, 0.000, 0.000, 0.000, 16:12:58.446, 1578579178446
214, -155037.23, -113766.69, -169191.25, -169446.98, -159367.16, -94155.40, -169619.52, 175741.80, 0.000, 0.000, 0.000, 16:12:58.446, 1578579178446
215, -187500.02, -187500.02, -187500.02, 187500.00, -187500.02, 187500.00, -187500.02, -187500.02, 0.000, 0.000, 0.000, 16:12:58.446, 1578579178446
216, -155317.27, -114045.81, -169184.03, -169706.73, -159682.59, -94382.38, -169559.23, 175789.02, 0.000, 0.000, 0.000, 16:12:58.446, 1578579178446
217, -187500.02, -187500.02, -187500.02, 187500.00, -187500.02, 187500.00, -187500.02, -187500.02, 0.000, 0.000, 0.000, 16:12:58.446, 1578579178446
218, -155598.88, -114326.76, -169175.50, -169592.00, -159998.98, -94612.72, -169650.16, 175839.56, 0.000, 0.000, 0.000, 16:12:58.446, 1578579178446
219, -187500.02, -187500.02, -187500.02, 187500.00, -187500.02, 187500.00, -187500.02, -187500.02, 0.000, 0.000, 0.000, 16:12:58.446, 1578579178446
220, -155894.83, -114623.32, -169167.89, -169491.70, -160330.83, -94857.27, -169542.56, 175865.80, 0.000, 0.000, 0.000, 16:12:58.446, 1578579178446
221, -187500.02, -187500.02, -187500.02, 187500.00, -187500.02, 187500.00, -187500.02, -187500.02, 0.000, -0.018, 0.978, 16:12:58.447, 1578579178447
222, -156174.66, -114899.59, -169162.16, -169377.53, -160645.52, -95085.55, -169602.86, 175920.61, 0.000, 0.000, 0.000, 16:12:58.447, 1578579178447
223, -187500.02, -187500.02, -187500.02, 187500.00, -187500.02, 187500.00, -187500.02, -187500.02, 0.000, 0.000, 0.000, 16:12:58.447, 1578579178447
224, -156466.31, -115187.38, -169153.33, -169272.30, -160973.70, -95325.59, -169579.61, 175954.84, 0.000, 0.000, 0.000, 16:12:58.447, 1578579178447
225, -187500.02, -187500.02, -187500.02, 187500.00, -187500.02, 187500.00, -187500.02, -187500.02, 0.000, 0.000, 0.000, 16:12:58.447, 1578579178447
226, -156752.52, -115469.33, -169151.02, -169162.88, -161294.41, -95560.95, -169541.06, 175999.48, 0.000, 0.000, 0.000, 16:12:58.447, 1578579178447
227, -187500.02, -187500.02, -187500.02, 187500.00, -187500.02, 187500.00, -187500.02, -187500.02, 0.000, 0.000, 0.000, 16:12:58.447, 1578579178447
228, -157040.16, -115751.95, -169142.95, -169054.47, -161616.25, -95797.45, -169604.61, 176041.13, 0.000, 0.000, 0.000, 16:12:58.447, 1578579178447
229, -187500.02, -187500.02, -187500.02, 187500.00, -187500.02, 187500.00, -187500.02, -187500.02, 0.000, 0.000, 0.000, 16:12:58.447, 1578579178447
230, -157336.05, -116045.13, -169135.88, -168953.70, -161950.56, -96042.73, -169498.06, 176066.67, 0.000, 0.000, 0.000, 16:12:58.447, 1578579178447
231, -187500.02, -187500.02, -187500.02, 187500.00, -187500.02, 187500.00, -187500.02, -187500.02, -0.032, -0.016, 0.972, 16:12:58.447, 1578579178447
232, -157612.56, -116321.58, -169132.45, -168835.86, -162265.28, -96265.77, -169597.09, 176125.03, 0.000, 0.000, 0.000, 16:12:58.447, 1578579178447
233, -187500.02, -187500.02, -187500.02, 187500.00, -187500.02, 187500.00, -187500.02, -187500.02, 0.000, 0.000, 0.000, 16:12:58.447, 1578579178447
234, -157904.25, -116611.91, -169118.92, -168732.23, -162595.03, -96507.74, -169533.03, 176153.69, 0.000, 0.000, 0.000, 16:12:58.447, 1578579178447
235, -187500.02, -187500.02, -187500.02, 187500.00, -187500.02, 187500.00, -187500.02, -187500.02, 0.000, 0.000, 0.000, 16:12:58.448, 1578579178448
236, -158189.64, -116892.71, -169113.61, -168475.44, -162915.22, -96740.85, -169503.94, 176198.91, 0.000, 0.000, 0.000, 16:12:58.448, 1578579178448
237, -187500.02, -187500.02, -187500.02, 187500.00, -187500.02, 187500.00, -187500.02, -187500.02, 0.000, 0.000, 0.000, 16:12:58.448, 1578579178448
238, -158445.39, -117143.74, -169111.66, -168435.78, -163208.34, -96946.69, -169516.97, 176273.05, 0.000, 0.000, 0.000, 16:12:58.448, 1578579178448
239, -187500.02, -187500.02, -187500.02, 187500.00, -187500.02, 187500.00, -187500.02, -187500.02, 0.000, 0.000, 0.000, 16:12:58.448, 1578579178448
240, -158685.53, -117381.50, -169100.34, -168923.39, -163487.50, -97135.13, -169507.69, 176365.09, 0.000, 0.000, 0.000, 16:12:58.448, 1578579178448
241, -187500.02, -187500.02, -187500.02, 187500.00, -187500.02, 187500.00, -187500.02, -187500.02, -0.046, -0.016, 0.960, 16:12:58.920, 1578579178920
242, -158952.80, -117645.79, -169085.27, -169606.06, -163793.44, -97349.78, -169506.23, 176427.94, 0.000, 0.000, 0.000, 16:12:58.920, 1578579178920
243, -187500.02, -187500.02, -187500.02, 187500.00, -187500.02, 187500.00, -187500.02, -187500.02, 0.000, 0.000, 0.000, 16:12:58.920, 1578579178920
244, -159244.70, -117932.31, -169078.95, -169582.67, -164122.13, -97586.93, -169455.52, 176465.41, 0.000, 0.000, 0.000, 16:12:58.920, 1578579178920
245, -187500.02, -187500.02, -187500.02, 187500.00, -187500.02, 187500.00, -187500.02, -187500.02, 0.000, 0.000, 0.000, 16:12:58.920, 1578579178920
246, -159533.47, -118216.56, -169071.70, -169470.09, -164446.27, -97822.43, -169538.94, 176511.16, 0.000, 0.000, 0.000, 16:12:58.920, 1578579178920
247, -187500.02, -187500.02, -187500.02, 187500.00, -187500.02, 187500.00, -187500.02, -187500.02, 0.000, 0.000, 0.000, 16:12:58.921, 1578579178921
248, -159829.98, -118510.42, -169067.98, -169366.50, -164782.73, -98066.20, -169427.64, 176541.20, 0.000, 0.000, 0.000, 16:12:58.921, 1578579178921
249, -187500.02, -187500.02, -187500.02, 187500.00, -187500.02, 187500.00, -187500.02, -187500.02, 0.000, 0.000, 0.000, 16:12:58.921, 1578579178921
250, -160111.13, -118786.40, -169062.42, -169250.16, -165099.55, -98291.08, -169518.47, 176595.72, 0.000, 0.000, 0.000, 16:12:58.921, 1578579178921
251, -187500.02, -187500.02, -187500.02, 187500.00, -187500.02, 187500.00, -187500.02, -187500.02, -0.038, -0.016, 0.966, 16:12:58.921, 1578579178921
252, -160412.03, -119080.45, -169052.20, -169148.23, -165437.86, -98535.09, -169481.27, 176622.34, 0.000, 0.000, 0.000, 16:12:58.922, 1578579178922
253, -187500.02, -187500.02, -187500.02, 187500.00, -187500.02, 187500.00, -187500.02, -187500.02, 0.000, 0.000, 0.000, 16:12:58.922, 1578579178922
254, -160707.03, -119368.70, -169048.52, -169044.27, -165771.55, -98775.75, -169417.33, 176655.27, 0.000, 0.000, 0.000, 16:12:58.922, 1578579178922
255, -187500.02, -187500.02, -187500.02, 187500.00, -187500.02, 187500.00, -187500.02, -187500.02, 0.000, 0.000, 0.000, 16:12:58.922, 1578579178922
0, -160992.08, -119650.52, -169037.92, -168932.02, -166095.36, -99006.18, -169505.70, 176703.67, 0.000, 0.000, 0.000, 16:12:58.922, 1578579178922
1, -187500.02, -187500.02, -187500.02, 187500.00, -187500.02, 187500.00, -187500.02, -187500.02, 0.000, 0.000, 0.000, 16:12:58.923, 1578579178923
2, -161291.86, -119945.67, -169029.31, -168829.58, -166433.83, -99247.76, -169400.02, 176734.25, 0.000, 0.000, 0.000, 16:12:58.923, 1578579178923
3, -187500.02, -187500.02, -187500.02, 187500.00, -187500.02, 187500.00, -187500.02, -187500.02, 0.000, 0.000, 0.000, 16:12:58.923, 1578579178923
4, -161580.00, -120227.33, -169025.66, -168717.27, -166760.14, -99479.01, -169481.42, 176785.28, -0.020, -0.018, 0.976, 16:12:58.923, 1578579178923
5, -187500.02, -187500.02, -187500.02, 187500.00, -187500.02, 187500.00, -187500.02, -187500.02, 0.000, 0.000, 0.000, 16:12:58.923, 1578579178923
6, -161884.97, -120523.77, -169013.22, -168617.94, -167104.25, -99726.06, -169425.08, 176810.52, 0.000, 0.000, 0.000, 16:12:58.923, 1578579178923
7, -187500.02, -187500.02, -187500.02, 187500.00, -187500.02, 187500.00, -187500.02, -187500.02, 0.000, 0.000, 0.000, 16:12:58.923, 1578579178923
8, -162172.36, -120804.29, -169014.56, -168316.81, -167432.55, -99956.80, -169397.81, 176859.98, 0.000, 0.000, 0.000, 16:12:58.923, 1578579178923
9, -187500.02, -187500.02, -187500.02, 187500.00, -187500.02, 187500.00, -187500.02, -187500.02, 0.000, 0.000, 0.000, 16:12:58.923, 1578579178923
10, -162432.48, -121055.52, -169010.41, -168403.80, -167731.34, -100156.38, -169430.20, 176939.08, 0.000, 0.000, 0.000, 16:12:58.923, 1578579178923
11, -187500.02, -187500.02, -187500.02, 187500.00, -187500.02, 187500.00, -187500.02, -187500.02, 0.000, 0.000, 0.000, 16:12:58.923, 1578579178923
12, -162688.34, -121298.53, -169001.56, -168936.83, -168026.06, -100352.89, -169389.73, 177021.42, 0.000, 0.000, 0.000, 16:12:58.923, 1578579178923
13, -187500.02, -187500.02, -187500.02, 187500.00, -187500.02, 187500.00, -187500.02, -187500.02, 0.000, 0.000, 0.000, 16:12:58.923, 1578579178923
14, -162968.64, -121570.55, -168988.02, -169538.77, -168350.77, -100575.11, -169426.73, 177077.23, -0.020, -0.010, 0.980, 16:12:58.923, 1578579178923
15, -187500.02, -187500.02, -187500.02, 187500.00, -187500.02, 187500.00, -187500.02, -187500.02, 0.000, 0.000, 0.000, 16:12:58.923, 1578579178923
16, -163270.70, -121862.09, -168980.14, -169463.55, -168695.31, -100814.92, -169339.22, 177110.52, 0.000, 0.000, 0.000, 16:12:58.923, 1578579178923
17, -187500.02, -187500.02, -187500.02, 187500.00, -187500.02, 187500.00, -187500.02, -187500.02, 0.000, 0.000, 0.000, 16:12:58.923, 1578579178923
18, -163567.80, -122143.92, -168972.03, -169353.42, -168956.08, -101051.49, -169455.25, 177160.38, 0.000, 0.000, 0.000, 16:12:58.923, 1578579178923
19, -187500.02, -187500.02, -187500.02, 187500.00, -187500.02, 187500.00, -187500.02, -187500.02, 0.000, 0.000, 0.000, 16:12:58.923, 1578579178923
20, -163896.98, -122457.89, -168964.66, -169269.28, -169080.59, -101337.77, -169381.17, 177168.64, 0.000, 0.000, 0.000, 16:12:58.924, 1578579178924
21, -187500.02, -187500.02, -187500.02, 187500.00, -187500.02, 187500.00, -187500.02, -187500.02, 0.000, 0.000, 0.000, 16:12:58.924, 1578579178924
22, -164226.86, -122775.52, -168963.61, -169186.88, -169107.66, -101636.13, -169348.91, 177180.97, 0.000, 0.000, 0.000, 16:12:58.924, 1578579178924
23, -187500.02, -187500.02, -187500.02, 187500.00, -187500.02, 187500.00, -187500.02, -187500.02, 0.000, 0.000, 0.000, 16:12:58.924, 1578579178924
24, -164556.83, -123096.64, -168956.55, -169104.89, -169095.34, -101944.45, -169445.91, 177195.64, -0.026, -0.010, 0.982, 16:12:58.924, 1578579178924
25, -187500.02, -187500.02, -187500.02, 187500.00, -187500.02, 187500.00, -187500.02, -187500.02, 0.000, 0.000, 0.000, 16:12:58.924, 1578579178924
26, -164902.14, -123425.86, -168948.52, -169034.69, -169085.69, -102268.48, -169366.03, 177189.69, 0.000, 0.000, 0.000, 16:12:58.924, 1578579178924
27, -187500.02, -187500.02, -187500.02, 187500.00, -187500.02, 187500.00, -187500.02, -187500.02, 0.000, 0.000, 0.000, 16:12:58.924, 1578579178924
28, -165244.23, -123751.75, -168946.02, -168960.92, -169083.72, -102584.52, -169313.39, 177191.64, 0.000, 0.000, 0.000, 16:12:58.924, 1578579178924
29, -187500.02, -187500.02, -187500.02, 187500.00, -187500.02, 187500.00, -187500.02, -187500.02, 0.000, 0.000, 0.000, 16:12:58.924, 1578579178924
30, -165578.72, -124067.02, -168940.80, -168879.09, -169078.47, -102887.76, -169437.55, 177207.75, 0.000, 0.000, 0.000, 16:12:58.924, 1578579178924
31, -187500.02, -187500.02, -187500.02, 187500.00, -187500.02, 187500.00, -187500.02, -187500.02, 0.000, 0.000, 0.000, 16:12:58.924, 1578579178924
32, -165927.19, -124393.40, -168937.78, -168808.08, -169073.33, -103205.98, -169367.31, 177202.67, 0.000, 0.000, 0.000, 16:12:58.924, 1578579178924
33, -187500.02, -187500.02, -187500.02, 187500.00, -187500.02, 187500.00, -187500.02, -187500.02, 0.000, 0.000, 0.000, 16:12:58.924, 1578579178924
34, -166271.94, -124717.63, -168934.50, -168735.91, -169074.41, -103522.19, -169295.66, 177199.55, -0.018, -0.010, 0.978, 16:12:58.924, 1578579178924
35, -187500.02, -187500.02, -187500.02, 187500.00, -187500.02, 187500.00, -187500.02, -187500.02, 0.000, 0.000, 0.000, 16:12:58.924, 1578579178924
36, -166606.97, -125031.01, -168933.45, -168650.92, -169070.27, -103822.73, -169421.05, 177221.36, 0.000, 0.000, 0.000, 16:12:58.924, 1578579178924
37, -187500.02, -187500.02, -187500.02, 187500.00, -187500.02, 187500.00, -187500.02, -187500.02, 0.000, 0.000, 0.000, 16:12:58.924, 1578579178924
38, -166961.31, -125358.52, -168926.75, -168579.94, -169062.64, -104142.52, -169367.52, 177215.86, 0.000, 0.000, 0.000, 16:12:58.924, 1578579178924
39, -187500.02, -187500.02, -187500.02, 187500.00, -187500.02, 187500.00, -187500.02, -187500.02, 0.000, 0.000, 0.000, 16:12:58.924, 1578579178924
40, -167308.19, -125680.84, -168921.09, -168505.70, -169062.27, -104458.48, -169292.06, 177215.31, 0.000, 0.000, 0.000, 16:12:58.925, 1578579178925
41, -187500.02, -187500.02, -187500.02, 187500.00, -187500.02, 187500.00, -187500.02, -187500.02, 0.000, 0.000, 0.000, 16:12:58.925, 1578579178925
42, -167637.41, -125984.53, -168917.05, -168236.72, -169061.89, -104753.15, -169397.66, 177242.53, 0.000, 0.000, 0.000, 16:12:58.925, 1578579178925
43, -187500.02, -187500.02, -187500.02, 187500.00, -187500.02, 187500.00, -187500.02, -187500.02, -0.010, -0.012, 0.972, 16:12:58.925, 1578579178925
44, -167952.97, -126272.66, -168918.56, -168337.70, -169060.08, -105028.95, -169304.17, 177276.39, 0.000, 0.000, 0.000, 16:12:58.925, 1578579178925
45, -187500.02, -187500.02, -187500.02, 187500.00, -187500.02, 187500.00, -187500.02, -187500.02, 0.000, 0.000, 0.000, 16:12:58.925, 1578579178925
46, -168235.86, -126541.16, -168913.13, -168931.06, -169056.56, -105281.32, -169331.78, 177342.58, 0.000, 0.000, 0.000, 16:12:58.925, 1578579178925
47, -187500.02, -187500.02, -187500.02, 187500.00, -187500.02, 187500.00, -187500.02, -187500.02, 0.000, 0.000, 0.000, 16:12:58.925, 1578579178925
48, -168252.33, -126862.17, -168898.17, -169480.84, -169032.45, -105580.12, -169352.59, 177356.86, 0.000, 0.000, 0.000, 16:12:58.925, 1578579178925
49, -187500.02, -187500.02, -187500.02, 187500.00, -187500.02, 187500.00, -187500.02, -187500.02, 0.000, 0.000, 0.000, 16:12:58.925, 1578579178925
50, -168364.83, -127228.83, -168895.47, -169425.70, -169029.47, -105908.95, -169274.98, 177340.28, 0.000, 0.000, 0.000, 16:12:58.925, 1578579178925
51, -187500.02, -187500.02, -187500.02, 187500.00, -187500.02, 187500.00, -187500.02, -187500.02, 0.000, 0.000, 0.000, 16:12:58.925, 1578579178925
52, -168504.00, -127583.06, -168892.03, -169348.48, -169027.70, -106221.86, -169345.08, 177348.41, 0.000, 0.000, 0.000, 16:12:58.925, 1578579178925
53, -187500.02, -187500.02, -187500.02, 187500.00, -187500.02, 187500.00, -187500.02, -187500.02, -0.020, -0.010, 0.962, 16:12:58.925, 1578579178925
54, -168653.41, -127944.98, -168886.31, -169279.48, -169019.95, -106549.40, -169356.92, 177338.69, 0.000, 0.000, 0.000, 16:12:58.925, 1578579178925
55, -187500.02, -187500.02, -187500.02, 187500.00, -187500.02, 187500.00, -187500.02, -187500.02, 0.000, 0.000, 0.000, 16:12:58.925, 1578579178925
56, -168804.39, -128310.61, -168885.94, -169213.63, -169017.89, -106878.55, -169278.94, 177323.17, 0.000, 0.000, 0.000, 16:12:58.925, 1578579178925
57, -187500.02, -187500.02, -187500.02, 187500.00, -187500.02, 187500.00, -187500.02, -187500.02, 0.000, 0.000, 0.000, 16:12:58.925, 1578579178925
58, -168944.48, -128664.52, -168884.23, -169138.17, -169020.13, -107192.62, -169294.41, 177328.03, 0.000, 0.000, 0.000, 16:12:58.925, 1578579178925
59, -187500.02, -187500.02, -187500.02, 187500.00, -187500.02, 187500.00, -187500.02, -187500.02, 0.000, 0.000, 0.000, 16:12:58.926, 1578579178926
60, -169028.17, -129022.80, -168878.69, -169065.91, -169008.94, -107512.34, -169356.38, 177327.14, 0.000, 0.000, 0.000, 16:12:58.926, 1578579178926
61, -187500.02, -187500.02, -187500.02, 187500.00, -187500.02, 187500.00, -187500.02, -187500.02, 0.000, 0.000, 0.000, 16:12:58.926, 1578579178926
62, -168912.97, -129409.31, -168871.98, -169008.11, -169002.89, -107851.01, -169288.31, 177303.70, 0.000, 0.000, 0.000, 16:12:58.926, 1578579178926
63, -187500.02, -187500.02, -187500.02, 187500.00, -187500.02, 187500.00, -187500.02, -187500.02, -0.024, -0.010, 0.970, 16:12:58.926, 1578579178926
64, -168925.36, -129800.06, -168870.78, -168947.69, -169002.97, -108184.25, -169227.28, 177286.47, 0.000, 0.000, 0.000, 16:12:58.926, 1578579178926
65, -187500.02, -187500.02, -187500.02, 187500.00, -187500.02, 187500.00, -187500.02, -187500.02, 0.000, 0.000, 0.000, 16:12:58.926, 1578579178926
66, -168917.14, -130172.82, -168870.22, -168873.48, -169001.95, -108496.75, -169355.41, 177295.14, 0.000, 0.000, 0.000, 16:12:58.926, 1578579178926
67, -187500.02, -187500.02, -187500.02, 187500.00, -187500.02, 187500.00, -187500.02, -187500.02, 0.000, 0.000, 0.000, 16:12:58.926, 1578579178926
68, -168897.02, -130568.98, -168863.11, -168816.73, -168993.28, -108833.88, -169319.83, 177272.48, 0.000, 0.000, 0.000, 16:12:58.926, 1578579178926
69, -187500.02, -187500.02, -187500.02, 187500.00, -187500.02, 187500.00, -187500.02, -187500.02, 0.000, 0.000, 0.000, 16:12:58.926, 1578579178926
70, -168889.27, -130968.73, -168857.98, -168762.13, -168988.06, -109172.09, -169253.86, 177247.27, 0.000, 0.000, 0.000, 16:12:58.926, 1578579178926
71, -187500.02, -187500.02, -187500.02, 187500.00, -187500.02, 187500.00, -187500.02, -187500.02, 0.000, 0.000, 0.000, 16:12:58.926, 1578579178926
72, -168920.06, -131351.08, -168859.13, -168694.02, -168992.86, -109496.45, -169261.42, 177242.91, 0.000, 0.000, 0.000, 16:12:58.926, 1578579178926
73, -187500.02, -187500.02, -187500.02, 187500.00, -187500.02, 187500.00, -187500.02, -187500.02, -0.020, -0.012, 0.970, 16:12:58.926, 1578579178926
74, -168890.63, -131731.80, -168853.56, -168628.17, -168983.73, -109823.51, -169344.30, 177235.48, 0.000, 0.000, 0.000, 16:12:58.926, 1578579178926
75, -187500.02, -187500.02, -187500.02, 187500.00, -187500.02, 187500.00, -187500.02, -187500.02, 0.000, 0.000, 0.000, 16:12:58.926, 1578579178926
76, -168885.53, -132126.34, -168849.47, -168573.19, -168980.55, -110165.62, -169278.86, 177212.83, 0.000, 0.000, 0.000, 16:12:58.926, 1578579178926
77, -187500.02, -187500.02, -187500.02, 187500.00, -187500.02, 187500.00, -187500.02, -187500.02, 0.000, 0.000, 0.000, 16:12:58.926, 1578579178926
78, -168896.84, -132522.14, -168849.61, -168516.19, -168981.89, -110501.92, -169214.72, 177196.67, 0.000, 0.000, 0.000, 16:12:58.926, 1578579178926
79, -187500.02, -187500.02, -187500.02, 187500.00, -187500.02, 187500.00, -187500.02, -187500.02, 0.000, 0.000, 0.000, 16:12:58.927, 1578579178927
80, -168890.41, -132896.05, -168844.06, -168443.44, -168979.14, -110819.14, -169331.17, 177205.27, 0.000, 0.000, 0.000, 16:12:58.927, 1578579178927
81, -187500.02, -187500.02, -187500.02, 187500.00, -187500.02, 187500.00, -187500.02, -187500.02, 0.000, 0.000, 0.000, 16:12:58.927, 1578579178927
82, -168875.50, -133287.20, -168833.50, -168380.11, -168974.72, -111152.18, -169305.92, 177185.31, 0.000, 0.000, 0.000, 16:12:58.927, 1578579178927
83, -187500.02, -187500.02, -187500.02, 187500.00, -187500.02, 187500.00, -187500.02, -187500.02, -0.018, -0.018, 0.974, 16:12:58.927, 1578579178927
84, -168913.77, -133668.08, -168843.11, -168089.81, -168977.97, -111477.60, -169223.84, 177178.55, 0.000, 0.000, 0.000, 16:12:58.927, 1578579178927
85, -187500.02, -187500.02, -187500.02, 187500.00, -187500.02, 187500.00, -187500.02, -187500.02, 0.000, 0.000, 0.000, 16:12:58.927, 1578579178927
86, -168940.67, -133993.52, -168842.36, -168400.20, -168978.28, -111746.13, -169280.31, 177234.13, 0.000, 0.000, 0.000, 16:12:58.927, 1578579178927
87, -187500.02, -187500.02, -187500.02, 187500.00, -187500.02, 187500.00, -187500.02, -187500.02, 0.000, 0.000, 0.000, 16:12:58.927, 1578579178927
88, -168900.44, -134334.72, -168831.86, -169124.83, -168964.88, -112032.35, -169268.95, 177262.14, 0.000, 0.000, 0.000, 16:12:58.927, 1578579178927
89, -187500.02, -187500.02, -187500.02, 187500.00, -187500.02, 187500.00, -187500.02, -187500.02, 0.000, 0.000, 0.000, 16:12:58.927, 1578579178927
90, -168850.22, -134722.44, -168823.86, -169409.23, -168954.03, -112360.85, -169192.70, 177246.95, 0.000, 0.000, 0.000, 16:12:58.927, 1578579178927
91, -187500.02, -187500.02, -187500.02, 187500.00, -187500.02, 187500.00, -187500.02, -187500.02, 0.000, 0.000, 0.000, 16:12:58.927, 1578579178927
92, -168872.09, -135103.59, -168820.47, -169338.06, -168953.02, -112682.90, -169255.50, 177247.05, -0.014, -0.020, 0.978, 16:12:58.927, 1578579178927
93, -187500.02, -187500.02, -187500.02, 187500.00, -187500.02, 187500.00, -187500.02, -187500.02, 0.000, 0.000, 0.000, 16:12:58.927, 1578579178927
94, -168847.48, -135490.86, -168814.89, -169276.19, -168944.27, -113014.51, -169306.61, 177234.67, 0.000, 0.000, 0.000, 16:12:58.927, 1578579178927
95, -187500.02, -187500.02, -187500.02, 187500.00, -187500.02, 187500.00, -187500.02, -187500.02, 0.000, 0.000, 0.000, 16:12:58.927, 1578579178927
96, -168848.06, -135887.17, -168813.20, -169219.53, -168942.81, -113351.98, -169238.34, 177211.22, 0.000, 0.000, 0.000, 16:12:58.927, 1578579178927
97, -187500.02, -187500.02, -187500.02, 187500.00, -187500.02, 187500.00, -187500.02, -187500.02, 0.000, 0.000, 0.000, 16:12:58.927, 1578579178927
98, -168844.13, -136278.77, -168809.58, -169162.09, -168938.44, -113690.20, -169171.23, 177192.06, 0.000, 0.000, 0.000, 16:12:58.928, 1578579178928
99, -187500.02, -187500.02, -187500.02, 187500.00, -187500.02, 187500.00, -187500.02, -187500.02, 0.000, 0.000, 0.000, 16:12:58.928, 1578579178928
100, -168856.19, -136655.75, -168807.09, -169091.17, -168939.33, -114010.73, -169284.00, 177194.92, 0.000, 0.000, 0.000, 16:12:58.928, 1578579178928
101, -187500.02, -187500.02, -187500.02, 187500.00, -187500.02, 187500.00, -187500.02, -187500.02, 0.000, 0.000, 0.000, 16:12:58.928, 1578579178928
102, -168840.52, -137050.34, -168804.61, -169032.14, -168934.48, -114346.45, -169278.78, 177176.53, -0.016, -0.018, 0.976, 16:12:58.928, 1578579178928
103, -187500.02, -187500.02, -187500.02, 187500.00, -187500.02, 187500.00, -187500.02, -187500.02, 0.000, 0.000, 0.000, 16:12:58.928, 1578579178928
104, -168831.64, -137446.44, -168802.67, -168977.81, -168930.72, -114685.99, -169212.63, 177153.06, 0.000, 0.000, 0.000, 16:12:58.928, 1578579178928
105, -187500.02, -187500.02, -187500.02, 187500.00, -187500.02, 187500.00, -187500.02, -187500.02, 0.000, 0.000, 0.000, 16:12:59.399, 1578579179399
106, -168852.77, -137834.89, -168802.72, -168917.98, -168933.19, -115016.06, -169167.89, 177139.17, 0.000, 0.000, 0.000, 16:12:59.400, 1578579179400
107, -187500.02, -187500.02, -187500.02, 187500.00, -187500.02, 187500.00, -187500.02, -187500.02, 0.000, 0.000, 0.000, 16:12:59.400, 1578579179400
108, -168834.00, -138213.03, -168796.08, -168849.19, -168925.22, -115338.48, -169302.66, 177140.50, 0.000, 0.000, 0.000, 16:12:59.400, 1578579179400
109, -187500.02, -187500.02, -187500.02, 187500.00, -187500.02, 187500.00, -187500.02, -187500.02, 0.000, 0.000, 0.000, 16:12:59.400, 1578579179400
110, -168822.03, -138611.44, -168795.88, -168795.52, -168924.22, -115680.13, -169252.20, 177115.94, 0.000, 0.000, 0.000, 16:12:59.400, 1578579179400
111, -187500.02, -187500.02, -187500.02, 187500.00, -187500.02, 187500.00, -187500.02, -187500.02, 0.000, 0.000, 0.000, 16:12:59.400, 1578579179400
112, -168830.59, -139007.39, -168796.28, -168739.61, -168922.67, -116019.45, -169184.33, 177093.72, -0.022, -0.012, 0.978, 16:12:59.400, 1578579179400
113, -187500.02, -187500.02, -187500.02, 187500.00, -187500.02, 187500.00, -187500.02, -187500.02, 0.000, 0.000, 0.000, 16:12:59.400, 1578579179400
114, -168839.13, -139393.44, -168791.58, -168674.89, -168922.05, -116345.05, -169191.97, 177088.50, 0.000, 0.000, 0.000, 16:12:59.400, 1578579179400
115, -187500.02, -187500.02, -187500.02, 187500.00, -187500.02, 187500.00, -187500.02, -187500.02, 0.000, 0.000, 0.000, 16:12:59.400, 1578579179400
116, -168811.81, -139778.86, -168787.84, -168610.64, -168914.78, -116669.69, -169282.61, 177085.47, 0.000, 0.000, 0.000, 16:12:59.400, 1578579179400
117, -187500.02, -187500.02, -187500.02, 187500.00, -187500.02, 187500.00, -187500.02, -187500.02, 0.000, 0.000, 0.000, 16:12:59.400, 1578579179400
118, -168812.27, -140176.69, -168782.95, -168556.78, -168912.00, -117008.23, -169219.02, 177061.39, 0.000, 0.000, 0.000, 16:12:59.400, 1578579179400
119, -187500.02, -187500.02, -187500.02, 187500.00, -187500.02, 187500.00, -187500.02, -187500.02, 0.000, 0.000, 0.000, 16:12:59.400, 1578579179400
120, -168817.16, -140572.55, -168780.31, -168500.30, -168910.39, -117344.48, -169150.08, 177042.33, 0.000, 0.000, 0.000, 16:12:59.400, 1578579179400
121, -187500.02, -187500.02, -187500.02, 187500.00, -187500.02, 187500.00, -187500.02, -187500.02, 0.000, 0.000, 0.000, 16:12:59.401, 1578579179401
122, -168825.73, -140951.02, -168779.00, -168430.20, -168910.56, -117662.75, -169225.94, 177047.22, -0.018, -0.016, 0.982, 16:12:59.401, 1578579179401
123, -187500.02, -187500.02, -187500.02, 187500.00, -187500.02, 187500.00, -187500.02, -187500.02, 0.000, 0.000, 0.000, 16:12:59.401, 1578579179401
124, -168801.33, -141340.22, -168770.27, -168371.58, -168901.02, -117995.73, -169256.55, 177032.22, 0.000, 0.000, 0.000, 16:12:59.401, 1578579179401
125, -187500.02, -187500.02, -187500.02, 187500.00, -187500.02, 187500.00, -187500.02, -187500.02, 0.000, 0.000, 0.000, 16:12:59.401, 1578579179401
126, -168805.31, -141734.78, -168764.30, -168299.56, -168901.31, -118336.66, -169191.14, 177008.63, 0.000, 0.000, 0.000, 16:12:59.401, 1578579179401
127, -187500.02, -187500.02, -187500.02, 187500.00, -187500.02, 187500.00, -187500.02, -187500.02, 0.000, 0.000, 0.000, 16:12:59.401, 1578579179401
128, -168857.91, -142099.42, -168776.00, -168015.16, -168910.78, -118647.26, -169141.80, 177016.73, 0.000, 0.000, 0.000, 16:12:59.401, 1578579179401
129, -187500.02, -187500.02, -187500.02, 187500.00, -187500.02, 187500.00, -187500.02, -187500.02, 0.000, 0.000, 0.000, 16:12:59.401, 1578579179401
130, -168849.56, -142419.30, -168767.83, -168424.33, -168903.48, -118917.96, -169244.09, 177070.94, 0.000, 0.000, 0.000, 16:12:59.401, 1578579179401
131, -187500.02, -187500.02, -187500.02, 187500.00, -187500.02, 187500.00, -187500.02, -187500.02, -0.024, -0.024, 0.974, 16:12:59.401, 1578579179401
132, -168796.02, -142775.50, -168756.52, -169188.94, -168885.28, -119221.85, -169157.80, 177080.73, 0.000, 0.000, 0.000, 16:12:59.401, 1578579179401
133, -187500.02, -187500.02, -187500.02, 187500.00, -187500.02, 187500.00, -187500.02, -187500.02, 0.000, 0.000, 0.000, 16:12:59.401, 1578579179401
134, -168804.66, -143161.27, -168756.73, -169317.86, -168885.75, -119550.85, -169127.63, 177067.03, 0.000, 0.000, 0.000, 16:12:59.401, 1578579179401
135, -187500.02, -187500.02, -187500.02, 187500.00, -187500.02, 187500.00, -187500.02, -187500.02, 0.000, 0.000, 0.000, 16:12:59.401, 1578579179401
136, -168785.64, -143541.28, -168748.59, -169248.20, -168878.36, -119871.48, -169255.11, 177067.03, 0.000, 0.000, 0.000, 16:12:59.401, 1578579179401
137, -187500.02, -187500.02, -187500.02, 187500.00, -187500.02, 187500.00, -187500.02, -187500.02, 0.000, 0.000, 0.000, 16:12:59.401, 1578579179401
138, -168780.31, -143935.91, -168748.59, -169191.81, -168875.52, -120208.64, -169195.84, 177043.47, 0.000, 0.000, 0.000, 16:12:59.401, 1578579179401
139, -187500.02, -187500.02, -187500.02, 187500.00, -187500.02, 187500.00, -187500.02, -187500.02, 0.000, 0.000, 0.000, 16:12:59.401, 1578579179401
140, -168772.11, -144337.75, -168743.44, -169136.88, -168873.23, -120548.74, -169130.95, 177018.33, 0.000, 0.000, 0.000, 16:12:59.401, 1578579179401
141, -187500.02, -187500.02, -187500.02, 187500.00, -187500.02, 187500.00, -187500.02, -187500.02, -0.016, -0.026, 0.970, 16:12:59.402, 1578579179402
142, -168790.84, -144722.89, -168747.86, -169072.03, -168875.67, -120873.36, -169159.97, 177015.17, 0.000, 0.000, 0.000, 16:12:59.402, 1578579179402
143, -187500.02, -187500.02, -187500.02, 187500.00, -187500.02, 187500.00, -187500.02, -187500.02, 0.000, 0.000, 0.000, 16:12:59.402, 1578579179402
144, -168763.17, -145110.69, -168739.66, -169008.39, -168866.55, -121198.64, -169238.38, 177006.55, 0.000, 0.000, 0.000, 16:12:59.402, 1578579179402
145, -187500.02, -187500.02, -187500.02, 187500.00, -187500.02, 187500.00, -187500.02, -187500.02, 0.000, 0.000, 0.000, 16:12:59.402, 1578579179402
146, -168760.94, -145504.67, -168737.94, -168951.83, -168860.66, -121537.09, -169172.55, 176982.89, 0.000, 0.000, 0.000, 16:12:59.402, 1578579179402
147, -187500.02, -187500.02, -187500.02, 187500.00, -187500.02, 187500.00, -187500.02, -187500.02, 0.000, 0.000, 0.000, 16:12:59.402, 1578579179402
148, -168759.86, -145901.81, -168735.44, -168898.33, -168859.73, -121877.62, -169106.41, 176957.55, 0.000, 0.000, 0.000, 16:12:59.402, 1578579179402
149, -187500.02, -187500.02, -187500.02, 187500.00, -187500.02, 187500.00, -187500.02, -187500.02, 0.000, 0.000, 0.000, 16:12:59.402, 1578579179402
150, -168781.59, -146281.86, -168735.48, -168831.69, -168864.52, -122199.69, -169179.08, 176958.53, 0.000, 0.000, 0.000, 16:12:59.402, 1578579179402
151, -187500.02, -187500.02, -187500.02, 187500.00, -187500.02, 187500.00, -187500.02, -187500.02, -0.020, -0.014, 1.032, 16:12:59.402, 1578579179402
152, -168750.20, -146671.67, -168729.33, -168772.14, -168851.75, -122530.74, -169216.25, 176945.33, 0.000, 0.000, 0.000, 16:12:59.402, 1578579179402
153, -187500.02, -187500.02, -187500.02, 187500.00, -187500.02, 187500.00, -187500.02, -187500.02, 0.000, 0.000, 0.000, 16:12:59.402, 1578579179402
154, -168755.31, -147067.13, -168728.08, -168717.00, -168853.08, -122870.71, -169149.81, 176919.91, 0.000, 0.000, 0.000, 16:12:59.402, 1578579179402
155, -187500.02, -187500.02, -187500.02, 187500.00, -187500.02, 187500.00, -187500.02, -187500.02, 0.000, 0.000, 0.000, 16:12:59.402, 1578579179402
156, -168754.80, -147462.77, -168726.23, -168662.41, -168851.22, -123209.36, -169088.75, 176898.20, 0.000, 0.000, 0.000, 16:12:59.402, 1578579179402
157, -187500.02, -187500.02, -187500.02, 187500.00, -187500.02, 187500.00, -187500.02, -187500.02, 0.000, 0.000, 0.000, 16:12:59.402, 1578579179402
158, -168758.13, -147841.20, -168723.08, -168594.78, -168851.20, -123530.11, -169213.19, 176901.72, 0.000, 0.000, 0.000, 16:12:59.402, 1578579179402
159, -187500.02, -187500.02, -187500.02, 187500.00, -187500.02, 187500.00, -187500.02, -187500.02, 0.000, 0.000, 0.000, 16:12:59.402, 1578579179402
160, -168749.08, -148237.08, -168720.75, -168539.36, -168847.98, -123867.93, -169186.09, 176880.33, 0.000, 0.000, 0.000, 16:12:59.402, 1578579179402
161, -187500.02, -187500.02, -187500.02, 187500.00, -187500.02, 187500.00, -187500.02, -187500.02, -0.012, -0.024, 1.010, 16:12:59.403, 1578579179403
162, -168737.38, -148635.92, -168716.50, -168484.77, -168841.41, -124208.55, -169120.17, 176856.16, 0.000, 0.000, 0.000, 16:12:59.403, 1578579179403
163, -187500.02, -187500.02, -187500.02, 187500.00, -187500.02, 187500.00, -187500.02, -187500.02, 0.000, 0.000, 0.000, 16:12:59.403, 1578579179403
164, -168753.08, -149027.02, -168716.30, -168427.30, -168843.13, -124543.20, -169097.05, 176839.80, 0.000, 0.000, 0.000, 16:12:59.403, 1578579179403
165, -187500.02, -187500.02, -187500.02, 187500.00, -187500.02, 187500.00, -187500.02, -187500.02, 0.000, 0.000, 0.000, 16:12:59.403, 1578579179403
166, -168735.23, -149409.36, -168711.19, -168362.19, -168837.00, -124870.52, -169205.38, 176834.84, 0.000, 0.000, 0.000, 16:12:59.403, 1578579179403
167, -187500.02, -187500.02, -187500.02, 187500.00, -187500.02, 187500.00, -187500.02, -187500.02, 0.000, 0.000, 0.000, 16:12:59.404, 1578579179404
168, -168735.50, -149805.25, -168707.23, -168307.59, -168836.47, -125208.99, -169143.95, 176810.94, 0.000, 0.000, 0.000, 16:12:59.404, 1578579179404
169, -187500.02, -187500.02, -187500.02, 187500.00, -187500.02, 187500.00, -187500.02, -187500.02, 0.000, 0.000, 0.000, 16:12:59.404, 1578579179404
170, -168727.77, -150202.22, -168697.45, -168242.80, -168831.28, -125552.36, -169076.02, 176788.09, -0.024, -0.040, 0.982, 16:12:59.404, 1578579179404
171, -187500.02, -187500.02, -187500.02, 187500.00, -187500.02, 187500.00, -187500.02, -187500.02, 0.000, 0.000, 0.000, 16:12:59.404, 1578579179404
172, -168789.34, -150563.11, -168709.75, -167942.78, -168842.08, -125857.82, -169139.59, 176807.67, 0.000, 0.000, 0.000, 16:12:59.404, 1578579179404
173, -187500.02, -187500.02, -187500.02, 187500.00, -187500.02, 187500.00, -187500.02, -187500.02, 0.000, 0.000, 0.000, 16:12:59.404, 1578579179404
174, -168766.69, -150900.36, -168703.98, -168331.89, -168830.70, -126143.09, -169136.83, 176841.50, 0.000, 0.000, 0.000, 16:12:59.404, 1578579179404
175, -187500.02, -187500.02, -187500.02, 187500.00, -187500.02, 187500.00, -187500.02, -187500.02, 0.000, 0.000, 0.000, 16:12:59.404, 1578579179404
176, -168759.39, -151247.72, -168696.66, -169087.14, -168826.23, -126433.63, -169067.16, 176866.78, 0.000, 0.000, 0.000, 16:12:59.404, 1578579179404
177, -187500.02, -187500.02, -187500.02, 187500.00, -187500.02, 187500.00, -187500.02, -187500.02, 0.000, 0.000, 0.000, 16:12:59.404, 1578579179404
178, -168709.11, -151624.31, -168688.13, -169251.27, -168811.95, -126751.80, -169188.33, 176873.42, 0.000, 0.000, 0.000, 16:12:59.404, 1578579179404
179, -187500.02, -187500.02, -187500.02, 187500.00, -187500.02, 187500.00, -187500.02, -187500.02, 0.000, 0.000, 0.000, 16:12:59.404, 1578579179404
180, -168702.47, -152024.98, -168685.95, -169195.61, -168808.58, -127092.84, -169133.70, 176850.61, -0.028, -0.032, 0.980, 16:12:59.404, 1578579179404
181, -187500.02, -187500.02, -187500.02, 187500.00, -187500.02, 187500.00, -187500.02, -187500.02, 0.000, 0.000, 0.000, 16:12:59.404, 1578579179404
182, -168707.05, -152423.30, -168683.38, -169140.14, -168809.39, -127432.03, -169068.13, 176823.11, 0.000, 0.000, 0.000, 16:12:59.404, 1578579179404
183, -187500.02, -187500.02, -187500.02, 187500.00, -187500.02, 187500.00, -187500.02, -187500.02, 0.000, 0.000, 0.000, 16:12:59.404, 1578579179404
184, -168728.11, -152806.11, -168682.73, -169072.77, -168811.50, -127752.02, -169108.70, 176821.97, 0.000, 0.000, 0.000, 16:12:59.404, 1578579179404
185, -187500.02, -187500.02, -187500.02, 187500.00, -187500.02, 187500.00, -187500.02, -187500.02, 0.000, 0.000, 0.000, 16:12:59.405, 1578579179405
186, -168698.13, -153195.47, -168677.92, -169009.53, -168803.19, -128079.78, -169165.95, 176814.91, 0.000, 0.000, 0.000, 16:12:59.405, 1578579179405
187, -187500.02, -187500.02, -187500.02, 187500.00, -187500.02, 187500.00, -187500.02, -187500.02, 0.000, 0.000, 0.000, 16:12:59.405, 1578579179405
188, -168699.67, -153596.00, -168675.56, -168952.86, -168799.00, -128420.11, -169098.88, 176789.78, 0.000, 0.000, 0.000, 16:12:59.405, 1578579179405
189, -187500.02, -187500.02, -187500.02, 187500.00, -187500.02, 187500.00, -187500.02, -187500.02, 0.000, 0.000, 0.000, 16:12:59.405, 1578579179405
190, -168701.81, -153995.58, -168670.66, -168895.50, -168798.30, -128757.45, -169033.36, 176768.88, -0.018, -0.024, 0.972, 16:12:59.405, 1578579179405
191, -187500.02, -187500.02, -187500.02, 187500.00, -187500.02, 187500.00, -187500.02, -187500.02, 0.000, 0.000, 0.000, 16:12:59.405, 1578579179405
192, -168715.23, -154369.05, -168669.25, -168820.86, -168797.19, -129069.79, -169144.56, 176778.17, 0.000, 0.000, 0.000, 16:12:59.405, 1578579179405
193, -187500.02, -187500.02, -187500.02, 187500.00, -187500.02, 187500.00, -187500.02, -187500.02, 0.000, 0.000, 0.000, 16:12:59.405, 1578579179405
194, -168689.84, -154759.05, -168666.86, -168759.11, -168790.38, -129400.10, -169124.22, 176762.47, 0.000, 0.000, 0.000, 16:12:59.405, 1578579179405
195, -187500.02, -187500.02, -187500.02, 187500.00, -187500.02, 187500.00, -187500.02, -187500.02, 0.000, 0.000, 0.000, 16:12:59.405, 1578579179405
196, -168684.08, -155155.83, -168661.94, -168701.00, -168789.14, -129735.13, -169056.75, 176740.42, 0.000, 0.000, 0.000, 16:12:59.405, 1578579179405
197, -187500.02, -187500.02, -187500.02, 187500.00, -187500.02, 187500.00, -187500.02, -187500.02, 0.000, 0.000, 0.000, 16:12:59.405, 1578579179405
198, -168710.25, -155540.73, -168661.98, -168634.00, -168789.95, -130057.82, -169070.27, 176737.05, 0.000, 0.000, 0.000, 16:12:59.405, 1578579179405
199, -187500.02, -187500.02, -187500.02, 187500.00, -187500.02, 187500.00, -187500.02, -187500.02, 0.000, 0.000, 0.000, 16:12:59.405, 1578579179405
200, -168686.89, -155922.98, -168658.72, -168565.27, -168784.16, -130379.22, -169147.69, 176736.31, -0.020, -0.014, 0.952, 16:12:59.405, 1578579179405
201, -187500.02, -187500.02, -187500.02, 187500.00, -187500.02, 187500.00, -187500.02, -187500.02, 0.000, 0.000, 0.000, 16:12:59.405, 1578579179405
202, -168681.48, -156317.08, -168655.50, -168504.75, -168779.25, -130711.21, -169076.53, 176719.33, 0.000, 0.000, 0.000, 16:12:59.406, 1578579179406
203, -187500.02, -187500.02, -187500.02, 187500.00, -187500.02, 187500.00, -187500.02, -187500.02, 0.000, 0.000, 0.000, 16:12:59.406, 1578579179406
204, -168684.91, -156710.89, -168652.38, -168443.08, -168776.91, -131044.25, -169020.16, 176706.69, 0.000, 0.000, 0.000, 16:12:59.406, 1578579179406
205, -187500.02, -187500.02, -187500.02, 187500.00, -187500.02, 187500.00, -187500.02, -187500.02, 0.000, 0.000, 0.000, 16:12:59.406, 1578579179406
206, -168681.86, -157092.38, -168648.78, -168370.05, -168773.36, -131362.52, -169138.94, 176717.05, 0.000, 0.000, 0.000, 16:12:59.406, 1578579179406
207, -187500.02, -187500.02, -187500.02, 187500.00, -187500.02, 187500.00, -187500.02, -187500.02, 0.000, 0.000, 0.000, 16:12:59.406, 1578579179406
208, -168674.69, -157485.84, -168646.67, -168308.94, -168772.08, -131689.44, -169087.91, 176702.67, 0.000, 0.000, 0.000, 16:12:59.406, 1578579179406
209, -187500.02, -187500.02, -187500.02, 187500.00, -187500.02, 187500.00, -187500.02, -187500.02, -0.014, -0.014, 0.976, 16:12:59.406, 1578579179406
210, -168661.23, -157882.50, -168638.47, -168248.55, -168761.92, -132021.80, -169015.23, 176683.63, 0.000, 0.000, 0.000, 16:12:59.406, 1578579179406
211, -187500.02, -187500.02, -187500.02, 187500.00, -187500.02, 187500.00, -187500.02, -187500.02, 0.000, 0.000, 0.000, 16:12:59.406, 1578579179406
212, -168696.00, -158262.23, -168635.38, -168135.50, -168769.91, -132335.17, -169072.95, 176691.47, 0.000, 0.000, 0.000, 16:12:59.406, 1578579179406
213, -187500.02, -187500.02, -187500.02, 187500.00, -187500.02, 187500.00, -187500.02, -187500.02, 0.000, 0.000, 0.000, 16:12:59.406, 1578579179406
214, -168710.83, -158620.20, -168641.84, -167889.78, -168769.86, -132629.86, -169105.56, 176711.19, 0.000, 0.000, 0.000, 16:12:59.406, 1578579179406
215, -187500.02, -187500.02, -187500.02, 187500.00, -187500.02, 187500.00, -187500.02, -187500.02, 0.000, 0.000, 0.000, 16:12:59.406, 1578579179406
216, -168726.86, -158948.75, -168635.55, -168360.91, -168766.08, -132898.81, -168990.20, 176751.70, 0.000, 0.000, 0.000, 16:12:59.406, 1578579179406
217, -187500.02, -187500.02, -187500.02, 187500.00, -187500.02, 187500.00, -187500.02, -187500.02, 0.000, 0.000, 0.000, 16:12:59.406, 1578579179406
218, -168671.08, -159281.81, -168622.77, -169093.44, -168749.31, -133166.75, -169103.61, 176801.88, 0.000, 0.000, 0.000, 16:12:59.406, 1578579179406
219, -187500.02, -187500.02, -187500.02, 187500.00, -187500.02, 187500.00, -187500.02, -187500.02, -0.014, -0.012, 0.974, 16:12:59.406, 1578579179406
220, -168645.92, -159674.47, -168616.02, -169187.55, -168740.08, -133490.52, -169073.27, 176789.17, 0.000, 0.000, 0.000, 16:12:59.407, 1578579179407
221, -187500.02, -187500.02, -187500.02, 187500.00, -187500.02, 187500.00, -187500.02, -187500.02, 0.000, 0.000, 0.000, 16:12:59.407, 1578579179407
222, -168641.30, -160071.45, -168613.03, -169122.59, -168736.47, -133818.73, -168998.98, 176770.89, 0.000, 0.000, 0.000, 16:12:59.407, 1578579179407
223, -187500.02, -187500.02, -187500.02, 187500.00, -187500.02, 187500.00, -187500.02, -187500.02, 0.000, 0.000, 0.000, 16:12:59.407, 1578579179407
224, -168662.13, -160453.31, -168613.03, -169046.14, -168740.00, -134131.05, -169023.38, 176776.91, 0.000, 0.000, 0.000, 16:12:59.407, 1578579179407
225, -187500.02, -187500.02, -187500.02, 187500.00, -187500.02, 187500.00, -187500.02, -187500.02, 0.000, 0.000, 0.000, 16:12:59.882, 1578579179882
226, -168630.45, -160840.84, -168608.28, -168974.98, -168731.28, -134449.05, -169080.72, 176774.75, 0.000, 0.000, 0.000, 16:12:59.883, 1578579179883
227, -187500.02, -187500.02, -187500.02, 187500.00, -187500.02, 187500.00, -187500.02, -187500.02, 0.000, 0.000, 0.000, 16:12:59.883, 1578579179883
228, -168621.27, -161241.02, -168603.03, -168914.08, -168725.84, -134781.73, -169010.55, 176756.58, 0.000, 0.000, 0.000, 16:12:59.883, 1578579179883
229, -187500.02, -187500.02, -187500.02, 187500.00, -187500.02, 187500.00, -187500.02, -187500.02, -0.020, -0.014, 0.974, 16:12:59.883, 1578579179883
230, -168644.59, -161632.70, -168601.28, -168843.91, -168725.73, -135101.36, -168973.14, 176753.55, 0.000, 0.000, 0.000, 16:12:59.883, 1578579179883
231, -187500.02, -187500.02, -187500.02, 187500.00, -187500.02, 187500.00, -187500.02, -187500.02, 0.000, 0.000, 0.000, 16:12:59.883, 1578579179883
232, -168629.38, -162012.75, -168596.31, -168764.83, -168718.20, -135406.81, -169084.75, 176762.59, 0.000, 0.000, 0.000, 16:12:59.883, 1578579179883
233, -187500.02, -187500.02, -187500.02, 187500.00, -187500.02, 187500.00, -187500.02, -187500.02, 0.000, 0.000, 0.000, 16:12:59.883, 1578579179883
234, -168616.41, -162409.84, -168590.16, -168699.63, -168712.28, -135735.33, -169014.77, 176746.86, 0.000, 0.000, 0.000, 16:12:59.883, 1578579179883
235, -187500.02, -187500.02, -187500.02, 187500.00, -187500.02, 187500.00, -187500.02, -187500.02, 0.000, 0.000, 0.000, 16:12:59.883, 1578579179883
236, -168628.08, -162805.00, -168589.19, -168631.30, -168713.94, -136060.41, -168949.50, 176737.86, 0.000, 0.000, 0.000, 16:12:59.883, 1578579179883
237, -187500.02, -187500.02, -187500.02, 187500.00, -187500.02, 187500.00, -187500.02, -187500.02, 0.000, 0.000, 0.000, 16:12:59.883, 1578579179883
238, -168622.77, -163186.55, -168585.70, -168550.05, -168709.11, -136367.77, -169068.36, 176753.70, 0.000, 0.000, 0.000, 16:12:59.883, 1578579179883
239, -187500.02, -187500.02, -187500.02, 187500.00, -187500.02, 187500.00, -187500.02, -187500.02, -0.020, -0.014, 0.976, 16:12:59.883, 1578579179883
240, -168608.80, -163586.89, -168581.36, -168481.45, -168702.98, -136689.89, -169014.88, 176746.06, 0.000, 0.000, 0.000, 16:12:59.883, 1578579179883
241, -187500.02, -187500.02, -187500.02, 187500.00, -187500.02, 187500.00, -187500.02, -187500.02, 0.000, 0.000, 0.000, 16:12:59.883, 1578579179883
242, -168610.17, -163988.97, -168576.14, -168413.53, -168699.25, -137012.05, -168938.77, 176737.14, 0.000, 0.000, 0.000, 16:12:59.883, 1578579179883
243, -187500.02, -187500.02, -187500.02, 187500.00, -187500.02, 187500.00, -187500.02, -187500.02, 0.000, 0.000, 0.000, 16:12:59.884, 1578579179884
244, -168608.75, -164376.53, -168572.27, -168334.02, -168695.58, -137317.77, -169049.81, 176753.20, 0.000, 0.000, 0.000, 16:12:59.884, 1578579179884
245, -187500.02, -187500.02, -187500.02, 187500.00, -187500.02, 187500.00, -187500.02, -187500.02, 0.000, 0.000, 0.000, 16:12:59.884, 1578579179884
246, -168590.86, -164785.55, -168566.77, -168270.30, -168688.55, -137643.67, -169020.98, 176741.72, 0.000, 0.000, 0.000, 16:12:59.884, 1578579179884
247, -187500.02, -187500.02, -187500.02, 187500.00, -187500.02, 187500.00, -187500.02, -187500.02, 0.000, 0.000, 0.000, 16:12:59.884, 1578579179884
248, -168591.42, -165198.34, -168566.17, -168207.05, -168689.19, -137970.55, -168946.02, 176729.27, 0.000, 0.000, 0.000, 16:12:59.884, 1578579179884
249, -187500.02, -187500.02, -187500.02, 187500.00, -187500.02, 187500.00, -187500.02, -187500.02, -0.016, -0.006, 0.976, 16:12:59.884, 1578579179884
250, -168605.73, -165597.39, -168556.56, -168131.33, -168686.23, -138282.30, -168977.73, 176735.78, 0.000, 0.000, 0.000, 16:12:59.884, 1578579179884
251, -187500.02, -187500.02, -187500.02, 187500.00, -187500.02, 187500.00, -187500.02, -187500.02, 0.000, 0.000, 0.000, 16:12:59.884, 1578579179884
252, -168606.11, -165992.98, -168556.17, -167862.53, -168684.56, -138590.38, -169033.36, 176743.00, 0.000, 0.000, 0.000, 16:12:59.884, 1578579179884
253, -187500.02, -187500.02, -187500.02, 187500.00, -187500.02, 187500.00, -187500.02, -187500.02, 0.000, 0.000, 0.000, 16:12:59.884, 1578579179884
254, -168632.81, -166357.70, -168554.91, -168026.94, -168682.06, -138869.81, -168918.66, 176774.22, 0.000, 0.000, 0.000, 16:12:59.884, 1578579179884
255, -187500.02, -187500.02, -187500.02, 187500.00, -187500.02, 187500.00, -187500.02, -187500.02, 0.000, 0.000, 0.000, 16:12:59.884, 1578579179884
0, -168632.86, -166694.03, -168552.28, -168652.56, -168680.41, -139120.52, -168995.86, 176846.77, 0.000, 0.000, 0.000, 16:12:59.884, 1578579179884
1, -187500.02, -187500.02, -187500.02, 187500.00, -187500.02, 187500.00, -187500.02, -187500.02, 0.000, 0.000, 0.000, 16:12:59.884, 1578579179884
2, -168558.88, -167090.38, -168536.75, -169130.58, -168658.30, -139425.08, -168989.23, 176858.80, -0.022, -0.006, 0.972, 16:12:59.884, 1578579179884
3, -187500.02, -187500.02, -187500.02, 187500.00, -187500.02, 187500.00, -187500.02, -187500.02, 0.000, 0.000, 0.000, 16:12:59.884, 1578579179884
4, -168564.80, -167508.27, -168534.92, -169068.19, -168657.47, -139752.88, -168913.88, 176845.83, 0.000, 0.000, 0.000, 16:12:59.884, 1578579179884
5, -187500.02, -187500.02, -187500.02, 187500.00, -187500.02, 187500.00, -187500.02, -187500.02, 0.000, 0.000, 0.000, 16:12:59.885, 1578579179885
6, -168576.50, -167912.58, -168533.84, -168988.50, -168658.44, -140060.56, -168969.08, 176860.56, 0.000, 0.000, 0.000, 16:12:59.885, 1578579179885
7, -187500.02, -187500.02, -187500.02, 187500.00, -187500.02, 187500.00, -187500.02, -187500.02, 0.000, 0.000, 0.000, 16:12:59.885, 1578579179885
8, -168545.52, -168333.42, -168527.81, -168917.25, -168644.22, -140377.27, -168985.84, 176860.72, 0.000, 0.000, 0.000, 16:12:59.885, 1578579179885
9, -187500.02, -187500.02, -187500.02, 187500.00, -187500.02, 187500.00, -187500.02, -187500.02, 0.000, 0.000, 0.000, 16:12:59.885, 1578579179885
10, -168507.36, -168655.50, -168518.98, -168871.47, -168633.95, -140722.91, -168930.17, 176827.34, 0.000, 0.000, 0.000, 16:12:59.885, 1578579179885
11, -187500.02, -187500.02, -187500.02, 187500.00, -187500.02, 187500.00, -187500.02, -187500.02, 0.000, 0.000, 0.000, 16:12:59.885, 1578579179885
12, -168493.97, -168657.63, -168519.20, -168850.69, -168632.59, -141100.56, -168900.69, 176768.31, -0.020, -0.016, 0.974, 16:12:59.885, 1578579179885
13, -187500.02, -187500.02, -187500.02, 187500.00, -187500.02, 187500.00, -187500.02, -187500.02, 0.000, 0.000, 0.000, 16:12:59.885, 1578579179885
14, -168517.34, -168637.56, -168522.22, -168824.95, -168641.52, -141470.44, -168900.55, 176717.80, 0.000, 0.000, 0.000, 16:12:59.885, 1578579179885
15, -187500.02, -187500.02, -187500.02, 187500.00, -187500.02, 187500.00, -187500.02, -187500.02, 0.000, 0.000, 0.000, 16:12:59.885, 1578579179885
16, -168510.11, -168606.94, -168520.88, -168789.44, -168636.48, -141829.09, -169046.14, 176682.00, 0.000, 0.000, 0.000, 16:12:59.885, 1578579179885
17, -187500.02, -187500.02, -187500.02, 187500.00, -187500.02, 187500.00, -187500.02, -187500.02, 0.000, 0.000, 0.000, 16:12:59.885, 1578579179885
18, -168496.72, -168591.69, -168522.36, -168768.83, -168636.42, -142205.50, -169022.33, 176623.67, 0.000, 0.000, 0.000, 16:12:59.885, 1578579179885
19, -187500.02, -187500.02, -187500.02, 187500.00, -187500.02, 187500.00, -187500.02, -187500.02, 0.000, 0.000, 0.000, 16:12:59.885, 1578579179885
20, -168493.92, -168579.73, -168522.72, -168750.25, -168639.13, -142584.55, -168995.39, 176562.44, 0.000, 0.000, 0.000, 16:12:59.885, 1578579179885
21, -187500.02, -187500.02, -187500.02, 187500.00, -187500.02, 187500.00, -187500.02, -187500.02, 0.000, 0.000, 0.000, 16:12:59.885, 1578579179885
22, -168502.16, -168566.77, -168525.38, -168731.23, -168637.69, -142963.88, -168967.98, 176502.53, -0.022, -0.016, 0.972, 16:12:59.885, 1578579179885
23, -187500.02, -187500.02, -187500.02, 187500.00, -187500.02, 187500.00, -187500.02, -187500.02, 0.000, 0.000, 0.000, 16:12:59.885, 1578579179885
24, -168494.22, -168554.31, -168523.92, -168712.34, -168638.23, -143340.38, -168940.52, 176445.30, 0.000, 0.000, 0.000, 16:12:59.886, 1578579179886
25, -187500.02, -187500.02, -187500.02, 187500.00, -187500.02, 187500.00, -187500.02, -187500.02, 0.000, 0.000, 0.000, 16:12:59.886, 1578579179886
26, -168506.63, -168540.94, -168525.47, -168691.47, -168640.16, -143715.63, -168911.56, 176390.44, 0.000, 0.000, 0.000, 16:12:59.886, 1578579179886
27, -187500.02, -187500.02, -187500.02, 187500.00, -187500.02, 187500.00, -187500.02, -187500.02, 0.000, 0.000, 0.000, 16:12:59.886, 1578579179886
28, -168497.77, -168530.41, -168521.48, -168674.95, -168636.28, -144097.00, -168884.75, 176333.55, 0.000, 0.000, 0.000, 16:12:59.886, 1578579179886
29, -187500.02, -187500.02, -187500.02, 187500.00, -187500.02, 187500.00, -187500.02, -187500.02, 0.000, 0.000, 0.000, 16:12:59.886, 1578579179886
30, -168497.77, -168505.69, -168523.28, -168643.42, -168637.20, -144457.28, -169009.45, 176300.70, 0.000, 0.000, 0.000, 16:12:59.886, 1578579179886
31, -187500.02, -187500.02, -187500.02, 187500.00, -187500.02, 187500.00, -187500.02, -187500.02, 0.000, 0.000, 0.000, 16:12:59.886, 1578579179886
32, -168494.63, -168490.73, -168522.36, -168620.77, -168636.59, -144828.55, -169044.53, 176248.48, -0.026, -0.014, 0.976, 16:12:59.886, 1578579179886
33, -187500.02, -187500.02, -187500.02, 187500.00, -187500.02, 187500.00, -187500.02, -187500.02, 0.000, 0.000, 0.000, 16:12:59.886, 1578579179886
34, -168490.13, -168478.19, -168520.64, -168601.30, -168633.92, -145204.58, -169017.09, 176191.36, 0.000, 0.000, 0.000, 16:12:59.886, 1578579179886
35, -187500.02, -187500.02, -187500.02, 187500.00, -187500.02, 187500.00, -187500.02, -187500.02, 0.000, 0.000, 0.000, 16:12:59.886, 1578579179886
36, -168488.27, -168467.70, -168522.02, -168582.70, -168635.70, -145582.58, -168989.31, 176130.22, 0.000, 0.000, 0.000, 16:12:59.886, 1578579179886
37, -187500.02, -187500.02, -187500.02, 187500.00, -187500.02, 187500.00, -187500.02, -187500.02, 0.000, 0.000, 0.000, 16:12:59.886, 1578579179886
38, -168483.95, -168458.50, -168524.03, -168566.08, -168637.16, -145961.27, -168963.69, 176072.48, 0.000, 0.000, 0.000, 16:12:59.886, 1578579179886
39, -187500.02, -187500.02, -187500.02, 187500.00, -187500.02, 187500.00, -187500.02, -187500.02, 0.000, 0.000, 0.000, 16:12:59.886, 1578579179886
40, -168492.66, -168446.73, -168525.44, -168545.95, -168638.83, -146337.17, -168935.06, 176019.59, 0.000, 0.000, 0.000, 16:12:59.886, 1578579179886
41, -187500.02, -187500.02, -187500.02, 187500.00, -187500.02, 187500.00, -187500.02, -187500.02, -0.020, -0.016, 0.976, 16:12:59.886, 1578579179886
42, -168489.83, -168429.22, -168522.78, -168526.48, -168638.20, -146713.47, -168905.72, 175962.69, 0.000, 0.000, 0.000, 16:12:59.886, 1578579179886
43, -187500.02, -187500.02, -187500.02, 187500.00, -187500.02, 187500.00, -187500.02, -187500.02, 0.000, 0.000, 0.000, 16:12:59.887, 1578579179887
44, -168572.48, -168517.39, -168529.59, -168478.25, -168651.14, -147053.80, -168940.78, 175947.11, 0.000, 0.000, 0.000, 16:12:59.887, 1578579179887
45, -187500.02, -187500.02, -187500.02, 187500.00, -187500.02, 187500.00, -187500.02, -187500.02, 0.000, 0.000, 0.000, 16:12:59.887, 1578579179887
46, -168499.41, -168679.25, -168520.70, -168439.09, -168635.28, -147405.33, -169044.89, 175920.58, 0.000, 0.000, 0.000, 16:12:59.887, 1578579179887
47, -187500.02, -187500.02, -187500.02, 187500.00, -187500.02, 187500.00, -187500.02, -187500.02, 0.000, 0.000, 0.000, 16:12:59.887, 1578579179887
48, -168497.91, -168668.83, -168520.22, -168420.20, -168632.34, -147785.08, -169017.05, 175861.03, 0.000, 0.000, 0.000, 16:12:59.887, 1578579179887
49, -187500.02, -187500.02, -187500.02, 187500.00, -187500.02, 187500.00, -187500.02, -187500.02, 0.000, 0.000, 0.000, 16:12:59.887, 1578579179887
50, -168508.36, -168655.63, -168526.09, -168400.16, -168637.30, -148160.95, -168988.38, 175804.48, 0.000, 0.000, 0.000, 16:12:59.887, 1578579179887
51, -187500.02, -187500.02, -187500.02, 187500.00, -187500.02, 187500.00, -187500.02, -187500.02, -0.022, -0.018, 0.976, 16:12:59.887, 1578579179887
52, -168502.27, -168646.88, -168524.59, -168383.13, -168636.11, -148542.05, -168963.16, 175747.67, 0.000, 0.000, 0.000, 16:12:59.887, 1578579179887
53, -187500.02, -187500.02, -187500.02, 187500.00, -187500.02, 187500.00, -187500.02, -187500.02, 0.000, 0.000, 0.000, 16:12:59.887, 1578579179887
54, -168496.25, -168639.72, -168523.14, -168367.70, -168638.05, -148924.14, -168938.92, 175690.56, 0.000, 0.000, 0.000, 16:12:59.887, 1578579179887
55, -187500.02, -187500.02, -187500.02, 187500.00, -187500.02, 187500.00, -187500.02, -187500.02, 0.000, 0.000, 0.000, 16:12:59.887, 1578579179887
56, -168510.17, -168629.78, -168524.13, -168349.48, -168641.06, -149301.11, -168911.77, 175637.56, 0.000, 0.000, 0.000, 16:12:59.887, 1578579179887
57, -187500.02, -187500.02, -187500.02, 187500.00, -187500.02, 187500.00, -187500.02, -187500.02, 0.000, 0.000, 0.000, 16:12:59.887, 1578579179887
58, -168502.20, -168619.25, -168522.06, -168330.95, -168640.55, -149675.61, -168884.33, 175587.05, 0.000, 0.000, 0.000, 16:12:59.887, 1578579179887
59, -187500.02, -187500.02, -187500.02, 187500.00, -187500.02, 187500.00, -187500.02, -187500.02, 0.000, 0.000, 0.000, 16:12:59.887, 1578579179887
60, -168506.78, -168597.19, -168521.67, -168300.61, -168635.09, -150038.22, -169026.20, 175559.14, 0.000, 0.000, 0.000, 16:12:59.887, 1578579179887
61, -187500.02, -187500.02, -187500.02, 187500.00, -187500.02, 187500.00, -187500.02, -187500.02, -0.014, -0.014, 0.978, 16:12:59.888, 1578579179888
62, -168505.45, -168586.00, -168527.28, -168281.67, -168640.70, -150410.53, -169049.56, 175508.00, 0.000, 0.000, 0.000, 16:12:59.888, 1578579179888
63, -187500.02, -187500.02, -187500.02, 187500.00, -187500.02, 187500.00, -187500.02, -187500.02, 0.000, 0.000, 0.000, 16:12:59.888, 1578579179888
64, -168498.31, -168576.58, -168524.48, -168265.58, -168639.92, -150789.92, -169022.17, 175453.41, 0.000, 0.000, 0.000, 16:12:59.888, 1578579179888
65, -187500.02, -187500.02, -187500.02, 187500.00, -187500.02, 187500.00, -187500.02, -187500.02, 0.000, 0.000, 0.000, 16:12:59.888, 1578579179888
66, -168504.70, -168567.55, -168525.06, -168247.97, -168641.20, -151166.66, -168997.02, 175399.36, 0.000, 0.000, 0.000, 16:12:59.888, 1578579179888
67, -187500.02, -187500.02, -187500.02, 187500.00, -187500.02, 187500.00, -187500.02, -187500.02, 0.000, 0.000, 0.000, 16:12:59.888, 1578579179888
68, -168498.73, -168560.69, -168529.36, -168231.06, -168640.39, -151544.63, -168972.44, 175342.14, 0.000, 0.000, 0.000, 16:12:59.888, 1578579179888
69, -187500.02, -187500.02, -187500.02, 187500.00, -187500.02, 187500.00, -187500.02, -187500.02, 0.000, 0.000, 0.000, 16:12:59.888, 1578579179888
70, -168512.66, -168553.61, -168531.16, -168215.31, -168643.91, -151925.00, -168947.02, 175286.80, 0.000, 0.000, 0.000, 16:12:59.888, 1578579179888
71, -187500.02, -187500.02, -187500.02, 187500.00, -187500.02, 187500.00, -187500.02, -187500.02, -0.018, -0.018, 0.982, 16:12:59.888, 1578579179888
72, -168493.39, -168546.19, -168525.42, -168199.70, -168640.48, -152304.73, -168921.84, 175231.72, 0.000, 0.000, 0.000, 16:12:59.889, 1578579179889
73, -187500.02, -187500.02, -187500.02, 187500.00, -187500.02, 187500.00, -187500.02, -187500.02, 0.000, 0.000, 0.000, 16:12:59.889, 1578579179889
74, -168506.59, -168537.80, -168531.30, -168183.13, -168642.20, -152681.55, -168893.75, 175178.70, 0.000, 0.000, 0.000, 16:12:59.889, 1578579179889
75, -187500.02, -187500.02, -187500.02, 187500.00, -187500.02, 187500.00, -187500.02, -187500.02, 0.000, 0.000, 0.000, 16:12:59.889, 1578579179889
76, -168507.45, -168520.53, -168529.59, -168156.30, -168641.45, -153049.23, -168955.44, 175143.97, 0.000, 0.000, 0.000, 16:12:59.889, 1578579179889
77, -187500.02, -187500.02, -187500.02, 187500.00, -187500.02, 187500.00, -187500.02, -187500.02, 0.000, 0.000, 0.000, 16:12:59.889, 1578579179889
78, -168506.27, -168505.33, -168530.20, -168132.23, -168640.91, -153420.14, -169049.48, 175101.69, 0.000, 0.000, 0.000, 16:12:59.889, 1578579179889
79, -187500.02, -187500.02, -187500.02, 187500.00, -187500.02, 187500.00, -187500.02, -187500.02, 0.000, 0.000, 0.000, 16:12:59.889, 1578579179889
80, -168491.05, -168496.72, -168522.30, -168115.72, -168636.06, -153799.53, -169023.06, 175047.91, -0.014, -0.014, 0.980, 16:12:59.890, 1578579179890
81, -187500.02, -187500.02, -187500.02, 187500.00, -187500.02, 187500.00, -187500.02, -187500.02, 0.000, 0.000, 0.000, 16:12:59.890, 1578579179890
82, -168497.25, -168488.86, -168522.95, -168098.34, -168637.31, -154177.09, -168996.44, 174994.89, 0.000, 0.000, 0.000, 16:12:59.890, 1578579179890
83, -187500.02, -187500.02, -187500.02, 187500.00, -187500.02, 187500.00, -187500.02, -187500.02, 0.000, 0.000, 0.000, 16:12:59.890, 1578579179890
84, -168494.75, -168482.91, -168520.80, -168084.28, -168640.44, -154558.19, -168972.23, 174939.81, 0.000, 0.000, 0.000, 16:12:59.890, 1578579179890
85, -187500.02, -187500.02, -187500.02, 187500.00, -187500.02, 187500.00, -187500.02, -187500.02, 0.000, 0.000, 0.000, 16:12:59.890, 1578579179890
86, -168498.47, -168476.80, -168522.09, -168069.09, -168641.73, -154939.47, -168947.27, 174887.16, 0.000, 0.000, 0.000, 16:12:59.890, 1578579179890
87, -187500.02, -187500.02, -187500.02, 187500.00, -187500.02, 187500.00, -187500.02, -187500.02, 0.000, 0.000, 0.000, 16:12:59.890, 1578579179890
88, -168488.25, -168470.56, -168521.27, -168053.94, -168639.59, -155321.23, -168923.14, 174832.50, 0.000, 0.000, 0.000, 16:12:59.890, 1578579179890
89, -187500.02, -187500.02, -187500.02, 187500.00, -187500.02, 187500.00, -187500.02, -187500.02, 0.000, 0.000, 0.000, 16:12:59.890, 1578579179890
90, -168547.02, -168441.20, -168532.19, -167820.88, -168652.52, -155683.58, -168887.98, 174792.05, -0.014, -0.012, 0.976, 16:13:00.360, 1578579180360
91, -187500.02, -187500.02, -187500.02, 187500.00, -187500.02, 187500.00, -187500.02, -187500.02, 0.000, 0.000, 0.000, 16:13:00.360, 1578579180360
92, -168603.36, -168543.41, -168539.55, -168024.50, -168659.48, -155965.58, -168996.61, 174841.58, 0.000, 0.000, 0.000, 16:13:00.360, 1578579180360
93, -187500.02, -187500.02, -187500.02, 187500.00, -187500.02, 187500.00, -187500.02, -187500.02, 0.000, 0.000, 0.000, 16:13:00.360, 1578579180360
94, -168528.03, -168653.83, -168525.69, -168778.03, -168642.09, -156287.69, -168980.95, 174843.98, 0.000, 0.000, 0.000, 16:13:00.360, 1578579180360
95, -187500.02, -187500.02, -187500.02, 187500.00, -187500.02, 187500.00, -187500.02, -187500.02, 0.000, 0.000, 0.000, 16:13:00.360, 1578579180360
96, -168499.95, -168641.77, -168521.55, -169148.77, -168634.45, -156661.98, -168950.14, 174794.17, 0.000, 0.000, 0.000, 16:13:00.360, 1578579180360
97, -187500.02, -187500.02, -187500.02, 187500.00, -187500.02, 187500.00, -187500.02, -187500.02, 0.000, 0.000, 0.000, 16:13:00.360, 1578579180360
98, -168499.83, -168637.89, -168524.25, -169133.56, -168636.42, -157044.95, -168928.42, 174734.28, 0.000, 0.000, 0.000, 16:13:00.360, 1578579180360
99, -187500.02, -187500.02, -187500.02, 187500.00, -187500.02, 187500.00, -187500.02, -187500.02, 0.000, 0.000, 0.000, 16:13:00.360, 1578579180360
100, -168502.08, -168635.23, -168523.25, -169119.16, -168634.66, -157428.09, -168907.19, 174676.70, -0.008, -0.020, 0.976, 16:13:00.360, 1578579180360
101, -187500.02, -187500.02, -187500.02, 187500.00, -187500.02, 187500.00, -187500.02, -187500.02, 0.000, 0.000, 0.000, 16:13:00.360, 1578579180360
102, -168499.16, -168632.59, -168524.69, -169106.50, -168640.55, -157812.55, -168888.44, 174623.89, 0.000, 0.000, 0.000, 16:13:00.361, 1578579180361
103, -187500.02, -187500.02, -187500.02, 187500.00, -187500.02, 187500.00, -187500.02, -187500.02, 0.000, 0.000, 0.000, 16:13:00.361, 1578579180361
104, -168512.19, -168614.58, -168528.53, -169079.59, -168640.44, -158176.05, -169035.39, 174597.38, 0.000, 0.000, 0.000, 16:13:00.361, 1578579180361
105, -187500.02, -187500.02, -187500.02, 187500.00, -187500.02, 187500.00, -187500.02, -187500.02, 0.000, 0.000, 0.000, 16:13:00.361, 1578579180361
106, -168511.50, -168608.59, -168530.09, -169063.22, -168640.64, -158556.36, -169046.17, 174548.13, 0.000, 0.000, 0.000, 16:13:00.361, 1578579180361
107, -187500.02, -187500.02, -187500.02, 187500.00, -187500.02, 187500.00, -187500.02, -187500.02, 0.000, 0.000, 0.000, 16:13:00.361, 1578579180361
108, -168499.05, -168604.20, -168527.52, -169049.41, -168639.39, -158944.03, -169024.63, 174492.78, 0.000, 0.000, 0.000, 16:13:00.361, 1578579180361
109, -187500.02, -187500.02, -187500.02, 187500.00, -187500.02, 187500.00, -187500.02, -187500.02, 0.000, 0.000, 0.000, 16:13:00.361, 1578579180361
110, -168505.08, -168598.95, -168532.91, -169034.02, -168646.08, -159329.00, -169000.53, 174438.28, -0.006, -0.046, 0.998, 16:13:00.361, 1578579180361
111, -187500.02, -187500.02, -187500.02, 187500.00, -187500.02, 187500.00, -187500.02, -187500.02, 0.000, 0.000, 0.000, 16:13:00.361, 1578579180361
112, -168513.59, -168591.53, -168533.16, -169016.38, -168642.81, -159711.13, -168974.59, 174388.33, 0.000, 0.000, 0.000, 16:13:00.361, 1578579180361
113, -187500.02, -187500.02, -187500.02, 187500.00, -187500.02, 187500.00, -187500.02, -187500.02, 0.000, 0.000, 0.000, 16:13:00.361, 1578579180361
114, -168499.89, -168583.58, -168529.28, -168999.23, -168639.44, -160093.09, -168948.66, 174340.22, 0.000, 0.000, 0.000, 16:13:00.361, 1578579180361
115, -187500.02, -187500.02, -187500.02, 187500.00, -187500.02, 187500.00, -187500.02, -187500.02, 0.000, 0.000, 0.000, 16:13:00.361, 1578579180361
116, -168512.92, -168576.14, -168527.78, -168981.97, -168641.84, -160474.09, -168922.67, 174291.59, 0.000, 0.000, 0.000, 16:13:00.361, 1578579180361
117, -187500.02, -187500.02, -187500.02, 187500.00, -187500.02, 187500.00, -187500.02, -187500.02, 0.000, 0.000, 0.000, 16:13:00.361, 1578579180361
118, -168505.50, -168567.69, -168530.66, -168964.30, -168643.61, -160857.36, -168894.58, 174241.25, 0.000, 0.000, 0.000, 16:13:00.361, 1578579180361
119, -187500.02, -187500.02, -187500.02, 187500.00, -187500.02, 187500.00, -187500.02, -187500.02, -0.024, -0.034, 0.986, 16:13:00.362, 1578579180362
120, -168528.77, -168541.16, -168535.09, -168927.89, -168646.14, -161215.17, -169007.09, 174223.61, 0.000, 0.000, 0.000, 16:13:00.362, 1578579180362
121, -187500.02, -187500.02, -187500.02, 187500.00, -187500.02, 187500.00, -187500.02, -187500.02, 0.000, 0.000, 0.000, 16:13:00.362, 1578579180362
122, -168504.05, -168525.05, -168530.67, -168902.38, -168643.66, -161588.58, -169046.34, 174188.84, 0.000, 0.000, 0.000, 16:13:00.362, 1578579180362
123, -187500.02, -187500.02, -187500.02, 187500.00, -187500.02, 187500.00, -187500.02, -187500.02, 0.000, 0.000, 0.000, 16:13:00.362, 1578579180362
124, -168512.86, -168514.20, -168534.14, -168881.92, -168646.55, -161968.80, -169017.45, 174144.83, 0.000, 0.000, 0.000, 16:13:00.362, 1578579180362
125, -187500.02, -187500.02, -187500.02, 187500.00, -187500.02, 187500.00, -187500.02, -187500.02, 0.000, 0.000, 0.000, 16:13:00.362, 1578579180362
126, -168509.02, -168503.81, -168532.89, -168859.83, -168645.47, -162350.50, -168987.98, 174098.89, 0.000, 0.000, 0.000, 16:13:00.362, 1578579180362
127, -187500.02, -187500.02, -187500.02, 187500.00, -187500.02, 187500.00, -187500.02, -187500.02, 0.000, 0.000, 0.000, 16:13:00.362, 1578579180362
128, -168496.25, -168491.84, -168531.19, -168837.98, -168640.63, -162732.03, -168956.39, 174056.30, 0.000, 0.000, 0.000, 16:13:00.362, 1578579180362
129, -187500.02, -187500.02, -187500.02, 187500.00, -187500.02, 187500.00, -187500.02, -187500.02, -0.028, -0.042, 1.006, 16:13:00.362, 1578579180362
130, -168502.20, -168478.25, -168535.64, -168814.81, -168642.97, -163110.17, -168925.31, 174014.20, 0.000, 0.000, 0.000, 16:13:00.362, 1578579180362
131, -187500.02, -187500.02, -187500.02, 187500.00, -187500.02, 187500.00, -187500.02, -187500.02, 0.000, 0.000, 0.000, 16:13:00.362, 1578579180362
132, -168506.48, -168465.72, -168533.27, -168792.95, -168644.36, -163491.58, -168892.56, 173971.89, 0.000, 0.000, 0.000, 16:13:00.362, 1578579180362
133, -187500.02, -187500.02, -187500.02, 187500.00, -187500.02, 187500.00, -187500.02, -187500.02, 0.000, 0.000, 0.000, 16:13:00.362, 1578579180362
134, -168564.16, -168473.72, -168535.05, -168744.64, -168652.64, -163842.69, -168998.66, 173969.64, 0.000, 0.000, 0.000, 16:13:00.363, 1578579180363
135, -187500.02, -187500.02, -187500.02, 187500.00, -187500.02, 187500.00, -187500.02, -187500.02, 0.000, 0.000, 0.000, 16:13:00.363, 1578579180363
136, -168525.16, -168683.06, -168531.56, -168700.09, -168645.30, -164198.80, -169014.25, 173958.03, 0.000, 0.000, 0.000, 16:13:00.363, 1578579180363
137, -187500.02, -187500.02, -187500.02, 187500.00, -187500.02, 187500.00, -187500.02, -187500.02, 0.000, 0.000, 0.000, 16:13:00.363, 1578579180363
138, -168514.58, -168676.52, -168532.14, -168676.16, -168642.66, -164580.72, -168980.75, 173920.81, 0.000, 0.000, 0.000, 16:13:00.363, 1578579180363
139, -187500.02, -187500.02, -187500.02, 187500.00, -187500.02, 187500.00, -187500.02, -187500.02, -0.036, -0.032, 0.988, 16:13:00.363, 1578579180363
140, -168507.42, -168664.84, -168531.80, -168654.97, -168640.94, -164968.91, -168951.64, 173879.59, 0.000, 0.000, 0.000, 16:13:00.363, 1578579180363
141, -187500.02, -187500.02, -187500.02, 187500.00, -187500.02, 187500.00, -187500.02, -187500.02, 0.000, 0.000, 0.000, 16:13:00.363, 1578579180363
142, -168518.98, -168652.95, -168535.72, -168634.41, -168643.30, -165357.11, -168921.72, 173837.80, 0.000, 0.000, 0.000, 16:13:00.363, 1578579180363
143, -187500.02, -187500.02, -187500.02, 187500.00, -187500.02, 187500.00, -187500.02, -187500.02, 0.000, 0.000, 0.000, 16:13:00.365, 1578579180365
144, -168517.11, -168640.33, -168532.22, -168612.77, -168644.16, -165743.59, -168893.34, 173801.53, 0.000, 0.000, 0.000, 16:13:00.365, 1578579180365
145, -187500.02, -187500.02, -187500.02, 187500.00, -187500.02, 187500.00, -187500.02, -187500.02, 0.000, 0.000, 0.000, 16:13:00.365, 1578579180365
146, -168518.41, -168613.64, -168532.03, -168575.33, -168642.08, -166114.31, -169022.64, 173791.06, 0.000, 0.000, 0.000, 16:13:00.365, 1578579180365
147, -187500.02, -187500.02, -187500.02, 187500.00, -187500.02, 187500.00, -187500.02, -187500.02, 0.000, 0.000, 0.000, 16:13:00.365, 1578579180365
148, -168511.83, -168602.38, -168528.55, -168554.95, -168639.19, -166506.44, -169028.38, 173754.56, 0.000, 0.000, 0.000, 16:13:00.365, 1578579180365
149, -187500.02, -187500.02, -187500.02, 187500.00, -187500.02, 187500.00, -187500.02, -187500.02, -0.032, -0.022, 0.984, 16:13:00.365, 1578579180365
150, -168504.00, -168593.75, -168527.14, -168537.20, -168640.39, -166900.25, -169001.28, 173717.86, 0.000, 0.000, 0.000, 16:13:00.365, 1578579180365
151, -187500.02, -187500.02, -187500.02, 187500.00, -187500.02, 187500.00, -187500.02, -187500.02, 0.000, 0.000, 0.000, 16:13:00.365, 1578579180365
152, -168510.16, -168583.13, -168529.33, -168516.45, -168639.88, -167292.19, -168970.75, 173685.25, 0.000, 0.000, 0.000, 16:13:00.365, 1578579180365
153, -187500.02, -187500.02, -187500.02, 187500.00, -187500.02, 187500.00, -187500.02, -187500.02, 0.000, 0.000, 0.000, 16:13:00.365, 1578579180365
154, -168512.75, -168571.95, -168530.53, -168495.72, -168641.47, -167685.19, -168941.70, 173651.69, 0.000, 0.000, 0.000, 16:13:00.365, 1578579180365
155, -187500.02, -187500.02, -187500.02, 187500.00, -187500.02, 187500.00, -187500.02, -187500.02, 0.000, 0.000, 0.000, 16:13:00.365, 1578579180365
156, -168497.50, -168564.83, -168529.64, -168479.02, -168638.88, -168085.30, -168916.16, 173617.27, 0.000, 0.000, 0.000, 16:13:00.365, 1578579180365
157, -187500.02, -187500.02, -187500.02, 187500.00, -187500.02, 187500.00, -187500.02, -187500.02, 0.000, 0.000, 0.000, 16:13:00.365, 1578579180365
158, -168511.06, -168570.13, -168535.52, -168473.25, -168646.34, -168598.70, -168901.11, 173569.83, 0.000, 0.000, 0.000, 16:13:00.365, 1578579180365
159, -187500.02, -187500.02, -187500.02, 187500.00, -187500.02, 187500.00, -187500.02, -187500.02, -0.020, -0.022, 0.980, 16:13:00.365, 1578579180365
160, -168532.45, -168597.66, -168555.95, -168490.02, -168673.45, -168737.45, -168910.55, 173496.42, 0.000, 0.000, 0.000, 16:13:00.366, 1578579180366
161, -187500.02, -187500.02, -187500.02, 187500.00, -187500.02, 187500.00, -187500.02, -187500.02, 0.000, 0.000, 0.000, 16:13:00.366, 1578579180366
162, -168562.09, -168627.48, -168576.20, -168511.31, -168702.73, -168759.53, -168922.98, 173420.34, 0.000, 0.000, 0.000, 16:13:00.366, 1578579180366
163, -187500.02, -187500.02, -187500.02, 187500.00, -187500.02, 187500.00, -187500.02, -187500.02, 0.000, 0.000, 0.000, 16:13:00.366, 1578579180366
164, -168594.36, -168660.27, -168600.00, -168534.06, -168734.52, -168785.39, -168936.31, 173342.41, 0.000, 0.000, 0.000, 16:13:00.366, 1578579180366
165, -187500.02, -187500.02, -187500.02, 187500.00, -187500.02, 187500.00, -187500.02, -187500.02, 0.000, 0.000, 0.000, 16:13:00.366, 1578579180366
166, -168625.48, -168692.36, -168622.56, -168556.52, -168766.22, -168810.41, -168950.30, 173266.66, 0.000, 0.000, 0.000, 16:13:00.366, 1578579180366
167, -187500.02, -187500.02, -187500.02, 187500.00, -187500.02, 187500.00, -187500.02, -187500.02, 0.000, 0.000, 0.000, 16:13:00.366, 1578579180366
168, -168654.17, -168722.72, -168642.91, -168577.92, -168795.56, -168833.63, -168963.48, 173190.45, -0.014, -0.012, 0.970, 16:13:00.366, 1578579180366
169, -187500.02, -187500.02, -187500.02, 187500.00, -187500.02, 187500.00, -187500.02, -187500.02, 0.000, 0.000, 0.000, 16:13:00.366, 1578579180366
170, -168682.84, -168753.88, -168663.20, -168597.69, -168823.39, -168856.73, -168975.97, 173118.70, 0.000, 0.000, 0.000, 16:13:00.366, 1578579180366
171, -187500.02, -187500.02, -187500.02, 187500.00, -187500.02, 187500.00, -187500.02, -187500.02, 0.000, 0.000, 0.000, 16:13:00.366, 1578579180366
172, -168714.63, -168786.22, -168686.55, -168619.36, -168854.06, -168883.16, -168990.66, 173046.42, 0.000, 0.000, 0.000, 16:13:00.366, 1578579180366
173, -187500.02, -187500.02, -187500.02, 187500.00, -187500.02, 187500.00, -187500.02, -187500.02, 0.000, 0.000, 0.000, 16:13:00.366, 1578579180366
174, -168745.86, -168819.48, -168709.42, -168643.34, -168886.11, -168909.36, -169004.58, 172976.50, 0.000, 0.000, 0.000, 16:13:00.366, 1578579180366
175, -187500.02, -187500.02, -187500.02, 187500.00, -187500.02, 187500.00, -187500.02, -187500.02, 0.000, 0.000, 0.000, 16:13:00.366, 1578579180366
176, -168774.66, -168849.78, -168729.63, -168663.23, -168914.39, -168932.67, -169016.02, 172904.08, 0.000, 0.000, 0.000, 16:13:00.366, 1578579180366
177, -187500.02, -187500.02, -187500.02, 187500.00, -187500.02, 187500.00, -187500.02, -187500.02, 0.000, 0.000, 0.000, 16:13:00.366, 1578579180366
178, -168802.63, -168879.97, -168750.02, -168683.58, -168944.22, -168957.17, -169028.58, 172830.98, -0.014, -0.012, 0.974, 16:13:00.366, 1578579180366
179, -187500.02, -187500.02, -187500.02, 187500.00, -187500.02, 187500.00, -187500.02, -187500.02, 0.000, 0.000, 0.000, 16:13:00.366, 1578579180366
180, -168833.92, -168912.53, -168773.97, -168705.69, -168974.64, -168984.48, -169042.19, 172758.50, 0.000, 0.000, 0.000, 16:13:00.366, 1578579180366
181, -187500.02, -187500.02, -187500.02, 187500.00, -187500.02, 187500.00, -187500.02, -187500.02, 0.000, 0.000, 0.000, 16:13:00.366, 1578579180366
182, -168866.34, -168944.98, -168795.66, -168728.53, -169006.09, -169012.13, -169056.86, 172685.70, 0.000, 0.000, 0.000, 16:13:00.367, 1578579180367
183, -187500.02, -187500.02, -187500.02, 187500.00, -187500.02, 187500.00, -187500.02, -187500.02, 0.000, 0.000, 0.000, 16:13:00.367, 1578579180367
184, -168897.33, -168977.23, -168817.69, -168750.77, -169036.27, -169038.25, -169069.59, 172614.02, 0.000, 0.000, 0.000, 16:13:00.367, 1578579180367
185, -187500.02, -187500.02, -187500.02, 187500.00, -187500.02, 187500.00, -187500.02, -187500.02, 0.000, 0.000, 0.000, 16:13:00.367, 1578579180367
186, -168926.97, -169007.91, -168838.77, -168772.55, -169064.66, -169063.84, -169081.89, 172541.14, 0.000, 0.000, 0.000, 16:13:00.367, 1578579180367
187, -187500.02, -187500.02, -187500.02, 187500.00, -187500.02, 187500.00, -187500.02, -187500.02, 0.000, 0.000, 0.000, 16:13:00.367, 1578579180367
188, -168959.53, -169041.47, -168863.20, -168796.41, -169096.89, -169092.33, -169097.22, 172467.48, -0.012, -0.014, 0.976, 16:13:00.367, 1578579180367
189, -187500.02, -187500.02, -187500.02, 187500.00, -187500.02, 187500.00, -187500.02, -187500.02, 0.000, 0.000, 0.000, 16:13:00.367, 1578579180367
190, -168991.20, -169075.41, -168886.67, -168820.22, -169128.69, -169120.17, -169112.69, 172396.47, 0.000, 0.000, 0.000, 16:13:00.367, 1578579180367
191, -187500.02, -187500.02, -187500.02, 187500.00, -187500.02, 187500.00, -187500.02, -187500.02, 0.000, 0.000, 0.000, 16:13:00.367, 1578579180367
192, -169021.97, -169107.17, -168908.47, -168841.78, -169159.00, -169146.91, -169125.14, 172326.83, 0.000, 0.000, 0.000, 16:13:00.367, 1578579180367
193, -187500.02, -187500.02, -187500.02, 187500.00, -187500.02, 187500.00, -187500.02, -187500.02, 0.000, 0.000, 0.000, 16:13:00.367, 1578579180367
194, -169051.95, -169139.05, -168931.47, -168863.41, -169190.11, -169174.31, -169138.61, 172256.58, 0.000, 0.000, 0.000, 16:13:00.367, 1578579180367
195, -187500.02, -187500.02, -187500.02, 187500.00, -187500.02, 187500.00, -187500.02, -187500.02, 0.000, 0.000, 0.000, 16:13:00.367, 1578579180367
196, -169084.86, -169172.19, -168954.80, -168886.41, -169221.23, -169203.28, -169153.44, 172187.19, 0.000, 0.000, 0.000, 16:13:00.367, 1578579180367
197, -187500.02, -187500.02, -187500.02, 187500.00, -187500.02, 187500.00, -187500.02, -187500.02, 0.000, 0.000, 0.000, 16:13:00.367, 1578579180367
198, -169117.70, -169205.89, -168978.53, -168910.50, -169253.13, -169232.41, -169168.09, 172117.20, -0.016, -0.016, 0.974, 16:13:00.367, 1578579180367
199, -187500.02, -187500.02, -187500.02, 187500.00, -187500.02, 187500.00, -187500.02, -187500.02, 0.000, 0.000, 0.000, 16:13:00.367, 1578579180367
200, -169146.47, -169238.64, -169000.08, -168932.48, -169282.31, -169258.00, -169182.22, 172048.28, 0.000, 0.000, 0.000, 16:13:00.367, 1578579180367
201, -187500.02, -187500.02, -187500.02, 187500.00, -187500.02, 187500.00, -187500.02, -187500.02, 0.000, 0.000, 0.000, 16:13:00.367, 1578579180367
202, -169176.59, -169270.16, -169021.89, -168953.83, -169311.75, -169283.48, -169195.34, 171977.72, 0.000, 0.000, 0.000, 16:13:00.367, 1578579180367
203, -187500.02, -187500.02, -187500.02, 187500.00, -187500.02, 187500.00, -187500.02, -187500.02, 0.000, 0.000, 0.000, 16:13:00.368, 1578579180368
204, -169209.94, -169303.66, -169045.67, -168976.83, -169343.53, -169312.25, -169209.98, 171906.25, 0.000, 0.000, 0.000, 16:13:00.368, 1578579180368
205, -187500.02, -187500.02, -187500.02, 187500.00, -187500.02, 187500.00, -187500.02, -187500.02, 0.000, 0.000, 0.000, 16:13:00.368, 1578579180368
206, -169240.61, -169335.78, -169067.89, -168998.16, -169375.45, -169340.28, -169224.11, 171835.80, 0.000, 0.000, 0.000, 16:13:00.368, 1578579180368
207, -187500.02, -187500.02, -187500.02, 187500.00, -187500.02, 187500.00, -187500.02, -187500.02, -0.014, -0.016, 0.974, 16:13:00.368, 1578579180368
208, -169269.95, -169366.31, -169088.53, -169018.56, -169404.11, -169366.45, -169236.09, 171769.17, 0.000, 0.000, 0.000, 16:13:00.368, 1578579180368
209, -187500.02, -187500.02, -187500.02, 187500.00, -187500.02, 187500.00, -187500.02, -187500.02, 0.000, 0.000, 0.000, 16:13:00.368, 1578579180368
210, -169299.02, -169396.48, -169108.42, -169039.23, -169432.86, -169392.69, -169247.72, 171701.77, 0.000, 0.000, 0.000, 16:13:00.841, 1578579180841
211, -187500.02, -187500.02, -187500.02, 187500.00, -187500.02, 187500.00, -187500.02, -187500.02, 0.000, 0.000, 0.000, 16:13:00.842, 1578579180842
212, -169329.59, -169429.56, -169130.97, -169062.05, -169463.30, -169420.94, -169262.00, 171632.67, 0.000, 0.000, 0.000, 16:13:00.842, 1578579180842
213, -187500.02, -187500.02, -187500.02, 187500.00, -187500.02, 187500.00, -187500.02, -187500.02, 0.000, 0.000, 0.000, 16:13:00.842, 1578579180842
214, -169361.02, -169462.27, -169154.63, -169083.97, -169495.23, -169449.44, -169276.50, 171566.63, 0.000, 0.000, 0.000, 16:13:00.842, 1578579180842
215, -187500.02, -187500.02, -187500.02, 187500.00, -187500.02, 187500.00, -187500.02, -187500.02, 0.000, 0.000, 0.000, 16:13:00.842, 1578579180842
216, -169390.41, -169492.77, -169175.09, -169104.00, -169523.78, -169476.20, -169288.08, 171503.13, 0.000, 0.000, 0.000, 16:13:00.842, 1578579180842
217, -187500.02, -187500.02, -187500.02, 187500.00, -187500.02, 187500.00, -187500.02, -187500.02, -0.012, -0.010, 0.974, 16:13:00.842, 1578579180842
218, -169420.20, -169523.14, -169196.27, -169125.78, -169553.28, -169503.05, -169301.19, 171436.48, 0.000, 0.000, 0.000, 16:13:00.842, 1578579180842
219, -187500.02, -187500.02, -187500.02, 187500.00, -187500.02, 187500.00, -187500.02, -187500.02, 0.000, 0.000, 0.000, 16:13:00.842, 1578579180842
220, -169451.36, -169555.41, -169218.45, -169147.69, -169583.97, -169531.88, -169314.69, 171373.28, 0.000, 0.000, 0.000, 16:13:00.842, 1578579180842
221, -187500.02, -187500.02, -187500.02, 187500.00, -187500.02, 187500.00, -187500.02, -187500.02, 0.000, 0.000, 0.000, 16:13:00.842, 1578579180842
222, -169482.47, -169588.09, -169240.70, -169169.44, -169614.17, -169559.28, -169328.63, 171309.80, 0.000, 0.000, 0.000, 16:13:00.842, 1578579180842
223, -187500.02, -187500.02, -187500.02, 187500.00, -187500.02, 187500.00, -187500.02, -187500.02, 0.000, 0.000, 0.000, 16:13:00.842, 1578579180842
224, -169511.91, -169619.53, -169260.95, -169189.89, -169642.20, -169585.58, -169340.77, 171248.05, 0.000, 0.000, 0.000, 16:13:00.842, 1578579180842
225, -187500.02, -187500.02, -187500.02, 187500.00, -187500.02, 187500.00, -187500.02, -187500.02, 0.000, 0.000, 0.000, 16:13:00.843, 1578579180843
226, -169539.45, -169650.22, -169281.11, -169209.41, -169670.19, -169612.20, -169351.39, 171189.09, 0.000, 0.000, 0.000, 16:13:00.843, 1578579180843
227, -187500.02, -187500.02, -187500.02, 187500.00, -187500.02, 187500.00, -187500.02, -187500.02, -0.012, -0.008, 0.980, 16:13:00.843, 1578579180843
228, -169570.25, -169682.06, -169303.38, -169230.97, -169700.78, -169640.17, -169364.58, 171127.28, 0.000, 0.000, 0.000, 16:13:00.843, 1578579180843
229, -187500.02, -187500.02, -187500.02, 187500.00, -187500.02, 187500.00, -187500.02, -187500.02, 0.000, 0.000, 0.000, 16:13:00.843, 1578579180843
230, -169600.77, -169713.17, -169325.52, -169252.64, -169730.38, -169667.66, -169377.53, 171067.59, 0.000, 0.000, 0.000, 16:13:00.843, 1578579180843
231, -187500.02, -187500.02, -187500.02, 187500.00, -187500.02, 187500.00, -187500.02, -187500.02, 0.000, 0.000, 0.000, 16:13:00.843, 1578579180843
232, -169629.64, -169743.23, -169345.03, -169272.73, -169758.61, -169693.56, -169388.63, 171008.30, 0.000, 0.000, 0.000, 16:13:00.843, 1578579180843
233, -187500.02, -187500.02, -187500.02, 187500.00, -187500.02, 187500.00, -187500.02, -187500.02, 0.000, 0.000, 0.000, 16:13:00.843, 1578579180843
234, -169659.08, -169774.45, -169365.02, -169293.52, -169787.11, -169720.09, -169400.95, 170950.97, 0.000, 0.000, 0.000, 16:13:00.843, 1578579180843
235, -187500.02, -187500.02, -187500.02, 187500.00, -187500.02, 187500.00, -187500.02, -187500.02, 0.000, 0.000, 0.000, 16:13:00.843, 1578579180843
236, -169689.34, -169805.19, -169386.88, -169314.25, -169816.80, -169747.08, -169413.25, 170894.03, 0.000, 0.000, 0.000, 16:13:00.843, 1578579180843
237, -187500.02, -187500.02, -187500.02, 187500.00, -187500.02, 187500.00, -187500.02, -187500.02, -0.014, -0.014, 0.972, 16:13:00.843, 1578579180843
238, -169720.86, -169838.16, -169408.36, -169335.36, -169846.41, -169775.03, -169427.06, 170841.75, 0.000, 0.000, 0.000, 16:13:00.843, 1578579180843
239, -187500.02, -187500.02, -187500.02, 187500.00, -187500.02, 187500.00, -187500.02, -187500.02, 0.000, 0.000, 0.000, 16:13:00.843, 1578579180843
240, -169747.84, -169867.95, -169428.00, -169354.20, -169873.61, -169801.41, -169438.11, 170795.58, 0.000, 0.000, 0.000, 16:13:00.843, 1578579180843
241, -187500.02, -187500.02, -187500.02, 187500.00, -187500.02, 187500.00, -187500.02, -187500.02, 0.000, 0.000, 0.000, 16:13:00.843, 1578579180843
242, -169774.55, -169896.20, -169446.83, -169373.25, -169901.42, -169825.78, -169448.92, 170751.77, 0.000, 0.000, 0.000, 16:13:00.843, 1578579180843
243, -187500.02, -187500.02, -187500.02, 187500.00, -187500.02, 187500.00, -187500.02, -187500.02, 0.000, 0.000, 0.000, 16:13:00.843, 1578579180843
244, -169805.25, -169928.13, -169468.31, -169395.27, -169931.09, -169853.22, -169461.59, 170703.38, 0.000, 0.000, 0.000, 16:13:00.844, 1578579180844
245, -187500.02, -187500.02, -187500.02, 187500.00, -187500.02, 187500.00, -187500.02, -187500.02, 0.000, 0.000, 0.000, 16:13:00.844, 1578579180844
246, -169835.41, -169959.34, -169488.78, -169415.69, -169959.80, -169881.02, -169473.48, 170658.31, -0.018, -0.016, 0.976, 16:13:00.844, 1578579180844
247, -187500.02, -187500.02, -187500.02, 187500.00, -187500.02, 187500.00, -187500.02, -187500.02, 0.000, 0.000, 0.000, 16:13:00.844, 1578579180844
248, -169862.39, -169987.78, -169506.59, -169433.92, -169986.52, -169905.44, -169483.80, 170614.55, 0.000, 0.000, 0.000, 16:13:00.844, 1578579180844
249, -187500.02, -187500.02, -187500.02, 187500.00, -187500.02, 187500.00, -187500.02, -187500.02, 0.000, 0.000, 0.000, 16:13:00.844, 1578579180844
250, -169889.20, -170016.13, -169524.66, -169451.41, -170012.61, -169929.75, -169493.63, 170577.27, 0.000, 0.000, 0.000, 16:13:00.844, 1578579180844
251, -187500.02, -187500.02, -187500.02, 187500.00, -187500.02, 187500.00, -187500.02, -187500.02, 0.000, 0.000, 0.000, 16:13:00.844, 1578579180844
252, -169918.22, -170045.97, -169544.34, -169472.11, -170040.94, -169956.78, -169505.34, 170537.97, 0.000, 0.000, 0.000, 16:13:00.844, 1578579180844
253, -187500.02, -187500.02, -187500.02, 187500.00, -187500.02, 187500.00, -187500.02, -187500.02, 0.000, 0.000, 0.000, 16:13:00.844, 1578579180844
254, -169947.02, -170075.53, -169564.06, -169491.17, -170069.45, -169983.41, -169516.81, 170501.14, 0.000, 0.000, 0.000, 16:13:00.844, 1578579180844
255, -187500.02, -187500.02, -187500.02, 187500.00, -187500.02, 187500.00, -187500.02, -187500.02, 0.000, 0.000, 0.000, 16:13:00.844, 1578579180844
0, -169972.66, -170101.59, -169580.98, -169506.92, -170094.02, -170006.67, -169524.45, 170468.72, -0.018, -0.018, 0.978, 16:13:00.844, 1578579180844
1, -187500.02, -187500.02, -187500.02, 187500.00, -187500.02, 187500.00, -187500.02, -187500.02, 0.000, 0.000, 0.000, 16:13:00.844, 1578579180844
2, -169998.64, -170128.98, -169597.95, -169524.44, -170118.27, -170029.73, -169532.08, 170438.58, 0.000, 0.000, 0.000, 16:13:00.844, 1578579180844
3, -187500.02, -187500.02, -187500.02, 187500.00, -187500.02, 187500.00, -187500.02, -187500.02, 0.000, 0.000, 0.000, 16:13:00.844, 1578579180844
4, -170026.34, -170157.95, -169615.64, -169542.61, -170145.16, -170055.00, -169541.70, 170406.44, 0.000, 0.000, 0.000, 16:13:00.844, 1578579180844
5, -187500.02, -187500.02, -187500.02, 187500.00, -187500.02, 187500.00, -187500.02, -187500.02, 0.000, 0.000, 0.000, 16:13:00.844, 1578579180844
6, -170053.31, -170186.28, -169634.11, -169560.75, -170171.14, -170079.80, -169551.92, 170373.59, 0.000, 0.000, 0.000, 16:13:00.844, 1578579180844
7, -187500.02, -187500.02, -187500.02, 187500.00, -187500.02, 187500.00, -187500.02, -187500.02, 0.000, 0.000, 0.000, 16:13:00.845, 1578579180845
8, -170078.89, -170213.41, -169651.23, -169577.06, -170195.83, -170103.94, -169560.13, 170345.23, 0.000, 0.000, 0.000, 16:13:00.845, 1578579180845
9, -187500.02, -187500.02, -187500.02, 187500.00, -187500.02, 187500.00, -187500.02, -187500.02, 0.000, 0.000, 0.000, 16:13:00.845, 1578579180845
10, -170104.59, -170240.53, -169666.81, -169591.69, -170219.28, -170125.36, -169568.08, 170317.05, -0.014, -0.012, 0.974, 16:13:00.845, 1578579180845
11, -187500.02, -187500.02, -187500.02, 187500.00, -187500.02, 187500.00, -187500.02, -187500.02, 0.000, 0.000, 0.000, 16:13:00.845, 1578579180845
12, -170131.77, -170269.77, -169685.41, -169609.95, -170246.97, -170150.75, -169579.14, 170287.00, 0.000, 0.000, 0.000, 16:13:00.845, 1578579180845
13, -187500.02, -187500.02, -187500.02, 187500.00, -187500.02, 187500.00, -187500.02, -187500.02, 0.000, 0.000, 0.000, 16:13:00.845, 1578579180845
14, -170160.31, -170299.28, -169704.31, -169628.66, -170273.91, -170177.33, -169589.98, 170256.86, 0.000, 0.000, 0.000, 16:13:00.845, 1578579180845
15, -187500.02, -187500.02, -187500.02, 187500.00, -187500.02, 187500.00, -187500.02, -187500.02, 0.000, 0.000, 0.000, 16:13:00.845, 1578579180845
16, -170187.06, -170326.75, -169722.00, -169646.41, -170300.58, -170202.92, -169598.03, 170231.30, 0.000, 0.000, 0.000, 16:13:00.845, 1578579180845
17, -187500.02, -187500.02, -187500.02, 187500.00, -187500.02, 187500.00, -187500.02, -187500.02, 0.000, 0.000, 0.000, 16:13:00.845, 1578579180845
18, -170214.20, -170356.36, -169741.17, -169665.36, -170328.59, -170228.83, -169609.59, 170203.77, 0.000, 0.000, 0.000, 16:13:00.845, 1578579180845
19, -187500.02, -187500.02, -187500.02, 187500.00, -187500.02, 187500.00, -187500.02, -187500.02, 0.000, 0.000, 0.000, 16:13:00.845, 1578579180845
20, -170245.31, -170387.78, -169762.81, -169686.59, -170358.47, -170257.83, -169622.53, 170173.48, -0.010, -0.008, 0.976, 16:13:00.845, 1578579180845
21, -187500.02, -187500.02, -187500.02, 187500.00, -187500.02, 187500.00, -187500.02, -187500.02, 0.000, 0.000, 0.000, 16:13:00.845, 1578579180845
22, -170276.95, -170420.20, -169786.06, -169709.02, -170389.89, -170287.75, -169636.59, 170143.97, 0.000, 0.000, 0.000, 16:13:00.845, 1578579180845
23, -187500.02, -187500.02, -187500.02, 187500.00, -187500.02, 187500.00, -187500.02, -187500.02, 0.000, 0.000, 0.000, 16:13:00.845, 1578579180845
24, -170308.17, -170453.84, -169809.11, -169730.92, -170420.27, -170315.84, -169650.00, 170116.58, 0.000, 0.000, 0.000, 16:13:00.846, 1578579180846
25, -187500.02, -187500.02, -187500.02, 187500.00, -187500.02, 187500.00, -187500.02, -187500.02, 0.000, 0.000, 0.000, 16:13:00.846, 1578579180846
26, -170339.39, -170487.28, -169831.72, -169754.39, -170451.41, -170344.77, -169664.44, 170088.59, 0.000, 0.000, 0.000, 16:13:00.846, 1578579180846
27, -187500.02, -187500.02, -187500.02, 187500.00, -187500.02, 187500.00, -187500.02, -187500.02, 0.000, 0.000, 0.000, 16:13:00.846, 1578579180846
28, -170374.52, -170523.27, -169858.44, -169780.30, -170485.42, -170377.80, -169681.00, 170060.77, 0.000, 0.000, 0.000, 16:13:00.846, 1578579180846
29, -187500.02, -187500.02, -187500.02, 187500.00, -187500.02, 187500.00, -187500.02, -187500.02, -0.016, -0.008, 0.974, 16:13:00.846, 1578579180846
30, -170408.55, -170559.30, -169884.22, -169804.78, -170519.42, -170410.03, -169697.28, 170033.17, 0.000, 0.000, 0.000, 16:13:00.846, 1578579180846
31, -187500.02, -187500.02, -187500.02, 187500.00, -187500.02, 187500.00, -187500.02, -187500.02, 0.000, 0.000, 0.000, 16:13:00.846, 1578579180846
32, -170441.81, -170594.09, -169908.03, -169829.70, -170552.16, -170441.45, -169713.06, 170006.22, 0.000, 0.000, 0.000, 16:13:00.846, 1578579180846
33, -187500.02, -187500.02, -187500.02, 187500.00, -187500.02, 187500.00, -187500.02, -187500.02, 0.000, 0.000, 0.000, 16:13:00.846, 1578579180846
34, -170474.56, -170629.70, -169932.34, -169853.81, -170584.66, -170472.41, -169727.92, 169978.34, 0.000, 0.000, 0.000, 16:13:00.846, 1578579180846
35, -187500.02, -187500.02, -187500.02, 187500.00, -187500.02, 187500.00, -187500.02, -187500.02, 0.000, 0.000, 0.000, 16:13:00.846, 1578579180846
36, -170508.69, -170665.67, -169958.45, -169879.42, -170618.23, -170504.94, -169743.55, 169950.33, 0.000, 0.000, 0.000, 16:13:00.846, 1578579180846
37, -187500.02, -187500.02, -187500.02, 187500.00, -187500.02, 187500.00, -187500.02, -187500.02, 0.000, 0.000, 0.000, 16:13:00.847, 1578579180847
38, -170543.05, -170701.67, -169984.39, -169904.97, -170652.19, -170536.88, -169760.67, 169922.16, 0.000, 0.000, 0.000, 16:13:00.847, 1578579180847
39, -187500.02, -187500.02, -187500.02, 187500.00, -187500.02, 187500.00, -187500.02, -187500.02, -0.018, -0.010, 0.974, 16:13:00.847, 1578579180847
40, -170575.23, -170734.89, -170007.41, -169927.34, -170683.92, -170566.69, -169775.53, 169900.70, 0.000, 0.000, 0.000, 16:13:00.847, 1578579180847
