%OpenBCI Raw EEG Data
%Number of channels = 8
%Sample Rate = 250.0 Hz
%First Column = SampleIndex
%Last Column = Timestamp 
%Other Columns = EEG data in microvolts followed by Accel Data (in G) interleaved with Aux Data
0, -43214.19, -43255.39, -43221.63, -20367.71, -43274.77, 10174.94, -43416.72, -12830.26, 0.000, 0.000, 0.000, 16:30:28.838, 1578580228838
1, -40283.09, -3508.26, -13913.02, -3376.25, -66698.56, -76538.61, 2107.17, -93750.01, 0.002, -0.016, 0.976, 16:30:28.856, 1578580228856
2, -62992.46, -63024.65, -62962.52, -70093.88, -63092.29, -62811.11, -63363.08, 123604.27, 0.000, 0.000, 0.000, 16:30:29.336, 1578580229336
3, -80553.90, -7017.40, -27814.06, -6753.58, -133398.42, -153078.52, 4215.25, -187500.02, 0.000, 0.000, 0.000, 16:30:29.337, 1578580229337
4, -62994.57, -63036.16, -62962.92, -70089.21, -63085.16, -62729.23, -63345.76, 123603.38, 0.000, 0.000, 0.000, 16:30:29.337, 1578580229337
5, -80536.82, -7018.00, -27797.39, -6754.43, -133399.36, -153079.41, 4216.19, -187500.02, 0.000, 0.000, 0.000, 16:30:29.337, 1578580229337
6, -63054.87, -63122.20, -63056.73, -70092.25, -63166.18, -62985.94, -63436.06, 123600.05, 0.000, 0.000, 0.000, 16:30:29.337, 1578580229337
7, -80517.73, -7016.61, -27778.59, -6753.09, -133398.22, -153078.31, 4215.56, -187500.02, 0.000, 0.000, 0.000, 16:30:29.337, 1578580229337
8, -62950.87, -62949.06, -62910.64, -70076.78, -63025.26, -62815.51, -63276.40, 123597.79, 0.002, -0.014, 0.974, 16:30:29.337, 1578580229337
9, -80497.37, -7014.04, -27758.70, -6750.79, -133395.98, -153076.05, 4214.38, -187500.02, 0.000, 0.000, 0.000, 16:30:29.337, 1578580229337
10, -62888.69, -62923.58, -62850.51, -70064.85, -62967.05, -62631.22, -63267.84, 123598.91, 0.000, 0.000, 0.000, 16:30:29.337, 1578580229337
11, -80475.76, -7010.42, -27737.75, -6747.30, -133392.56, -153072.59, 4212.48, -187500.02, 0.000, 0.000, 0.000, 16:30:29.337, 1578580229337
12, -62916.49, -63000.51, -62913.07, -70060.87, -63003.95, -62677.15, -63368.49, 123597.45, 0.000, 0.000, 0.000, 16:30:29.338, 1578580229338
13, -80456.45, -7008.77, -27718.98, -6745.82, -133391.34, -153071.30, 4211.78, -187500.02, 0.000, 0.000, 0.000, 16:30:29.338, 1578580229338
14, -62927.45, -63038.09, -62947.76, -70061.09, -63025.30, -62808.73, -63405.48, 123595.62, 0.000, 0.000, 0.000, 16:30:29.338, 1578580229338
15, -80441.91, -7011.94, -27704.85, -6749.11, -133394.84, -153074.70, 4214.31, -187500.02, 0.000, 0.000, 0.000, 16:30:29.338, 1578580229338
16, -62930.02, -62970.58, -62919.84, -70056.20, -63017.88, -62743.82, -63331.34, 123594.10, 0.000, 0.000, 0.000, 16:30:29.338, 1578580229338
17, -80423.23, -7011.05, -27686.63, -6748.53, -133394.31, -153074.22, 4214.33, -187500.02, 0.000, -0.010, 0.978, 16:30:29.338, 1578580229338
18, -62894.81, -62877.73, -62843.38, -70045.34, -62976.26, -62586.94, -63230.42, 123593.84, 0.000, 0.000, 0.000, 16:30:29.338, 1578580229338
19, -80403.87, -7009.51, -27667.93, -6747.16, -133393.28, -153073.03, 4213.91, -187500.02, 0.000, 0.000, 0.000, 16:30:29.338, 1578580229338
20, -62899.21, -62913.92, -62869.84, -70041.23, -62988.67, -62626.79, -63281.65, 123593.79, 0.000, 0.000, 0.000, 16:30:29.338, 1578580229338
21, -80388.02, -7011.32, -27652.46, -6749.15, -133395.41, -153075.17, 4215.58, -187500.02, 0.000, 0.000, 0.000, 16:30:29.338, 1578580229338
22, -62893.45, -62933.97, -62879.03, -70041.87, -62986.10, -62898.16, -63300.59, 123593.74, 0.000, 0.000, 0.000, 16:30:29.338, 1578580229338
23, -80368.84, -7009.91, -27633.77, -6747.90, -133394.20, -153074.08, 4214.98, -187500.02, 0.000, 0.000, 0.000, 16:30:29.338, 1578580229338
24, -62889.09, -62919.40, -62865.35, -70034.07, -62983.97, -62820.80, -63294.19, 123590.05, 0.000, 0.000, 0.000, 16:30:29.338, 1578580229338
25, -80348.75, -7007.52, -27614.17, -6745.69, -133392.19, -153072.09, 4213.88, -187500.02, 0.000, 0.000, 0.000, 16:30:29.338, 1578580229338
26, -62885.89, -62925.37, -62858.98, -70024.77, -62962.58, -62686.23, -63288.40, 123589.25, 0.000, 0.000, 0.000, 16:30:29.339, 1578580229339
27, -80329.46, -7006.02, -27595.44, -6744.64, -133391.00, -153070.91, 4213.48, -187500.02, 0.000, -0.008, 0.974, 16:30:29.339, 1578580229339
28, -62882.41, -62926.86, -62859.81, -70021.80, -62981.27, -62635.57, -63286.93, 123588.34, 0.000, 0.000, 0.000, 16:30:29.339, 1578580229339
29, -80312.59, -7006.85, -27579.06, -6745.64, -133392.23, -153072.08, 4214.56, -187500.02, 0.000, 0.000, 0.000, 16:30:29.339, 1578580229339
30, -62867.07, -62814.46, -62813.85, -70011.72, -62937.08, -62472.63, -63186.88, 123586.97, 0.000, 0.000, 0.000, 16:30:29.339, 1578580229339
31, -80292.91, -7005.04, -27559.90, -6743.90, -133390.69, -153070.59, 4213.77, -187500.02, 0.000, 0.000, 0.000, 16:30:29.339, 1578580229339
32, -62936.18, -63055.70, -62940.34, -70014.34, -63044.75, -62829.23, -63439.77, 123586.19, 0.000, 0.000, 0.000, 16:30:29.339, 1578580229339
33, -80273.23, -7003.05, -27540.77, -6742.22, -133389.17, -153069.05, 4212.92, -187500.02, 0.000, 0.000, 0.000, 16:30:29.339, 1578580229339
34, -62923.42, -62947.74, -62885.67, -70005.10, -63006.93, -62767.34, -63321.51, 123584.55, 0.000, 0.000, 0.000, 16:30:29.339, 1578580229339
35, -80253.34, -7000.77, -27521.21, -6740.35, -133387.25, -153067.00, 4211.92, -187500.02, 0.000, 0.000, 0.000, 16:30:29.339, 1578580229339
36, -62874.81, -62941.97, -62858.18, -69997.15, -62981.63, -62686.23, -63294.73, 123580.40, 0.000, 0.000, 0.000, 16:30:29.340, 1578580229340
37, -80234.73, -7000.03, -27503.13, -6739.77, -133386.72, -153066.38, 4211.87, -187500.02, -0.002, -0.014, 0.972, 16:30:29.340, 1578580229340
38, -62834.21, -62861.93, -62808.51, -69989.05, -62928.29, -62552.16, -63204.54, 123580.27, 0.000, 0.000, 0.000, 16:30:29.340, 1578580229340
39, -80216.36, -6999.47, -27485.16, -6739.43, -133386.41, -153066.17, 4211.81, -187500.02, 0.000, 0.000, 0.000, 16:30:29.340, 1578580229340
40, -62856.88, -62967.68, -62857.44, -69987.58, -62964.39, -62667.27, -63286.55, 123579.95, 0.000, 0.000, 0.000, 16:30:29.340, 1578580229340
41, -80199.15, -7000.05, -27468.53, -6740.17, -133387.30, -153067.13, 4212.79, -187500.02, 0.000, 0.000, 0.000, 16:30:29.340, 1578580229340
42, -62890.45, -62931.29, -62859.59, -69983.20, -62984.31, -62653.93, -63244.57, 123577.65, 0.000, 0.000, 0.000, 16:30:29.340, 1578580229340
43, -80181.18, -6999.94, -27451.00, -6740.12, -133387.47, -153067.22, 4213.30, -187500.02, 0.000, 0.000, 0.000, 16:30:29.340, 1578580229340
44, -62891.57, -62984.04, -62874.79, -69979.87, -62992.27, -62647.38, -63305.12, 123576.17, 0.000, 0.000, 0.000, 16:30:29.340, 1578580229340
45, -80162.09, -6998.67, -27432.47, -6739.05, -133386.42, -153066.23, 4212.81, -187500.02, 0.000, 0.000, 0.000, 16:30:29.340, 1578580229340
46, -62818.08, -62828.94, -62768.19, -69965.80, -62881.22, -62464.21, -63160.68, 123576.17, 0.000, 0.000, 0.000, 16:30:29.341, 1578580229341
47, -80141.82, -6996.10, -27412.67, -6736.75, -133384.17, -153063.91, 4211.43, -187500.02, 0.004, -0.014, 0.972, 16:30:29.341, 1578580229341
48, -62840.00, -62896.78, -62833.30, -69965.31, -62933.48, -62727.53, -63243.52, 123576.48, 0.000, 0.000, 0.000, 16:30:29.341, 1578580229341
49, -80124.85, -6996.99, -27396.22, -6737.84, -133385.53, -153065.09, 4212.70, -187500.02, 0.000, 0.000, 0.000, 16:30:29.341, 1578580229341
50, -62848.57, -62933.43, -62853.73, -69963.04, -62951.77, -62725.70, -63269.92, 123573.11, 0.000, 0.000, 0.000, 16:30:29.341, 1578580229341
51, -80107.17, -6997.06, -27378.96, -6738.27, -133385.89, -153065.56, 4213.30, -187500.02, 0.000, 0.000, 0.000, 16:30:29.341, 1578580229341
52, -62832.14, -62911.96, -62814.55, -69956.45, -62921.41, -62631.64, -63249.78, 123572.64, 0.000, 0.000, 0.000, 16:30:29.341, 1578580229341
53, -80089.23, -6996.88, -27361.42, -6738.25, -133385.94, -153065.59, 4213.46, -187500.02, 0.000, 0.000, 0.000, 16:30:29.341, 1578580229341
54, -62787.64, -62830.86, -62774.38, -69948.24, -62888.71, -62520.22, -63166.74, 123569.29, 0.000, 0.000, 0.000, 16:30:29.341, 1578580229341
55, -80068.75, -6994.22, -27341.48, -6735.79, -133383.63, -153063.17, 4212.05, -187500.02, 0.000, 0.000, 0.000, 16:30:29.341, 1578580229341
56, -62775.88, -62822.97, -62744.74, -69939.39, -62856.99, -62669.68, -63179.21, 123568.15, -0.002, -0.014, 0.968, 16:30:29.341, 1578580229341
57, -80048.19, -6991.49, -27321.36, -6733.24, -133381.11, -153060.61, 4210.76, -187500.02, 0.000, 0.000, 0.000, 16:30:29.341, 1578580229341
58, -62776.97, -62802.88, -62747.00, -69934.18, -62860.08, -62696.84, -63172.27, 123567.73, 0.000, 0.000, 0.000, 16:30:29.341, 1578580229341
59, -80029.44, -6990.60, -27303.17, -6732.59, -133380.52, -153060.03, 4210.73, -187500.02, 0.000, 0.000, 0.000, 16:30:29.341, 1578580229341
60, -62782.74, -62824.49, -62750.20, -69927.90, -62857.98, -62601.87, -63188.36, 123567.05, 0.000, 0.000, 0.000, 16:30:29.342, 1578580229342
61, -80010.59, -6989.55, -27284.77, -6731.81, -133379.81, -153059.36, 4210.49, -187500.02, 0.000, 0.000, 0.000, 16:30:29.342, 1578580229342
62, -62761.06, -62813.54, -62741.84, -69921.48, -62837.34, -62486.42, -63185.25, 123565.60, 0.000, 0.000, 0.000, 16:30:29.342, 1578580229342
63, -79990.37, -6987.07, -27265.10, -6729.60, -133377.80, -153057.30, 4209.26, -187500.02, 0.000, 0.000, 0.000, 16:30:29.342, 1578580229342
64, -62806.57, -62972.37, -62821.99, -69920.01, -62895.59, -62661.19, -63317.13, 123564.75, 0.000, 0.000, 0.000, 16:30:29.342, 1578580229342
65, -79972.28, -6986.77, -27247.51, -6729.53, -133377.84, -153057.25, 4209.68, -187500.02, 0.000, 0.000, 0.000, 16:30:29.343, 1578580229343
66, -62771.27, -62864.70, -62750.55, -69910.48, -62842.91, -62605.80, -63198.48, 123564.15, 0.000, -0.014, 0.970, 16:30:29.343, 1578580229343
67, -79952.74, -6985.28, -27228.65, -6728.21, -133376.59, -153056.00, 4209.10, -187500.02, 0.000, 0.000, 0.000, 16:30:29.344, 1578580229344
68, -62769.48, -62824.56, -62744.12, -69904.59, -62855.90, -62520.38, -63168.57, 123562.05, 0.000, 0.000, 0.000, 16:30:29.344, 1578580229344
69, -79934.48, -6984.74, -27210.70, -6727.90, -133376.36, -153055.78, 4209.10, -187500.02, 0.000, 0.000, 0.000, 16:30:29.344, 1578580229344
70, -62758.20, -62784.53, -62716.38, -69895.73, -62833.99, -62513.74, -63128.30, 123561.22, 0.000, 0.000, 0.000, 16:30:29.344, 1578580229344
71, -79915.27, -6983.36, -27191.97, -6726.80, -133375.20, -153054.70, 4208.74, -187500.02, 0.000, 0.000, 0.000, 16:30:29.345, 1578580229345
72, -62767.03, -62808.45, -62756.03, -69896.80, -62868.53, -62768.50, -63146.89, 123561.09, 0.000, 0.000, 0.000, 16:30:29.345, 1578580229345
73, -79898.97, -6984.99, -27176.23, -6728.61, -133377.14, -153056.52, 4210.40, -187500.02, 0.000, 0.000, 0.000, 16:30:29.345, 1578580229345
74, -62795.82, -62841.39, -62754.02, -69893.32, -62881.80, -62712.67, -63200.70, 123559.52, 0.000, 0.000, 0.000, 16:30:29.345, 1578580229345
75, -79879.68, -6983.58, -27157.48, -6727.47, -133375.97, -153055.36, 4209.91, -187500.02, 0.000, 0.000, 0.000, 16:30:29.346, 1578580229346
76, -62754.22, -62808.36, -62725.05, -69884.25, -62843.38, -62586.63, -63173.56, 123558.83, -0.004, -0.012, 0.976, 16:30:29.346, 1578580229346
77, -79859.20, -6980.87, -27137.59, -6724.99, -133373.66, -153053.09, 4208.48, -187500.02, 0.000, 0.000, 0.000, 16:30:29.346, 1578580229346
78, -62709.00, -62762.11, -62691.21, -69873.45, -62794.25, -62529.29, -63121.26, 123556.82, 0.000, 0.000, 0.000, 16:30:29.346, 1578580229346
79, -79840.38, -6979.89, -27119.13, -6724.14, -133372.98, -153052.33, 4208.14, -187500.02, 0.000, 0.000, 0.000, 16:30:29.346, 1578580229346
80, -62756.23, -62833.30, -62747.67, -69875.87, -62859.34, -62826.08, -63184.54, 123554.80, 0.000, 0.000, 0.000, 16:30:29.346, 1578580229346
81, -79823.04, -6980.45, -27102.32, -6724.90, -133373.75, -153053.05, 4209.12, -187500.02, 0.000, 0.000, 0.000, 16:30:29.346, 1578580229346
82, -62725.30, -62732.47, -62688.48, -69866.48, -62803.66, -62682.25, -63091.71, 123554.83, 0.000, 0.000, 0.000, 16:30:29.347, 1578580229347
83, -79805.11, -6980.52, -27085.08, -6725.15, -133374.17, -153053.39, 4209.68, -187500.02, 0.000, 0.000, 0.000, 16:30:29.347, 1578580229347
84, -62752.30, -62806.81, -62757.46, -69865.63, -62860.41, -62673.30, -63171.37, 123551.66, 0.000, 0.000, 0.000, 16:30:29.347, 1578580229347
85, -79786.83, -6980.07, -27067.36, -6724.90, -133374.00, -153053.23, 4209.77, -187500.02, 0.000, 0.000, 0.000, 16:30:29.347, 1578580229347
86, -62673.69, -62683.92, -62663.07, -69856.24, -62769.35, -62549.28, -63044.77, 123550.36, -0.002, -0.012, 0.976, 16:30:29.347, 1578580229347
87, -79767.61, -6978.55, -27048.65, -6723.65, -133372.86, -153052.11, 4209.26, -187500.02, 0.000, 0.000, 0.000, 16:30:29.347, 1578580229347
88, -62686.52, -62698.14, -62660.16, -69847.61, -62769.55, -62508.64, -63057.58, 123547.85, 0.000, 0.000, 0.000, 16:30:29.347, 1578580229347
89, -79748.16, -6976.94, -27029.65, -6722.38, -133371.58, -153050.81, 4208.70, -187500.02, 0.000, 0.000, 0.000, 16:30:29.347, 1578580229347
90, -62679.39, -62686.20, -62666.55, -69843.03, -62789.63, -62514.34, -63033.35, 123546.27, 0.000, 0.000, 0.000, 16:30:29.348, 1578580229348
91, -79727.48, -6974.10, -27009.42, -6719.74, -133368.86, -153048.20, 4207.25, -187500.02, 0.000, 0.000, 0.000, 16:30:29.348, 1578580229348
92, -62705.92, -62716.96, -62682.71, -69834.09, -62786.23, -62519.41, -63100.98, 123545.58, 0.000, 0.000, 0.000, 16:30:29.348, 1578580229348
93, -79706.79, -6971.46, -26989.44, -6717.21, -133366.47, -153045.67, 4205.88, -187500.02, 0.000, 0.000, 0.000, 16:30:29.348, 1578580229348
94, -62700.80, -62703.37, -62666.27, -69828.97, -62796.15, -62488.90, -63053.00, 123545.55, 0.000, 0.000, 0.000, 16:30:29.348, 1578580229348
95, -79690.78, -6973.32, -26973.79, -6719.31, -133368.67, -153047.86, 4207.56, -187500.02, 0.000, -0.012, 0.978, 16:30:29.348, 1578580229348
96, -62759.47, -62775.97, -62757.57, -69832.63, -62880.20, -62506.94, -63163.37, 123544.23, 0.000, 0.000, 0.000, 16:30:29.348, 1578580229348
97, -79675.47, -6975.85, -26958.97, -6722.00, -133371.45, -153050.72, 4209.91, -187500.02, 0.000, 0.000, 0.000, 16:30:29.348, 1578580229348
98, -62701.71, -62765.39, -62716.47, -69827.05, -62824.05, -62423.48, -63110.08, 123542.83, 0.000, 0.000, 0.000, 16:30:29.348, 1578580229348
99, -79658.82, -6977.07, -26942.79, -6723.43, -133372.91, -153052.05, 4211.29, -187500.02, 0.000, 0.000, 0.000, 16:30:29.349, 1578580229349
100, -62675.68, -62747.02, -62656.54, -69819.47, -62763.43, -62303.61, -63042.45, 123542.29, 0.000, 0.000, 0.000, 16:30:29.349, 1578580229349
101, -79638.15, -6974.28, -26922.65, -6720.81, -133370.50, -153049.50, 4209.68, -187500.02, 0.000, 0.000, 0.000, 16:30:29.349, 1578580229349
102, -62701.43, -62808.45, -62681.91, -69813.48, -62778.27, -62437.81, -63096.13, 123540.75, 0.000, 0.000, 0.000, 16:30:29.349, 1578580229349
103, -79619.91, -6973.99, -26905.04, -6720.72, -133370.47, -153049.50, 4209.91, -187500.02, 0.000, 0.000, 0.000, 16:30:29.349, 1578580229349
104, -62651.11, -62756.03, -62633.48, -69808.32, -62754.11, -62422.72, -63035.34, 123538.80, 0.000, 0.000, 0.000, 16:30:29.349, 1578580229349
105, -79603.43, -6975.44, -26889.06, -6722.24, -133372.05, -153051.00, 4211.40, -187500.02, -0.004, -0.012, 0.972, 16:30:29.349, 1578580229349
106, -62664.54, -62709.02, -62654.66, -69806.98, -62773.20, -62378.26, -63034.73, 123538.18, 0.000, 0.000, 0.000, 16:30:29.349, 1578580229349
107, -79587.32, -6977.19, -26873.46, -6724.19, -133374.02, -153052.97, 4213.04, -187500.02, 0.000, 0.000, 0.000, 16:30:29.349, 1578580229349
108, -62627.82, -62571.89, -62594.05, -69794.62, -62696.08, -62196.27, -62961.87, 123536.48, 0.000, 0.000, 0.000, 16:30:29.350, 1578580229350
109, -79564.48, -6972.16, -26851.15, -6719.27, -133369.30, -153048.27, 4209.88, -187500.02, 0.000, 0.000, 0.000, 16:30:29.350, 1578580229350
110, -62702.18, -62733.66, -62699.61, -69794.75, -62797.22, -62614.34, -63130.33, 123535.31, 0.000, 0.000, 0.000, 16:30:29.350, 1578580229350
111, -79546.68, -6972.27, -26833.87, -6719.60, -133369.64, -153048.52, 4210.33, -187500.02, 0.000, 0.000, 0.000, 16:30:29.350, 1578580229350
112, -62635.49, -62674.96, -62640.07, -69789.41, -62747.65, -62657.08, -63047.92, 123534.69, 0.000, 0.000, 0.000, 16:30:29.350, 1578580229350
113, -79528.45, -6971.82, -26816.13, -6719.40, -133369.38, -153048.36, 4210.46, -187500.02, 0.000, 0.000, 0.000, 16:30:29.350, 1578580229350
114, -62598.18, -62657.59, -62585.48, -69782.55, -62703.52, -62571.76, -62964.84, 123532.73, 0.000, 0.000, 0.000, 16:30:29.350, 1578580229350
115, -79511.39, -6972.74, -26799.61, -6720.54, -133370.34, -153049.36, 4211.67, -187500.02, -0.002, -0.010, 0.974, 16:30:29.350, 1578580229350
116, -62625.00, -62662.38, -62599.12, -69778.88, -62722.26, -62501.49, -62994.21, 123531.63, 0.000, 0.000, 0.000, 16:30:29.350, 1578580229350
117, -79491.00, -6970.23, -26779.80, -6718.22, -133368.14, -153047.11, 4210.42, -187500.02, 0.000, 0.000, 0.000, 16:30:29.351, 1578580229351
118, -62630.70, -62663.18, -62591.86, -69767.13, -62699.08, -62359.80, -63003.06, 123529.44, 0.000, 0.000, 0.000, 16:30:29.351, 1578580229351
119, -79468.80, -6965.81, -26758.08, -6714.31, -133364.06, -153043.02, 4207.72, -187500.02, 0.000, 0.000, 0.000, 16:30:29.351, 1578580229351
120, -62620.78, -62758.11, -62627.08, -69766.32, -62728.78, -62556.90, -63112.25, 123528.92, 0.000, 0.000, 0.000, 16:30:29.351, 1578580229351
121, -79453.52, -6968.51, -26743.32, -6717.10, -133366.91, -153045.78, 4210.13, -187500.02, 0.000, 0.000, 0.000, 16:30:29.351, 1578580229351
122, -62597.04, -62686.80, -62580.16, -69762.07, -62691.25, -62492.26, -63037.01, 123528.25, 0.000, 0.000, 0.000, 16:30:29.816, 1578580229816
123, -79435.70, -6968.51, -26726.00, -6717.37, -133367.11, -153046.03, 4210.53, -187500.02, 0.000, 0.000, 0.000, 16:30:29.816, 1578580229816
124, -62667.94, -62772.88, -62676.30, -69760.89, -62775.74, -62473.19, -63124.03, 123525.08, 0.000, 0.000, 0.000, 16:30:29.816, 1578580229816
125, -79418.92, -6969.61, -26709.78, -6718.53, -133368.41, -153047.23, 4211.58, -187500.02, 0.000, -0.016, 0.976, 16:30:29.816, 1578580229816
126, -62607.64, -62708.75, -62599.72, -69751.16, -62686.80, -62356.09, -63062.41, 123522.71, 0.000, 0.000, 0.000, 16:30:29.816, 1578580229816
127, -79396.77, -6965.38, -26688.14, -6714.53, -133364.39, -153043.22, 4208.95, -187500.02, 0.000, 0.000, 0.000, 16:30:29.816, 1578580229816
128, -62606.36, -62649.21, -62545.90, -69738.00, -62654.91, -62218.11, -63017.84, 123521.81, 0.000, 0.000, 0.000, 16:30:29.817, 1578580229817
129, -79376.05, -6962.59, -26668.11, -6712.03, -133361.92, -153040.72, 4207.58, -187500.02, 0.000, 0.000, 0.000, 16:30:29.817, 1578580229817
130, -62644.98, -62734.30, -62629.72, -69740.13, -62735.40, -62567.87, -63095.46, 123521.52, 0.000, 0.000, 0.000, 16:30:29.817, 1578580229817
131, -79359.53, -6964.00, -26652.09, -6713.68, -133363.48, -153042.30, 4208.99, -187500.02, 0.000, 0.000, 0.000, 16:30:29.817, 1578580229817
132, -62597.94, -62664.23, -62582.40, -69733.75, -62677.78, -62482.67, -63013.03, 123521.03, 0.000, 0.000, 0.000, 16:30:29.817, 1578580229817
133, -79341.80, -6964.22, -26634.85, -6714.02, -133363.84, -153042.64, 4209.46, -187500.02, 0.000, 0.000, 0.000, 16:30:29.817, 1578580229817
134, -62610.86, -62640.45, -62575.41, -69726.69, -62688.77, -62393.84, -62982.05, 123518.75, 0.000, -0.014, 0.980, 16:30:29.817, 1578580229817
135, -79323.61, -6964.00, -26617.22, -6713.90, -133363.84, -153042.66, 4209.75, -187500.02, 0.000, 0.000, 0.000, 16:30:29.817, 1578580229817
136, -62633.72, -62680.95, -62600.98, -69725.03, -62706.36, -62356.34, -63037.57, 123517.14, 0.000, 0.000, 0.000, 16:30:29.817, 1578580229817
137, -79305.23, -6963.53, -26599.31, -6713.52, -133363.69, -153042.33, 4209.77, -187500.02, 0.000, 0.000, 0.000, 16:30:29.817, 1578580229817
138, -62577.35, -62598.72, -62541.99, -69713.41, -62635.66, -62214.02, -62958.43, 123516.65, 0.000, 0.000, 0.000, 16:30:29.817, 1578580229817
139, -79284.27, -6960.42, -26578.79, -6710.73, -133360.72, -153039.45, 4208.07, -187500.02, 0.000, 0.000, 0.000, 16:30:29.818, 1578580229818
140, -62569.39, -62575.98, -62532.47, -69706.93, -62647.36, -62316.73, -62972.08, 123516.32, 0.000, 0.000, 0.000, 16:30:29.818, 1578580229818
141, -79265.25, -6959.28, -26560.33, -6709.77, -133359.88, -153038.56, 4207.60, -187500.02, 0.000, 0.000, 0.000, 16:30:29.818, 1578580229818
142, -62572.70, -62599.86, -62540.94, -69703.73, -62668.72, -62537.23, -62967.57, 123514.35, 0.000, 0.000, 0.000, 16:30:29.818, 1578580229818
143, -79245.78, -6957.76, -26541.51, -6708.54, -133358.59, -153037.31, 4206.91, -187500.02, 0.000, 0.000, 0.000, 16:30:29.818, 1578580229818
144, -62577.71, -62598.56, -62557.64, -69697.95, -62676.39, -62475.38, -62939.61, 123511.69, 0.000, -0.016, 0.972, 16:30:29.818, 1578580229818
145, -79227.16, -6957.11, -26523.38, -6708.03, -133357.97, -153036.72, 4206.84, -187500.02, 0.000, 0.000, 0.000, 16:30:29.818, 1578580229818
146, -62530.43, -62529.47, -62490.00, -69687.44, -62620.98, -62336.51, -62873.93, 123510.53, 0.000, 0.000, 0.000, 16:30:29.818, 1578580229818
147, -79207.12, -6955.01, -26503.76, -6706.10, -133356.06, -153034.81, 4205.86, -187500.02, 0.000, 0.000, 0.000, 16:30:29.818, 1578580229818
148, -62516.48, -62548.54, -62480.63, -69679.73, -62601.91, -62197.57, -62910.91, 123512.12, 0.000, 0.000, 0.000, 16:30:29.818, 1578580229818
149, -79186.95, -6952.67, -26484.16, -6703.91, -133354.03, -153032.59, 4204.61, -187500.02, 0.000, 0.000, 0.000, 16:30:29.818, 1578580229818
150, -62511.10, -62577.48, -62484.99, -69675.44, -62612.33, -62467.34, -62944.66, 123512.59, 0.000, 0.000, 0.000, 16:30:29.818, 1578580229818
151, -79167.91, -6951.62, -26465.63, -6702.95, -133353.14, -153031.69, 4204.25, -187500.02, 0.000, 0.000, 0.000, 16:30:29.819, 1578580229819
152, -62523.39, -62540.54, -62510.12, -69670.79, -62629.43, -62449.03, -62902.52, 123507.58, 0.000, 0.000, 0.000, 16:30:29.819, 1578580229819
153, -79150.56, -6952.35, -26448.93, -6704.00, -133354.09, -153032.69, 4205.30, -187500.02, 0.000, 0.000, 0.000, 16:30:29.819, 1578580229819
154, -62513.80, -62512.57, -62501.78, -69666.81, -62614.36, -62391.34, -62872.50, 123505.45, 0.002, -0.016, 0.972, 16:30:29.819, 1578580229819
155, -79132.77, -6952.49, -26431.54, -6704.29, -133354.39, -153032.91, 4205.99, -187500.02, 0.000, 0.000, 0.000, 16:30:29.820, 1578580229820
156, -62570.31, -62631.48, -62571.80, -69667.52, -62672.41, -62385.97, -62976.13, 123503.40, 0.000, 0.000, 0.000, 16:30:29.820, 1578580229820
157, -79117.71, -6955.37, -26417.06, -6707.36, -133357.56, -153036.02, 4208.45, -187500.02, 0.000, 0.000, 0.000, 16:30:29.820, 1578580229820
158, -62520.64, -62550.17, -62511.43, -69658.36, -62614.50, -62270.71, -62923.27, 123501.68, 0.000, 0.000, 0.000, 16:30:29.820, 1578580229820
159, -79096.63, -6952.11, -26396.54, -6704.45, -133354.53, -153032.91, 4206.42, -187500.02, 0.000, 0.000, 0.000, 16:30:29.820, 1578580229820
160, -62480.90, -62462.51, -62454.21, -69648.13, -62564.86, -62102.06, -62808.49, 123501.19, 0.000, 0.000, 0.000, 16:30:29.821, 1578580229821
161, -79078.16, -6951.57, -26378.59, -6704.14, -133354.22, -153032.63, 4206.62, -187500.02, 0.000, 0.000, 0.000, 16:30:29.821, 1578580229821
162, -62553.43, -62601.04, -62549.61, -69647.34, -62633.96, -62331.48, -62961.00, 123501.74, 0.000, 0.000, 0.000, 16:30:29.821, 1578580229821
163, -79058.81, -6950.25, -26359.70, -6703.06, -133352.94, -153031.50, 4206.15, -187500.02, 0.000, 0.000, 0.000, 16:30:29.821, 1578580229821
164, -62503.99, -62516.96, -62486.22, -69639.59, -62595.93, -62310.89, -62871.32, 123499.84, -0.002, -0.014, 0.970, 16:30:29.821, 1578580229821
165, -79038.60, -6947.91, -26340.08, -6701.01, -133351.02, -153029.33, 4204.83, -187500.02, 0.000, 0.000, 0.000, 16:30:29.821, 1578580229821
166, -62493.98, -62457.68, -62462.42, -69631.00, -62563.74, -62172.43, -62819.80, 123498.23, 0.000, 0.000, 0.000, 16:30:29.821, 1578580229821
167, -79020.32, -6947.73, -26322.44, -6700.94, -133350.97, -153029.27, 4205.03, -187500.02, 0.000, 0.000, 0.000, 16:30:29.821, 1578580229821
168, -62515.30, -62558.86, -62542.04, -69634.60, -62627.08, -62445.52, -62913.74, 123498.05, 0.000, 0.000, 0.000, 16:30:29.821, 1578580229821
169, -79006.06, -6951.48, -26308.67, -6704.81, -133354.91, -153033.16, 4208.27, -187500.02, 0.000, 0.000, 0.000, 16:30:29.821, 1578580229821
170, -62481.62, -62469.77, -62449.05, -69624.70, -62558.60, -62354.26, -62818.64, 123497.66, 0.000, 0.000, 0.000, 16:30:29.822, 1578580229822
171, -78983.91, -6947.28, -26287.06, -6700.78, -133350.95, -153029.16, 4205.68, -187500.02, 0.000, 0.000, 0.000, 16:30:29.822, 1578580229822
172, -62475.27, -62477.84, -62442.03, -69617.63, -62564.30, -62274.53, -62807.66, 123493.63, 0.000, 0.000, 0.000, 16:30:29.822, 1578580229822
173, -78965.67, -6947.03, -26269.36, -6700.72, -133350.80, -153029.06, 4205.88, -187500.02, 0.002, -0.016, 0.976, 16:30:29.822, 1578580229822
174, -62506.59, -62546.48, -62474.84, -69615.60, -62590.56, -62314.79, -62908.85, 123494.81, 0.000, 0.000, 0.000, 16:30:29.822, 1578580229822
175, -78950.77, -6950.01, -26254.98, -6703.94, -133354.02, -153032.28, 4208.41, -187500.02, 0.000, 0.000, 0.000, 16:30:29.822, 1578580229822
176, -62539.38, -62634.91, -62532.82, -69618.66, -62637.81, -62508.37, -62997.79, 123492.09, 0.000, 0.000, 0.000, 16:30:29.822, 1578580229822
177, -78931.70, -6948.64, -26236.21, -6702.77, -133352.83, -153031.06, 4207.78, -187500.02, 0.000, 0.000, 0.000, 16:30:29.822, 1578580229822
178, -62476.90, -62521.83, -62451.11, -69603.20, -62540.11, -62325.38, -62897.45, 123489.14, 0.000, 0.000, 0.000, 16:30:29.822, 1578580229822
179, -78908.85, -6943.97, -26214.08, -6698.26, -133348.33, -153026.45, 4204.72, -187500.02, 0.000, 0.000, 0.000, 16:30:29.822, 1578580229822
180, -62448.00, -62482.27, -62424.20, -69594.79, -62520.06, -62192.95, -62859.79, 123487.62, 0.000, 0.000, 0.000, 16:30:29.822, 1578580229822
181, -78890.28, -6943.50, -26195.91, -6697.88, -133347.84, -153025.95, 4204.68, -187500.02, 0.000, 0.000, 0.000, 16:30:29.823, 1578580229823
182, -62487.72, -62588.61, -62483.32, -69594.14, -62579.63, -62470.55, -62918.91, 123486.81, 0.000, 0.000, 0.000, 16:30:29.823, 1578580229823
183, -78871.63, -6942.76, -26177.85, -6697.36, -133347.42, -153025.52, 4204.70, -187500.02, 0.002, -0.014, 0.976, 16:30:29.823, 1578580229823
184, -62430.81, -62504.82, -62412.50, -69586.79, -62538.59, -62460.52, -62823.33, 123485.25, 0.000, 0.000, 0.000, 16:30:29.823, 1578580229823
185, -78854.02, -6943.26, -26160.88, -6697.95, -133348.05, -153025.98, 4205.46, -187500.02, 0.000, 0.000, 0.000, 16:30:29.823, 1578580229823
186, -62411.86, -62485.53, -62396.99, -69581.58, -62526.21, -62371.89, -62818.57, 123483.86, 0.000, 0.000, 0.000, 16:30:29.823, 1578580229823
187, -78837.39, -6944.49, -26144.63, -6699.44, -133349.41, -153027.44, 4206.82, -187500.02, 0.000, 0.000, 0.000, 16:30:29.823, 1578580229823
188, -62401.93, -62434.75, -62367.09, -69574.14, -62483.00, -62263.02, -62815.98, 123483.26, 0.000, 0.000, 0.000, 16:30:29.823, 1578580229823
189, -78817.44, -6942.47, -26125.23, -6697.70, -133347.64, -153025.72, 4205.75, -187500.02, 0.000, 0.000, 0.000, 16:30:29.823, 1578580229823
190, -62394.00, -62440.80, -62385.13, -69573.11, -62510.41, -62214.43, -62840.07, 123483.08, 0.000, 0.000, 0.000, 16:30:29.823, 1578580229823
191, -78803.95, -6946.97, -26112.29, -6702.28, -133352.31, -153030.30, 4209.15, -187500.02, 0.000, 0.000, 0.000, 16:30:29.824, 1578580229824
192, -62392.21, -62423.95, -62383.56, -69568.93, -62499.88, -62298.49, -62810.41, 123480.09, 0.000, 0.000, 0.000, 16:30:29.824, 1578580229824
193, -78782.45, -6943.46, -26091.26, -6698.86, -133348.92, -153026.86, 4206.93, -187500.02, 0.000, -0.012, 0.978, 16:30:29.824, 1578580229824
194, -62431.66, -62447.33, -62383.89, -69561.82, -62503.79, -62307.05, -62820.16, 123476.58, 0.000, 0.000, 0.000, 16:30:29.824, 1578580229824
195, -78764.93, -6943.86, -26074.29, -6699.49, -133349.41, -153027.33, 4207.65, -187500.02, 0.000, 0.000, 0.000, 16:30:29.824, 1578580229824
196, -62426.12, -62431.10, -62388.54, -69557.40, -62517.36, -62228.75, -62788.06, 123475.79, 0.000, 0.000, 0.000, 16:30:29.824, 1578580229824
197, -78745.23, -6942.14, -26055.23, -6697.88, -133347.70, -153025.69, 4206.58, -187500.02, 0.000, 0.000, 0.000, 16:30:29.824, 1578580229824
198, -62379.56, -62392.19, -62373.34, -69548.97, -62480.79, -62129.62, -62737.75, 123472.95, 0.000, 0.000, 0.000, 16:30:29.824, 1578580229824
199, -78728.43, -6943.28, -26038.91, -6699.11, -133349.05, -153026.94, 4207.78, -187500.02, 0.000, 0.000, 0.000, 16:30:29.824, 1578580229824
200, -62419.52, -62435.26, -62398.34, -69548.73, -62508.11, -62086.48, -62784.13, 123471.86, 0.000, 0.000, 0.000, 16:30:29.824, 1578580229824
201, -78713.19, -6945.98, -26024.25, -6702.08, -133351.89, -153029.88, 4210.24, -187500.02, 0.000, 0.000, 0.000, 16:30:29.824, 1578580229824
202, -62400.91, -62464.85, -62381.77, -69546.63, -62505.20, -62311.14, -62812.47, 123473.42, 0.000, 0.000, 0.000, 16:30:29.824, 1578580229824
203, -78694.23, -6945.04, -26005.83, -6701.32, -133351.17, -153029.02, 4209.97, -187500.02, 0.000, -0.010, 0.980, 16:30:29.824, 1578580229824
204, -62420.80, -62458.53, -62370.66, -69538.53, -62498.94, -62347.11, -62796.55, 123469.73, 0.000, 0.000, 0.000, 16:30:29.824, 1578580229824
205, -78672.46, -6941.24, -25984.62, -6697.66, -133347.44, -153025.38, 4207.56, -187500.02, 0.000, 0.000, 0.000, 16:30:29.825, 1578580229825
206, -62385.35, -62403.95, -62355.35, -69530.75, -62477.86, -62232.84, -62740.56, 123468.17, 0.000, 0.000, 0.000, 16:30:29.825, 1578580229825
207, -78654.73, -6941.40, -25967.36, -6698.01, -133347.75, -153025.64, 4207.85, -187500.02, 0.000, 0.000, 0.000, 16:30:29.825, 1578580229825
208, -62393.98, -62388.14, -62358.04, -69524.20, -62477.35, -62133.98, -62740.41, 123466.20, 0.000, 0.000, 0.000, 16:30:29.825, 1578580229825
209, -78634.66, -6939.41, -25947.89, -6696.22, -133345.89, -153023.72, 4206.84, -187500.02, 0.000, 0.000, 0.000, 16:30:29.825, 1578580229825
210, -62381.93, -62448.02, -62362.21, -69519.22, -62474.46, -62186.26, -62806.57, 123466.38, 0.000, 0.000, 0.000, 16:30:29.826, 1578580229826
211, -78615.40, -6938.09, -25929.14, -6695.08, -133344.64, -153022.50, 4206.40, -187500.02, 0.000, 0.000, 0.000, 16:30:29.826, 1578580229826
212, -62374.24, -62423.10, -62334.23, -69511.02, -62445.03, -62100.09, -62745.43, 123465.78, 0.000, 0.000, 0.000, 16:30:29.826, 1578580229826
213, -78595.37, -6936.19, -25909.69, -6693.23, -133342.75, -153020.64, 4205.19, -187500.02, -0.002, -0.012, 0.974, 16:30:29.826, 1578580229826
214, -62403.54, -62419.64, -62370.30, -69506.39, -62469.46, -62240.71, -62770.00, 123466.18, 0.000, 0.000, 0.000, 16:30:29.827, 1578580229827
215, -78578.05, -6936.93, -25892.95, -6694.08, -133343.59, -153021.36, 4205.97, -187500.02, 0.000, 0.000, 0.000, 16:30:29.828, 1578580229828
216, -62396.48, -62480.68, -62411.66, -69507.44, -62510.36, -62428.89, -62831.33, 123462.92, 0.000, 0.000, 0.000, 16:30:29.828, 1578580229828
217, -78559.00, -6935.79, -25874.40, -6693.21, -133342.70, -153020.50, 4205.66, -187500.02, 0.000, 0.000, 0.000, 16:30:29.828, 1578580229828
218, -62335.32, -62385.15, -62317.93, -69493.83, -62417.63, -62283.87, -62725.00, 123459.03, 0.000, 0.000, 0.000, 16:30:29.829, 1578580229829
219, -78539.58, -6934.27, -25855.38, -6691.93, -133341.27, -153019.13, 4205.06, -187500.02, 0.000, 0.000, 0.000, 16:30:29.829, 1578580229829
220, -62362.91, -62452.92, -62348.29, -69491.66, -62460.70, -62206.91, -62802.72, 123460.26, 0.000, 0.000, 0.000, 16:30:29.829, 1578580229829
221, -78521.07, -6933.82, -25837.45, -6691.55, -133340.95, -153018.72, 4204.97, -187500.02, 0.000, 0.000, 0.000, 16:30:29.829, 1578580229829
222, -62315.34, -62423.48, -62311.21, -69483.97, -62415.05, -62102.96, -62777.18, 123459.07, 0.000, -0.014, 0.980, 16:30:29.829, 1578580229829
223, -78502.74, -6933.58, -25819.77, -6691.46, -133340.83, -153018.50, 4205.03, -187500.02, 0.000, 0.000, 0.000, 16:30:29.829, 1578580229829
224, -62340.33, -62361.01, -62327.30, -69479.48, -62435.44, -62043.77, -62714.93, 123456.91, 0.000, 0.000, 0.000, 16:30:29.829, 1578580229829
225, -78484.46, -6933.29, -25801.98, -6691.35, -133340.58, -153018.25, 4205.30, -187500.02, 0.000, 0.000, 0.000, 16:30:29.829, 1578580229829
226, -62303.25, -62233.65, -62248.22, -69465.40, -62360.83, -61892.20, -62611.53, 123456.59, 0.000, 0.000, 0.000, 16:30:29.829, 1578580229829
227, -78461.59, -6928.41, -25779.70, -6686.68, -133335.84, -153013.44, 4202.26, -187500.02, 0.000, 0.000, 0.000, 16:30:29.829, 1578580229829
228, -62356.94, -62364.92, -62316.77, -69463.41, -62430.84, -62323.37, -62745.97, 123455.68, 0.000, 0.000, 0.000, 16:30:29.829, 1578580229829
229, -78442.39, -6927.23, -25761.05, -6685.70, -133334.91, -153012.45, 4201.66, -187500.02, 0.000, 0.000, 0.000, 16:30:29.829, 1578580229829
230, -62389.35, -62437.63, -62364.58, -69461.84, -62476.48, -62336.00, -62802.61, 123452.32, 0.000, 0.000, 0.000, 16:30:29.830, 1578580229830
231, -78424.87, -6927.65, -25744.04, -6686.32, -133335.55, -153013.13, 4202.26, -187500.02, 0.000, 0.000, 0.000, 16:30:29.830, 1578580229830
232, -62367.98, -62389.75, -62355.64, -69459.95, -62465.70, -62291.36, -62748.88, 123451.36, 0.002, -0.018, 0.982, 16:30:29.830, 1578580229830
233, -78411.21, -6932.15, -25731.04, -6690.95, -133340.05, -153017.72, 4206.04, -187500.02, 0.000, 0.000, 0.000, 16:30:29.830, 1578580229830
234, -62348.56, -62331.32, -62292.10, -69453.77, -62416.17, -62192.96, -62696.91, 123451.05, 0.000, 0.000, 0.000, 16:30:29.830, 1578580229830
235, -78391.92, -6930.96, -25712.46, -6689.97, -133338.97, -153016.50, 4205.66, -187500.02, 0.000, 0.000, 0.000, 16:30:29.830, 1578580229830
236, -62313.73, -62389.91, -62290.44, -69447.96, -62401.29, -62111.32, -62760.46, 123449.30, 0.000, 0.000, 0.000, 16:30:29.830, 1578580229830
237, -78372.26, -6929.42, -25693.44, -6688.58, -133337.53, -153015.02, 4204.77, -187500.02, 0.000, 0.000, 0.000, 16:30:29.831, 1578580229831
238, -62282.78, -62321.89, -62249.14, -69439.83, -62358.70, -62014.40, -62697.78, 123447.00, 0.000, 0.000, 0.000, 16:30:29.831, 1578580229831
239, -78355.45, -6930.60, -25677.10, -6689.90, -133338.80, -153016.22, 4205.84, -187500.02, 0.000, 0.000, 0.000, 16:30:29.831, 1578580229831
240, -62343.10, -62369.46, -62318.07, -69439.13, -62425.02, -62186.20, -62754.04, 123445.10, 0.000, 0.000, 0.000, 16:30:29.831, 1578580229831
241, -78334.57, -6927.79, -25656.85, -6687.26, -133336.11, -153013.42, 4204.27, -187500.02, 0.000, 0.000, 0.000, 16:30:29.831, 1578580229831
242, -62311.63, -62328.62, -62270.53, -69427.24, -62375.02, -62024.99, -62677.80, 123444.91, 0.000, -0.018, 0.980, 16:30:30.297, 1578580230297
243, -78317.72, -6929.04, -25640.62, -6688.69, -133337.50, -153014.89, 4205.64, -187500.02, 0.000, 0.000, 0.000, 16:30:30.298, 1578580230298
244, -62377.35, -62382.89, -62358.23, -69430.23, -62457.99, -62037.15, -62725.27, 123445.64, 0.000, 0.000, 0.000, 16:30:30.298, 1578580230298
245, -78302.36, -6931.57, -25625.63, -6691.31, -133340.13, -153017.47, 4207.81, -187500.02, 0.000, 0.000, 0.000, 16:30:30.298, 1578580230298
246, -62307.03, -62342.70, -62308.26, -69423.33, -62399.83, -62152.46, -62687.86, 123443.63, 0.000, 0.000, 0.000, 16:30:30.298, 1578580230298
247, -78280.99, -6928.24, -25605.00, -6688.13, -133336.94, -153014.20, 4205.68, -187500.02, 0.000, 0.000, 0.000, 16:30:30.298, 1578580230298
248, -62239.04, -62283.91, -62207.83, -69411.59, -62330.07, -62012.88, -62614.95, 123441.69, 0.000, 0.000, 0.000, 16:30:30.299, 1578580230299
249, -78261.55, -6926.89, -25586.09, -6686.88, -133335.69, -153012.91, 4205.08, -187500.02, 0.000, 0.000, 0.000, 16:30:30.299, 1578580230299
250, -62271.24, -62335.37, -62231.32, -69406.03, -62340.06, -61966.81, -62666.24, 123442.16, 0.000, 0.000, 0.000, 16:30:30.299, 1578580230299
251, -78243.38, -6926.56, -25568.45, -6686.84, -133335.45, -153012.69, 4205.28, -187500.02, 0.000, 0.000, 0.000, 16:30:30.299, 1578580230299
252, -62305.33, -62451.73, -62321.45, -69410.45, -62407.12, -62173.52, -62791.79, 123440.08, 0.002, -0.024, 0.974, 16:30:30.299, 1578580230299
253, -78227.59, -6928.88, -25553.25, -6689.21, -133337.92, -153015.13, 4207.13, -187500.02, 0.000, 0.000, 0.000, 16:30:30.299, 1578580230299
254, -62261.61, -62347.42, -62249.23, -69400.53, -62347.02, -62057.89, -62679.27, 123437.98, 0.000, 0.000, 0.000, 16:30:30.299, 1578580230299
255, -78209.63, -6929.00, -25535.88, -6689.41, -133337.98, -153015.28, 4207.31, -187500.02, 0.000, 0.000, 0.000, 16:30:30.300, 1578580230300
0, -62255.33, -62300.25, -62236.73, -69395.57, -62347.68, -61969.94, -62638.57, 123437.91, 0.000, 0.000, 0.000, 16:30:30.301, 1578580230301
1, -78189.98, -6927.34, -25516.77, -6687.93, -133336.42, -153013.67, 4206.49, -187500.02, 0.000, 0.000, 0.000, 16:30:30.301, 1578580230301
2, -62253.25, -62316.17, -62192.23, -69384.51, -62318.45, -61809.55, -62690.98, 123436.12, 0.000, 0.000, 0.000, 16:30:30.301, 1578580230301
3, -78169.10, -6924.35, -25496.37, -6685.25, -133333.52, -153010.83, 4204.77, -187500.02, 0.000, 0.000, 0.000, 16:30:30.301, 1578580230301
4, -62321.40, -62467.87, -62318.54, -69388.10, -62419.59, -62191.60, -62835.58, 123433.37, 0.000, 0.000, 0.000, 16:30:30.301, 1578580230301
5, -78150.93, -6924.19, -25478.89, -6685.38, -133333.52, -153010.77, 4204.90, -187500.02, 0.002, -0.022, 0.976, 16:30:30.301, 1578580230301
6, -62212.35, -62358.28, -62213.15, -69379.92, -62322.09, -62129.36, -62717.09, 123432.74, 0.000, 0.000, 0.000, 16:30:30.301, 1578580230301
7, -78133.90, -6925.17, -25462.35, -6686.50, -133334.66, -153011.80, 4205.93, -187500.02, 0.000, 0.000, 0.000, 16:30:30.301, 1578580230301
8, -62223.88, -62282.95, -62179.71, -69369.84, -62287.92, -62018.45, -62640.40, 123430.69, 0.000, 0.000, 0.000, 16:30:30.302, 1578580230302
9, -78113.31, -6922.65, -25442.41, -6684.13, -133332.17, -153009.28, 4204.50, -187500.02, 0.000, 0.000, 0.000, 16:30:30.302, 1578580230302
10, -62230.50, -62345.32, -62208.08, -69366.49, -62313.18, -62135.66, -62675.77, 123428.72, 0.000, 0.000, 0.000, 16:30:30.302, 1578580230302
11, -78094.18, -6921.46, -25423.72, -6683.22, -133331.19, -153008.22, 4203.98, -187500.02, 0.000, 0.000, 0.000, 16:30:30.302, 1578580230302
12, -62207.47, -62262.05, -62175.53, -69356.99, -62279.87, -62025.53, -62629.68, 123425.95, 0.000, 0.000, 0.000, 16:30:30.302, 1578580230302
13, -78073.48, -6918.92, -25403.67, -6680.69, -133328.59, -153005.73, 4202.31, -187500.02, 0.000, 0.000, 0.000, 16:30:30.302, 1578580230302
14, -62209.62, -62247.21, -62177.45, -69352.86, -62303.32, -61961.02, -62622.68, 123424.90, 0.000, 0.000, 0.000, 16:30:30.303, 1578580230303
15, -78057.54, -6921.04, -25388.25, -6682.86, -133330.75, -153007.78, 4204.21, -187500.02, 0.002, -0.026, 0.974, 16:30:30.303, 1578580230303
16, -62178.10, -62212.77, -62156.62, -69345.34, -62273.72, -61930.20, -62608.38, 123424.23, 0.000, 0.000, 0.000, 16:30:30.303, 1578580230303
17, -78036.87, -6918.40, -25368.11, -6680.49, -133328.23, -153005.23, 4202.66, -187500.02, 0.000, 0.000, 0.000, 16:30:30.303, 1578580230303
18, -62213.64, -62271.98, -62173.23, -69340.00, -62292.39, -62083.89, -62616.38, 123422.26, 0.000, 0.000, 0.000, 16:30:30.303, 1578580230303
19, -78017.35, -6917.02, -25349.27, -6679.26, -133326.91, -153003.88, 4202.02, -187500.02, 0.000, 0.000, 0.000, 16:30:30.303, 1578580230303
20, -62216.37, -62331.59, -62198.93, -69336.16, -62325.94, -62033.96, -62625.00, 123419.78, 0.000, 0.000, 0.000, 16:30:30.303, 1578580230303
21, -77998.60, -6916.39, -25331.03, -6678.68, -133326.31, -153003.27, 4201.75, -187500.02, 0.000, 0.000, 0.000, 16:30:30.303, 1578580230303
22, -62181.97, -62243.68, -62140.93, -69328.09, -62264.38, -61894.26, -62603.93, 123419.69, 0.000, 0.000, 0.000, 16:30:30.304, 1578580230304
23, -77981.50, -6917.31, -25314.40, -6679.75, -133327.39, -153004.25, 4202.60, -187500.02, 0.000, 0.000, 0.000, 16:30:30.304, 1578580230304
24, -62189.95, -62311.66, -62179.49, -69329.79, -62285.41, -62109.77, -62683.05, 123419.34, 0.000, 0.000, 0.000, 16:30:30.304, 1578580230304
25, -77966.62, -6920.41, -25299.94, -6683.01, -133330.63, -153007.47, 4205.28, -187500.02, 0.000, -0.022, 0.974, 16:30:30.304, 1578580230304
26, -62238.56, -62316.84, -62203.45, -69329.19, -62314.27, -62254.64, -62683.01, 123415.78, 0.000, 0.000, 0.000, 16:30:30.304, 1578580230304
27, -77948.38, -6920.19, -25282.28, -6682.99, -133330.44, -153007.28, 4205.59, -187500.02, 0.000, 0.000, 0.000, 16:30:30.304, 1578580230304
28, -62200.81, -62218.00, -62164.36, -69318.52, -62274.06, -62106.46, -62545.54, 123414.70, 0.000, 0.000, 0.000, 16:30:30.304, 1578580230304
29, -77927.81, -6917.73, -25262.37, -6680.67, -133328.02, -153004.80, 4204.03, -187500.02, 0.000, 0.000, 0.000, 16:30:30.304, 1578580230304
30, -62180.02, -62171.17, -62156.04, -69310.88, -62273.01, -62009.59, -62507.50, 123412.47, 0.000, 0.000, 0.000, 16:30:30.304, 1578580230304
31, -77910.09, -6918.07, -25245.13, -6681.16, -133328.42, -153005.11, 4204.45, -187500.02, 0.000, 0.000, 0.000, 16:30:30.304, 1578580230304
32, -62170.14, -62212.61, -62155.04, -69306.81, -62268.23, -61931.50, -62568.59, 123412.49, 0.000, 0.000, 0.000, 16:30:30.305, 1578580230305
33, -77890.98, -6917.04, -25226.58, -6680.35, -133327.44, -153004.14, 4204.03, -187500.02, 0.000, 0.000, 0.000, 16:30:30.305, 1578580230305
34, -62168.98, -62212.37, -62132.73, -69298.83, -62249.29, -61855.61, -62547.06, 123411.27, 0.000, 0.000, 0.000, 16:30:30.305, 1578580230305
35, -77872.52, -6916.72, -25208.77, -6680.02, -133327.09, -153003.77, 4204.09, -187500.02, -0.004, -0.012, 0.970, 16:30:30.305, 1578580230305
36, -62156.89, -62201.75, -62127.61, -69295.66, -62242.95, -62029.00, -62532.67, 123409.92, 0.000, 0.000, 0.000, 16:30:30.305, 1578580230305
37, -77853.11, -6915.29, -25189.95, -6678.77, -133325.80, -153002.45, 4203.33, -187500.02, 0.000, 0.000, 0.000, 16:30:30.305, 1578580230305
38, -62127.50, -62170.17, -62094.60, -69286.02, -62212.99, -61907.69, -62526.88, 123409.09, 0.000, 0.000, 0.000, 16:30:30.305, 1578580230305
39, -77833.82, -6914.04, -25171.19, -6677.65, -133324.66, -153001.22, 4202.66, -187500.02, 0.000, 0.000, 0.000, 16:30:30.305, 1578580230305
40, -62122.49, -62216.75, -62122.96, -69284.08, -62221.15, -62032.41, -62579.38, 123407.48, 0.000, 0.000, 0.000, 16:30:30.306, 1578580230306
41, -77814.31, -6912.72, -25152.30, -6676.49, -133323.23, -152999.86, 4202.06, -187500.02, 0.000, 0.000, 0.000, 16:30:30.306, 1578580230306
42, -62150.07, -62206.60, -62128.08, -69278.83, -62234.68, -61973.29, -62557.88, 123404.31, 0.000, 0.000, 0.000, 16:30:30.306, 1578580230306
43, -77798.33, -6914.85, -25136.79, -6678.70, -133325.41, -153001.91, 4203.98, -187500.02, 0.000, 0.000, 0.000, 16:30:30.306, 1578580230306
44, -62145.25, -62192.63, -62131.25, -69275.12, -62234.47, -61903.87, -62545.70, 123403.69, -0.002, -0.012, 0.974, 16:30:30.306, 1578580230306
45, -77778.05, -6912.61, -25117.12, -6676.69, -133323.23, -152999.72, 4202.44, -187500.02, 0.000, 0.000, 0.000, 16:30:30.306, 1578580230306
46, -62109.37, -62123.95, -62070.88, -69260.97, -62160.09, -61733.79, -62478.93, 123401.05, 0.000, 0.000, 0.000, 16:30:30.306, 1578580230306
47, -77758.77, -6911.38, -25098.33, -6675.48, -133322.11, -152998.61, 4201.84, -187500.02, 0.000, 0.000, 0.000, 16:30:30.306, 1578580230306
48, -62209.02, -62407.52, -62247.06, -69270.09, -62303.34, -62160.09, -62724.22, 123399.88, 0.000, 0.000, 0.000, 16:30:30.306, 1578580230306
49, -77742.56, -6913.28, -25082.70, -6677.54, -133324.11, -153000.50, 4203.54, -187500.02, 0.000, 0.000, 0.000, 16:30:30.306, 1578580230306
50, -62137.36, -62266.21, -62129.06, -69258.80, -62218.43, -62033.22, -62578.29, 123398.45, 0.000, 0.000, 0.000, 16:30:30.307, 1578580230307
51, -77721.80, -6910.76, -25062.68, -6675.17, -133321.56, -152997.89, 4202.08, -187500.02, 0.000, 0.000, 0.000, 16:30:30.307, 1578580230307
52, -62131.45, -62226.47, -62126.70, -69251.87, -62210.51, -61924.32, -62545.54, 123397.98, 0.000, 0.000, 0.000, 16:30:30.307, 1578580230307
53, -77705.30, -6912.25, -25046.56, -6676.71, -133323.02, -152999.47, 4203.40, -187500.02, 0.000, 0.000, 0.000, 16:30:30.307, 1578580230307
54, -62100.95, -62198.44, -62105.08, -69247.16, -62194.00, -61850.00, -62486.58, 123396.80, 0.002, -0.016, 0.980, 16:30:30.307, 1578580230307
55, -77686.59, -6911.56, -25028.41, -6676.06, -133322.30, -152998.73, 4203.07, -187500.02, 0.000, 0.000, 0.000, 16:30:30.307, 1578580230307
56, -62079.44, -62058.39, -62033.89, -69233.19, -62138.29, -61658.67, -62393.26, 123394.99, 0.000, 0.000, 0.000, 16:30:30.307, 1578580230307
57, -77663.88, -6906.91, -25006.33, -6671.79, -133317.80, -152994.31, 4200.07, -187500.02, 0.000, 0.000, 0.000, 16:30:30.307, 1578580230307
58, -62142.90, -62237.45, -62162.32, -69235.66, -62232.89, -62074.41, -62572.34, 123393.09, 0.000, 0.000, 0.000, 16:30:30.307, 1578580230307
59, -77646.05, -6907.31, -24989.09, -6672.35, -133318.20, -152994.59, 4200.74, -187500.02, 0.000, 0.000, 0.000, 16:30:30.307, 1578580230307
60, -62125.80, -62171.42, -62084.81, -69228.89, -62190.29, -62009.82, -62495.72, 123394.01, 0.000, 0.000, 0.000, 16:30:30.307, 1578580230307
61, -77630.66, -6910.11, -24974.43, -6675.12, -133320.91, -152997.28, 4203.00, -187500.02, 0.000, 0.000, 0.000, 16:30:30.307, 1578580230307
62, -62173.90, -62277.23, -62149.14, -69229.95, -62260.56, -62009.48, -62590.27, 123391.28, 0.000, 0.000, 0.000, 16:30:30.308, 1578580230308
63, -77611.76, -6909.17, -24955.92, -6674.28, -133320.08, -152996.41, 4202.40, -187500.02, 0.000, 0.000, 0.000, 16:30:30.308, 1578580230308
64, -62119.54, -62163.69, -62089.32, -69220.47, -62207.34, -61978.52, -62492.46, 123390.77, -0.002, -0.022, 1.016, 16:30:30.308, 1578580230308
65, -77595.27, -6910.60, -24939.99, -6675.97, -133321.78, -152998.09, 4203.94, -187500.02, 0.000, 0.000, 0.000, 16:30:30.308, 1578580230308
66, -62118.36, -62205.06, -62112.59, -69221.61, -62221.02, -62077.68, -62543.89, 123389.20, 0.000, 0.000, 0.000, 16:30:30.308, 1578580230308
67, -77578.68, -6912.23, -24923.98, -6677.72, -133323.39, -152999.67, 4205.48, -187500.02, 0.000, 0.000, 0.000, 16:30:30.308, 1578580230308
68, -62065.65, -62102.64, -62024.90, -69210.19, -62144.96, -61941.75, -62443.11, 123387.41, 0.000, 0.000, 0.000, 16:30:30.308, 1578580230308
69, -77558.05, -6909.82, -24903.96, -6675.46, -133320.78, -152997.08, 4203.80, -187500.02, 0.000, 0.000, 0.000, 16:30:30.308, 1578580230308
70, -62060.80, -62146.59, -62027.65, -69204.17, -62155.01, -61856.80, -62470.06, 123386.34, 0.000, 0.000, 0.000, 16:30:30.308, 1578580230308
71, -77539.16, -6908.88, -24885.60, -6674.72, -133319.88, -152996.25, 4203.45, -187500.02, 0.000, 0.000, 0.000, 16:30:30.308, 1578580230308
72, -62088.43, -62072.27, -62044.48, -69195.74, -62150.79, -61726.02, -62421.02, 123383.80, 0.000, 0.000, 0.000, 16:30:30.309, 1578580230309
73, -77518.22, -6905.91, -24865.35, -6671.93, -133317.17, -152993.33, 4201.52, -187500.02, 0.000, 0.000, 0.000, 16:30:30.309, 1578580230309
74, -62125.62, -62217.57, -62142.12, -69194.96, -62224.73, -61910.73, -62581.66, 123380.66, 0.002, -0.028, 1.008, 16:30:30.309, 1578580230309
75, -77499.13, -6904.95, -24846.78, -6671.01, -133316.14, -152992.33, 4201.08, -187500.02, 0.000, 0.000, 0.000, 16:30:30.310, 1578580230310
76, -62090.93, -62229.24, -62120.86, -69191.39, -62205.66, -61897.23, -62575.09, 123379.08, 0.000, 0.000, 0.000, 16:30:30.310, 1578580230310
77, -77483.17, -6907.05, -24831.40, -6673.27, -133318.23, -152994.42, 4202.84, -187500.02, 0.000, 0.000, 0.000, 16:30:30.310, 1578580230310
78, -62074.37, -62124.68, -62057.80, -69182.85, -62158.61, -61762.23, -62465.88, 123378.49, 0.000, 0.000, 0.000, 16:30:30.311, 1578580230311
79, -77464.77, -6906.78, -24813.59, -6673.09, -133317.95, -152994.20, 4202.82, -187500.02, 0.000, 0.000, 0.000, 16:30:30.312, 1578580230312
80, -62047.84, -62165.21, -62059.17, -69180.79, -62167.62, -61987.98, -62498.70, 123377.11, 0.000, 0.000, 0.000, 16:30:30.313, 1578580230313
81, -77447.95, -6907.92, -24797.14, -6674.41, -133319.17, -152995.41, 4204.03, -187500.02, 0.000, 0.000, 0.000, 16:30:30.313, 1578580230313
82, -62046.25, -62121.42, -62032.86, -69177.41, -62156.64, -61975.60, -62447.64, 123374.80, 0.000, 0.000, 0.000, 16:30:30.314, 1578580230314
83, -77430.98, -6909.15, -24780.84, -6675.77, -133320.48, -152996.64, 4205.12, -187500.02, 0.000, -0.018, 0.998, 16:30:30.314, 1578580230314
84, -62033.04, -62105.55, -62009.08, -69170.91, -62122.52, -61886.91, -62410.20, 123372.88, 0.000, 0.000, 0.000, 16:30:30.314, 1578580230314
85, -77413.55, -6909.80, -24764.01, -6676.51, -133321.11, -152997.17, 4205.86, -187500.02, 0.000, 0.000, 0.000, 16:30:30.314, 1578580230314
86, -62010.96, -62077.03, -61966.12, -69162.64, -62084.79, -61755.32, -62351.73, 123372.75, 0.000, 0.000, 0.000, 16:30:30.314, 1578580230314
87, -77393.83, -6908.19, -24744.86, -6674.92, -133319.44, -152995.39, 4204.77, -187500.02, 0.000, 0.000, 0.000, 16:30:30.314, 1578580230314
88, -62018.60, -62055.13, -61970.32, -69156.79, -62097.66, -61716.00, -62384.86, 123372.39, 0.000, 0.000, 0.000, 16:30:30.314, 1578580230314
89, -77375.03, -6907.49, -24726.53, -6674.30, -133318.70, -152994.56, 4204.43, -187500.02, 0.000, 0.000, 0.000, 16:30:30.315, 1578580230315
90, -62109.26, -62247.50, -62116.81, -69160.63, -62222.85, -61948.73, -62611.75, 123369.20, 0.000, 0.000, 0.000, 16:30:30.315, 1578580230315
91, -77357.98, -6908.57, -24710.05, -6675.42, -133319.81, -152995.66, 4205.53, -187500.02, 0.000, 0.000, 0.000, 16:30:30.315, 1578580230315
92, -62028.01, -62151.06, -62028.01, -69153.75, -62124.68, -61889.50, -62510.36, 123368.75, 0.000, 0.000, 0.000, 16:30:30.315, 1578580230315
93, -77339.29, -6907.94, -24691.84, -6674.74, -133319.08, -152994.98, 4205.19, -187500.02, 0.000, -0.016, 0.984, 16:30:30.315, 1578580230315
94, -61987.44, -62094.29, -61976.11, -69142.75, -62061.83, -61831.54, -62402.67, 123369.78, 0.000, 0.000, 0.000, 16:30:30.316, 1578580230316
95, -77320.56, -6907.18, -24673.71, -6674.19, -133318.45, -152994.20, 4204.85, -187500.02, 0.000, 0.000, 0.000, 16:30:30.316, 1578580230316
96, -62053.38, -62116.25, -62044.24, -69142.66, -62146.16, -61873.74, -62489.35, 123366.60, 0.000, 0.000, 0.000, 16:30:30.316, 1578580230316
97, -77303.10, -6907.85, -24656.99, -6675.01, -133319.14, -152994.91, 4205.64, -187500.02, 0.000, 0.000, 0.000, 16:30:30.316, 1578580230316
98, -61988.76, -61969.96, -61948.10, -69130.34, -62053.38, -61688.42, -62356.63, 123365.27, 0.000, 0.000, 0.000, 16:30:30.316, 1578580230316
99, -77280.51, -6903.29, -24634.91, -6670.45, -133314.53, -152990.22, 4202.57, -187500.02, 0.000, 0.000, 0.000, 16:30:30.316, 1578580230316
100, -61987.24, -62079.44, -61954.32, -69123.95, -62061.56, -61879.75, -62491.59, 123365.48, 0.000, 0.000, 0.000, 16:30:30.317, 1578580230317
101, -77261.28, -6902.20, -24616.24, -6669.51, -133313.33, -152989.03, 4201.93, -187500.02, 0.000, 0.000, 0.000, 16:30:30.317, 1578580230317
102, -61983.04, -62070.64, -61960.26, -69122.01, -62087.24, -61924.41, -62475.71, 123363.19, 0.000, 0.000, 0.000, 16:30:30.317, 1578580230317
103, -77245.19, -6904.25, -24600.82, -6671.55, -133315.36, -152991.06, 4203.54, -187500.02, -0.004, -0.014, 0.980, 16:30:30.317, 1578580230317
104, -61992.96, -62010.00, -61965.40, -69117.34, -62093.46, -61865.25, -62408.08, 123360.32, 0.000, 0.000, 0.000, 16:30:30.317, 1578580230317
105, -77227.29, -6904.50, -24583.52, -6671.93, -133315.61, -152991.22, 4203.98, -187500.02, 0.000, 0.000, 0.000, 16:30:30.317, 1578580230317
106, -61982.70, -61946.47, -61946.02, -69108.62, -62068.42, -61783.35, -62325.20, 123355.74, 0.000, 0.000, 0.000, 16:30:30.778, 1578580230778
107, -77207.05, -6902.24, -24563.87, -6669.89, -133313.38, -152989.06, 4202.80, -187500.02, 0.000, 0.000, 0.000, 16:30:30.778, 1578580230778
108, -61967.17, -61956.30, -61925.80, -69100.84, -62039.45, -61625.16, -62278.66, 123357.24, 0.000, 0.000, 0.000, 16:30:30.778, 1578580230778
109, -77188.62, -6901.97, -24546.13, -6669.67, -133313.11, -152988.80, 4202.71, -187500.02, 0.000, 0.000, 0.000, 16:30:30.779, 1578580230779
110, -61985.50, -61982.75, -61956.26, -69098.05, -62065.59, -61731.76, -62329.27, 123356.75, 0.000, 0.000, 0.000, 16:30:30.779, 1578580230779
111, -77170.67, -6902.00, -24528.71, -6669.94, -133313.20, -152988.77, 4202.89, -187500.02, 0.000, 0.000, 0.000, 16:30:30.779, 1578580230779
112, -61958.32, -61972.24, -61935.92, -69091.99, -62030.96, -61953.31, -62314.96, 123355.02, 0.000, 0.000, 0.000, 16:30:30.779, 1578580230779
113, -77149.73, -6899.13, -24508.40, -6667.21, -133310.41, -152985.92, 4201.03, -187500.02, -0.002, -0.016, 0.978, 16:30:30.779, 1578580230779
114, -61943.84, -62020.93, -61919.61, -69085.89, -62032.73, -61849.96, -62340.27, 123354.96, 0.000, 0.000, 0.000, 16:30:30.779, 1578580230779
115, -77131.64, -6899.22, -24490.92, -6667.39, -133310.41, -152985.92, 4201.46, -187500.02, 0.000, 0.000, 0.000, 16:30:30.779, 1578580230779
116, -62024.59, -62144.51, -62019.03, -69087.32, -62125.00, -61897.61, -62459.20, 123349.70, 0.000, 0.000, 0.000, 16:30:30.779, 1578580230779
117, -77113.76, -6899.47, -24473.66, -6667.75, -133310.73, -152986.06, 4201.75, -187500.02, 0.000, 0.000, 0.000, 16:30:30.779, 1578580230779
118, -61938.74, -61993.32, -61919.56, -69075.63, -62026.36, -61747.96, -62313.73, 123348.09, 0.000, 0.000, 0.000, 16:30:30.779, 1578580230779
119, -77093.63, -6897.41, -24454.19, -6665.83, -133308.69, -152984.09, 4200.47, -187500.02, 0.000, 0.000, 0.000, 16:30:30.779, 1578580230779
120, -61908.90, -61903.15, -61885.63, -69066.59, -61994.17, -61614.32, -62312.57, 123347.61, 0.000, 0.000, 0.000, 16:30:30.779, 1578580230779
121, -77075.07, -6896.97, -24436.11, -6665.49, -133308.28, -152983.67, 4200.45, -187500.02, 0.000, 0.000, 0.000, 16:30:30.779, 1578580230779
122, -61954.99, -61972.18, -61941.38, -69064.92, -62034.45, -61623.89, -62371.25, 123348.37, 0.000, -0.020, 0.974, 16:30:30.780, 1578580230780
123, -77059.31, -6899.42, -24421.00, -6668.02, -133310.69, -152986.02, 4202.55, -187500.02, 0.000, 0.000, 0.000, 16:30:30.780, 1578580230780
124, -61999.49, -62094.78, -62014.60, -69068.54, -62102.96, -61961.87, -62480.97, 123345.46, 0.000, 0.000, 0.000, 16:30:30.780, 1578580230780
125, -77041.34, -6899.58, -24403.63, -6668.13, -133310.92, -152986.17, 4202.80, -187500.02, 0.000, 0.000, 0.000, 16:30:30.780, 1578580230780
126, -61908.18, -61960.42, -61889.99, -69055.58, -61999.69, -61821.30, -62327.64, 123342.33, 0.000, 0.000, 0.000, 16:30:30.780, 1578580230780
127, -77020.63, -6896.88, -24383.45, -6665.58, -133308.17, -152983.53, 4201.03, -187500.02, 0.000, 0.000, 0.000, 16:30:30.780, 1578580230780
128, -61909.84, -61937.51, -61859.99, -69046.86, -61972.02, -61684.55, -62252.73, 123342.60, 0.000, 0.000, 0.000, 16:30:30.780, 1578580230780
129, -77002.52, -6897.01, -24366.06, -6665.76, -133308.22, -152983.53, 4201.44, -187500.02, 0.000, 0.000, 0.000, 16:30:30.780, 1578580230780
130, -61878.77, -61903.33, -61835.27, -69040.00, -61957.07, -61597.23, -62251.55, 123340.99, 0.000, 0.000, 0.000, 16:30:30.780, 1578580230780
131, -76983.25, -6895.85, -24347.40, -6664.71, -133306.97, -152982.36, 4200.81, -187500.02, 0.000, 0.000, 0.000, 16:30:30.780, 1578580230780
132, -61878.86, -61899.93, -61836.28, -69032.96, -61943.57, -61465.71, -62251.48, 123340.63, 0.000, -0.018, 0.976, 16:30:30.780, 1578580230780
133, -76965.26, -6895.96, -24330.10, -6664.84, -133307.05, -152982.33, 4201.03, -187500.02, 0.000, 0.000, 0.000, 16:30:30.780, 1578580230780
134, -61974.16, -62121.82, -61990.13, -69039.10, -62072.34, -61812.81, -62439.75, 123339.89, 0.000, 0.000, 0.000, 16:30:30.780, 1578580230780
135, -76947.78, -6896.54, -24313.00, -6665.49, -133307.47, -152982.78, 4201.61, -187500.02, 0.000, 0.000, 0.000, 16:30:30.780, 1578580230780
136, -61904.05, -61996.52, -61886.91, -69029.54, -61987.55, -61713.05, -62316.10, 123338.76, 0.000, 0.000, 0.000, 16:30:30.780, 1578580230780
137, -76927.88, -6894.82, -24293.73, -6663.79, -133305.78, -152981.02, 4200.72, -187500.02, 0.000, 0.000, 0.000, 16:30:30.780, 1578580230780
138, -61848.30, -61875.32, -61803.27, -69015.05, -61918.73, -61529.46, -62215.39, 123336.19, 0.000, 0.000, 0.000, 16:30:30.781, 1578580230781
139, -76906.88, -6892.00, -24273.48, -6661.15, -133303.00, -152978.23, 4198.93, -187500.02, 0.000, 0.000, 0.000, 16:30:30.781, 1578580230781
140, -61868.87, -61888.49, -61858.50, -69015.13, -61956.71, -61739.23, -62291.31, 123335.76, 0.000, 0.000, 0.000, 16:30:30.781, 1578580230781
141, -76890.94, -6894.04, -24258.10, -6663.37, -133305.20, -152980.27, 4200.70, -187500.02, 0.000, 0.000, 0.000, 16:30:30.781, 1578580230781
142, -61885.99, -61871.59, -61868.87, -69012.82, -61982.23, -61867.12, -62283.20, 123333.86, 0.000, -0.014, 0.968, 16:30:30.781, 1578580230781
143, -76873.75, -6895.07, -24241.49, -6664.42, -133306.17, -152981.13, 4201.50, -187500.02, 0.000, 0.000, 0.000, 16:30:30.781, 1578580230781
144, -61924.30, -61915.89, -61904.38, -69009.34, -62027.92, -61840.88, -62287.54, 123329.59, 0.000, 0.000, 0.000, 16:30:30.781, 1578580230781
145, -76855.76, -6895.27, -24224.24, -6664.64, -133306.25, -152981.23, 4201.88, -187500.02, 0.000, 0.000, 0.000, 16:30:30.781, 1578580230781
146, -61908.88, -61937.64, -61867.88, -69004.03, -61984.92, -61734.89, -62264.67, 123330.41, 0.000, 0.000, 0.000, 16:30:30.781, 1578580230781
147, -76836.13, -6893.61, -24205.11, -6663.21, -133304.59, -152979.58, 4201.03, -187500.02, 0.000, 0.000, 0.000, 16:30:30.781, 1578580230781
148, -61884.36, -61922.67, -61847.63, -68995.02, -61968.29, -61624.88, -62255.44, 123326.69, 0.000, 0.000, 0.000, 16:30:30.781, 1578580230781
149, -76817.04, -6892.61, -24186.49, -6662.23, -133303.61, -152978.58, 4200.36, -187500.02, 0.000, 0.000, 0.000, 16:30:30.781, 1578580230781
150, -61875.75, -61931.59, -61851.34, -68992.01, -61969.36, -61853.13, -62259.64, 123327.76, 0.000, 0.000, 0.000, 16:30:30.781, 1578580230781
151, -76798.73, -6892.36, -24168.83, -6662.16, -133303.44, -152978.33, 4200.45, -187500.02, 0.000, 0.000, 0.000, 16:30:30.781, 1578580230781
152, -61869.36, -61882.23, -61847.92, -68987.56, -61965.89, -61856.28, -62239.59, 123324.54, -0.004, -0.018, 0.972, 16:30:30.782, 1578580230782
153, -76781.05, -6892.65, -24151.71, -6662.67, -133303.72, -152978.66, 4201.05, -187500.02, 0.000, 0.000, 0.000, 16:30:30.782, 1578580230782
154, -61860.24, -61902.91, -61839.74, -68983.13, -61963.48, -61821.44, -62252.15, 123320.94, 0.000, 0.000, 0.000, 16:30:30.782, 1578580230782
155, -76762.73, -6892.56, -24133.87, -6662.63, -133303.55, -152978.34, 4201.01, -187500.02, 0.000, 0.000, 0.000, 16:30:30.782, 1578580230782
156, -61818.46, -61838.60, -61769.71, -68972.85, -61899.24, -61647.47, -62164.47, 123322.26, 0.000, 0.000, 0.000, 16:30:30.782, 1578580230782
157, -76744.24, -6892.03, -24115.99, -6662.23, -133303.11, -152978.03, 4200.74, -187500.02, 0.000, 0.000, 0.000, 16:30:30.782, 1578580230782
158, -61823.78, -61880.47, -61805.30, -68969.05, -61918.60, -61595.30, -62234.96, 123319.84, 0.000, 0.000, 0.000, 16:30:30.782, 1578580230782
159, -76724.15, -6889.99, -24096.52, -6660.33, -133301.28, -152976.03, 4199.38, -187500.02, 0.000, 0.000, 0.000, 16:30:30.782, 1578580230782
160, -61770.95, -61808.52, -61740.93, -68956.90, -61854.25, -61518.86, -62149.38, 123318.08, 0.000, 0.000, 0.000, 16:30:30.782, 1578580230782
161, -76702.34, -6886.35, -24075.40, -6656.89, -133297.64, -152972.31, 4196.96, -187500.02, 0.000, 0.000, 0.000, 16:30:30.782, 1578580230782
162, -61851.88, -61971.26, -61855.43, -68959.87, -61943.61, -61727.76, -62328.33, 123317.01, -0.002, -0.014, 0.974, 16:30:30.782, 1578580230782
163, -76689.37, -6891.60, -24063.04, -6662.09, -133302.72, -152977.48, 4201.21, -187500.02, 0.000, 0.000, 0.000, 16:30:30.782, 1578580230782
164, -61827.63, -61959.32, -61840.95, -68959.16, -61932.57, -61700.82, -62311.27, 123316.02, 0.000, 0.000, 0.000, 16:30:30.783, 1578580230783
165, -76671.58, -6891.82, -24045.83, -6662.43, -133302.98, -152977.61, 4201.52, -187500.02, 0.000, 0.000, 0.000, 16:30:30.783, 1578580230783
166, -61786.30, -61807.62, -61738.96, -68945.43, -61859.68, -61529.50, -62155.89, 123313.36, 0.000, 0.000, 0.000, 16:30:30.783, 1578580230783
167, -76648.38, -6886.77, -24023.30, -6657.47, -133297.89, -152972.50, 4197.95, -187500.02, 0.000, 0.000, 0.000, 16:30:30.783, 1578580230783
168, -61785.43, -61823.76, -61746.51, -68935.39, -61858.70, -61520.83, -62181.34, 123313.81, 0.000, 0.000, 0.000, 16:30:30.783, 1578580230783
169, -76627.77, -6884.29, -24003.27, -6655.08, -133295.31, -152970.02, 4196.36, -187500.02, 0.000, 0.000, 0.000, 16:30:30.783, 1578580230783
170, -61812.63, -61848.10, -61793.38, -68932.87, -61899.33, -61589.94, -62213.39, 123312.18, 0.000, 0.000, 0.000, 16:30:30.783, 1578580230783
171, -76611.16, -6885.83, -23987.24, -6656.66, -133296.86, -152971.56, 4197.88, -187500.02, -0.002, -0.012, 0.968, 16:30:30.783, 1578580230783
172, -61786.07, -61811.91, -61763.55, -68928.77, -61867.48, -61529.23, -62173.70, 123310.88, 0.000, 0.000, 0.000, 16:30:30.783, 1578580230783
173, -76594.95, -6887.65, -23971.60, -6658.72, -133298.72, -152973.34, 4199.56, -187500.02, 0.000, 0.000, 0.000, 16:30:30.783, 1578580230783
174, -61832.59, -61859.84, -61811.82, -68926.23, -61925.08, -61481.82, -62236.98, 123307.24, 0.000, 0.000, 0.000, 16:30:30.783, 1578580230783
175, -76574.41, -6885.34, -23951.64, -6656.44, -133296.30, -152970.91, 4197.84, -187500.02, 0.000, 0.000, 0.000, 16:30:30.783, 1578580230783
176, -61803.80, -61833.37, -61775.73, -68917.69, -61883.93, -61661.11, -62230.90, 123306.12, 0.000, 0.000, 0.000, 16:30:30.783, 1578580230783
177, -76554.55, -6883.53, -23932.44, -6654.81, -133294.58, -152969.13, 4196.76, -187500.02, 0.000, 0.000, 0.000, 16:30:30.783, 1578580230783
178, -61772.66, -61805.25, -61763.41, -68914.63, -61873.63, -61730.84, -62180.56, 123304.83, 0.000, 0.000, 0.000, 16:30:30.783, 1578580230783
179, -76538.16, -6885.25, -23916.59, -6656.66, -133296.36, -152970.75, 4198.42, -187500.02, 0.000, 0.000, 0.000, 16:30:30.784, 1578580230784
180, -61765.73, -61781.83, -61720.09, -68906.76, -61849.51, -61607.78, -62079.02, 123304.53, 0.000, 0.000, 0.000, 16:30:30.784, 1578580230784
181, -76520.55, -6885.83, -23899.76, -6657.24, -133296.86, -152971.33, 4199.00, -187500.02, 0.000, -0.014, 0.972, 16:30:30.784, 1578580230784
182, -61749.46, -61748.10, -61710.41, -68900.37, -61832.79, -61505.20, -62070.05, 123302.81, 0.000, 0.000, 0.000, 16:30:30.784, 1578580230784
183, -76500.92, -6884.40, -23880.76, -6655.79, -133295.39, -152969.83, 4197.99, -187500.02, 0.000, 0.000, 0.000, 16:30:30.784, 1578580230784
184, -61827.96, -61902.13, -61821.79, -68901.64, -61926.85, -61737.30, -62251.75, 123302.55, 0.000, 0.000, 0.000, 16:30:30.784, 1578580230784
185, -76483.60, -6885.21, -23863.97, -6656.62, -133296.09, -152970.53, 4198.98, -187500.02, 0.000, 0.000, 0.000, 16:30:30.784, 1578580230784
186, -61776.42, -61829.97, -61745.24, -68894.96, -61863.52, -61680.24, -62174.91, 123300.96, 0.000, 0.000, 0.000, 16:30:30.784, 1578580230784
187, -76465.00, -6884.58, -23845.80, -6656.10, -133295.47, -152969.88, 4198.82, -187500.02, 0.000, 0.000, 0.000, 16:30:30.784, 1578580230784
188, -61764.35, -61802.28, -61713.86, -68887.18, -61846.25, -61582.68, -62150.32, 123298.88, 0.000, 0.000, 0.000, 16:30:30.784, 1578580230784
189, -76447.39, -6885.12, -23828.95, -6656.77, -133295.97, -152970.38, 4199.42, -187500.02, 0.000, 0.000, 0.000, 16:30:30.784, 1578580230784
190, -61771.79, -61782.61, -61760.28, -68887.38, -61872.18, -61562.43, -62124.79, 123297.47, 0.000, 0.000, 0.000, 16:30:30.784, 1578580230784
191, -76431.85, -6887.65, -23813.97, -6659.28, -133298.38, -152972.73, 4201.44, -187500.02, -0.002, -0.020, 0.976, 16:30:30.784, 1578580230784
192, -61689.34, -61665.18, -61653.22, -68873.68, -61765.71, -61345.66, -62012.66, 123298.05, 0.000, 0.000, 0.000, 16:30:30.784, 1578580230784
193, -76410.13, -6884.11, -23792.92, -6655.81, -133294.80, -152969.17, 4198.98, -187500.02, 0.000, 0.000, 0.000, 16:30:30.784, 1578580230784
194, -61729.79, -61850.94, -61768.84, -68874.35, -61858.47, -61641.46, -62223.36, 123296.94, 0.000, 0.000, 0.000, 16:30:30.785, 1578580230785
195, -76391.02, -6883.22, -23774.52, -6655.05, -133293.94, -152968.06, 4198.62, -187500.02, 0.000, 0.000, 0.000, 16:30:30.785, 1578580230785
196, -61722.62, -61803.09, -61724.18, -68867.42, -61818.89, -61615.09, -62180.32, 123293.52, 0.000, 0.000, 0.000, 16:30:30.785, 1578580230785
197, -76371.37, -6881.65, -23755.43, -6653.64, -133292.30, -152966.48, 4197.52, -187500.02, 0.000, 0.000, 0.000, 16:30:30.785, 1578580230785
198, -61742.29, -61837.80, -61745.24, -68863.80, -61845.00, -61564.01, -62226.18, 123291.73, 0.000, 0.000, 0.000, 16:30:30.785, 1578580230785
199, -76354.63, -6883.17, -23739.41, -6655.10, -133293.70, -152967.89, 4198.66, -187500.02, 0.000, 0.000, 0.000, 16:30:30.785, 1578580230785
200, -61745.71, -61840.12, -61752.28, -68859.53, -61837.51, -61501.71, -62242.83, 123289.87, 0.000, 0.000, 0.000, 16:30:30.785, 1578580230785
201, -76337.33, -6884.07, -23722.69, -6655.99, -133294.48, -152968.53, 4199.62, -187500.02, -0.002, -0.014, 0.978, 16:30:30.785, 1578580230785
202, -61702.84, -61771.82, -61685.96, -68851.08, -61789.23, -61385.40, -62172.07, 123289.29, 0.000, 0.000, 0.000, 16:30:30.785, 1578580230785
203, -76318.13, -6883.00, -23704.16, -6655.05, -133293.34, -152967.42, 4199.27, -187500.02, 0.000, 0.000, 0.000, 16:30:30.785, 1578580230785
204, -61710.23, -61692.55, -61648.57, -68841.02, -61766.09, -61325.83, -62076.63, 123288.53, 0.000, 0.000, 0.000, 16:30:30.785, 1578580230785
205, -76298.39, -6881.30, -23684.98, -6653.49, -133291.58, -152965.70, 4198.10, -187500.02, 0.000, 0.000, 0.000, 16:30:30.785, 1578580230785
206, -61813.59, -61878.97, -61806.50, -68850.10, -61911.27, -61859.01, -62241.56, 123284.41, 0.000, 0.000, 0.000, 16:30:30.785, 1578580230785
207, -76282.91, -6883.89, -23670.12, -6656.19, -133294.31, -152968.30, 4200.21, -187500.02, 0.000, 0.000, 0.000, 16:30:30.785, 1578580230785
208, -61705.68, -61741.02, -61670.38, -68835.80, -61787.44, -61673.31, -62036.39, 123283.73, 0.000, 0.000, 0.000, 16:30:30.785, 1578580230785
209, -76261.69, -6880.92, -23649.51, -6653.31, -133291.19, -152965.14, 4198.28, -187500.02, 0.000, 0.000, 0.000, 16:30:30.785, 1578580230785
210, -61653.66, -61692.91, -61623.36, -68825.31, -61726.78, -61551.79, -61988.61, 123282.77, -0.002, -0.016, 0.976, 16:30:30.786, 1578580230786
211, -76238.47, -6875.96, -23627.07, -6648.41, -133286.02, -152959.98, 4194.68, -187500.02, 0.000, 0.000, 0.000, 16:30:30.786, 1578580230786
212, -61658.89, -61707.13, -61638.96, -68816.66, -61744.66, -61565.73, -62047.25, 123279.86, 0.000, 0.000, 0.000, 16:30:30.786, 1578580230786
213, -76219.29, -6874.86, -23608.43, -6647.32, -133284.91, -152958.80, 4194.06, -187500.02, 0.000, 0.000, 0.000, 16:30:30.786, 1578580230786
214, -61714.73, -61747.36, -61707.89, -68819.05, -61814.21, -61548.01, -62114.45, 123280.55, 0.000, 0.000, 0.000, 16:30:30.786, 1578580230786
215, -76209.43, -6883.09, -23599.06, -6655.54, -133293.06, -152967.00, 4200.50, -187500.02, 0.000, 0.000, 0.000, 16:30:30.786, 1578580230786
216, -61734.24, -61776.24, -61748.48, -68822.49, -61842.85, -61564.32, -62165.86, 123279.68, 0.000, 0.000, 0.000, 16:30:30.786, 1578580230786
217, -76192.63, -6884.29, -23582.74, -6656.91, -133294.41, -152968.16, 4201.61, -187500.02, 0.000, 0.000, 0.000, 16:30:30.786, 1578580230786
218, -61721.95, -61790.25, -61730.09, -68816.17, -61808.79, -61473.38, -62125.62, 123278.25, 0.000, 0.000, 0.000, 16:30:30.786, 1578580230786
219, -76175.21, -6885.03, -23565.94, -6657.67, -133295.03, -152968.77, 4202.31, -187500.02, 0.000, 0.000, 0.000, 16:30:30.786, 1578580230786
220, -61699.06, -61758.40, -61685.31, -68810.67, -61779.55, -61395.39, -62086.28, 123276.73, -0.002, -0.016, 0.976, 16:30:30.786, 1578580230786
221, -76157.35, -6885.37, -23548.77, -6657.89, -133295.19, -152968.94, 4202.64, -187500.02, 0.000, 0.000, 0.000, 16:30:30.786, 1578580230786
222, -61683.97, -61708.18, -61666.92, -68806.09, -61783.62, -61350.02, -62057.34, 123273.89, 0.000, 0.000, 0.000, 16:30:30.786, 1578580230786
223, -76140.01, -6886.21, -23532.07, -6658.85, -133295.88, -152969.67, 4203.40, -187500.02, 0.000, 0.000, 0.000, 16:30:30.786, 1578580230786
224, -61632.43, -61627.60, -61595.64, -68795.90, -61710.64, -61261.21, -61979.04, 123271.66, 0.000, 0.000, 0.000, 16:30:30.787, 1578580230787
225, -76118.13, -6882.28, -23510.75, -6655.12, -133292.05, -152965.80, 4200.81, -187500.02, 0.000, 0.000, 0.000, 16:30:30.787, 1578580230787
226, -61652.17, -61723.91, -61608.98, -68789.32, -61721.68, -61430.64, -62020.25, 123271.05, 0.000, 0.000, 0.000, 16:30:31.259, 1578580231259
227, -76098.03, -6880.29, -23491.30, -6653.24, -133289.95, -152963.55, 4199.47, -187500.02, 0.000, 0.000, 0.000, 16:30:31.259, 1578580231259
228, -61641.62, -61678.99, -61575.95, -68778.77, -61692.82, -61251.46, -62023.38, 123270.89, 0.000, 0.000, 0.000, 16:30:31.260, 1578580231260
229, -76076.23, -6876.69, -23470.11, -6649.67, -133286.27, -152959.80, 4196.79, -187500.02, 0.000, 0.000, 0.000, 16:30:31.261, 1578580231261
230, -61687.91, -61781.61, -61696.16, -68780.90, -61786.68, -61614.32, -62152.89, 123270.63, -0.002, -0.018, 0.976, 16:30:31.261, 1578580231261
231, -76059.50, -6878.01, -23454.04, -6651.03, -133287.56, -152961.13, 4197.97, -187500.02, 0.000, 0.000, 0.000, 16:30:31.262, 1578580231262
232, -61610.84, -61678.95, -61613.65, -68771.63, -61712.74, -61628.34, -62044.44, 123267.72, 0.000, 0.000, 0.000, 16:30:31.262, 1578580231262
233, -76039.09, -6875.80, -23434.33, -6648.88, -133285.33, -152958.77, 4196.56, -187500.02, 0.000, 0.000, 0.000, 16:30:31.262, 1578580231262
234, -61633.30, -61676.26, -61622.91, -68765.23, -61722.78, -61540.99, -62037.31, 123265.80, 0.000, 0.000, 0.000, 16:30:31.262, 1578580231262
235, -76020.36, -6875.33, -23416.33, -6648.53, -133284.67, -152958.17, 4196.45, -187500.02, 0.000, 0.000, 0.000, 16:30:31.262, 1578580231262
236, -61624.85, -61699.39, -61631.76, -68760.13, -61725.37, -61463.03, -62046.16, 123264.21, 0.000, 0.000, 0.000, 16:30:31.263, 1578580231263
237, -76002.73, -6875.87, -23399.24, -6649.11, -133285.17, -152958.56, 4197.05, -187500.02, 0.000, 0.000, 0.000, 16:30:31.263, 1578580231263
238, -61655.23, -61703.98, -61670.76, -68758.73, -61751.68, -61426.28, -62037.22, 123263.05, 0.000, 0.000, 0.000, 16:30:31.264, 1578580231264
239, -75987.23, -6878.44, -23384.39, -6651.68, -133287.77, -152961.13, 4199.20, -187500.02, 0.000, 0.000, 0.000, 16:30:31.264, 1578580231264
240, -61656.05, -61647.92, -61630.75, -68752.51, -61745.55, -61361.75, -61983.78, 123259.65, -0.002, -0.014, 0.972, 16:30:31.264, 1578580231264
241, -75967.48, -6876.72, -23365.24, -6650.14, -133285.97, -152959.33, 4198.13, -187500.02, 0.000, 0.000, 0.000, 16:30:31.264, 1578580231264
242, -61635.96, -61699.62, -61610.61, -68746.05, -61718.48, -61291.43, -62042.36, 123259.02, 0.000, 0.000, 0.000, 16:30:31.264, 1578580231264
243, -75951.31, -6878.68, -23349.71, -6652.24, -133287.89, -152961.25, 4199.85, -187500.02, 0.000, 0.000, 0.000, 16:30:31.264, 1578580231264
244, -61686.16, -61793.65, -61688.22, -68751.35, -61785.00, -61598.57, -62136.73, 123257.62, 0.000, 0.000, 0.000, 16:30:31.264, 1578580231264
245, -75934.02, -6879.58, -23333.01, -6653.13, -133288.59, -152961.92, 4200.56, -187500.02, 0.000, 0.000, 0.000, 16:30:31.265, 1578580231265
246, -61602.99, -61648.03, -61567.63, -68735.70, -61671.86, -61416.04, -62031.45, 123259.38, 0.000, 0.000, 0.000, 16:30:31.265, 1578580231265
247, -75912.27, -6876.04, -23311.91, -6649.64, -133284.92, -152958.09, 4197.95, -187500.02, 0.000, 0.000, 0.000, 16:30:31.265, 1578580231265
248, -61573.62, -61667.61, -61570.11, -68731.39, -61667.99, -61471.43, -62034.85, 123257.93, 0.000, 0.000, 0.000, 16:30:31.265, 1578580231265
249, -75896.46, -6878.41, -23296.73, -6651.97, -133287.22, -152960.41, 4200.03, -187500.02, 0.000, -0.014, 0.974, 16:30:31.265, 1578580231265
250, -61600.42, -61638.33, -61585.25, -68730.13, -61687.77, -61443.91, -62002.82, 123256.05, 0.000, 0.000, 0.000, 16:30:31.265, 1578580231265
251, -75878.67, -6878.77, -23279.61, -6652.37, -133287.53, -152960.63, 4200.63, -187500.02, 0.000, 0.000, 0.000, 16:30:31.265, 1578580231265
252, -61564.39, -61626.11, -61538.66, -68721.17, -61641.08, -61303.01, -61999.09, 123255.63, 0.000, 0.000, 0.000, 16:30:31.265, 1578580231265
253, -75857.73, -6875.93, -23259.29, -6649.58, -133284.56, -152957.63, 4198.55, -187500.02, 0.000, 0.000, 0.000, 16:30:31.266, 1578580231266
254, -61572.01, -61637.84, -61539.67, -68712.19, -61647.50, -61304.06, -62023.43, 123250.95, 0.000, 0.000, 0.000, 16:30:31.266, 1578580231266
255, -75834.59, -6870.97, -23236.89, -6644.84, -133279.58, -152952.63, 4194.89, -187500.02, 0.000, 0.000, 0.000, 16:30:31.266, 1578580231266
0, -61528.25, -61611.26, -61484.95, -68699.60, -61599.15, -61360.92, -61934.36, 123251.20, 0.000, 0.000, 0.000, 16:30:31.266, 1578580231266
1, -75812.80, -6867.35, -23215.77, -6641.42, -133275.94, -152949.03, 4192.36, -187500.02, 0.000, 0.000, 0.000, 16:30:31.266, 1578580231266
2, -61574.83, -61666.29, -61535.51, -68695.60, -61650.29, -61400.13, -61972.80, 123250.80, 0.000, 0.000, 0.000, 16:30:31.266, 1578580231266
3, -75797.11, -6869.79, -23200.60, -6644.10, -133278.27, -152951.38, 4194.77, -187500.02, -0.008, -0.012, 0.974, 16:30:31.266, 1578580231266
4, -61616.61, -61759.90, -61631.71, -68699.85, -61730.49, -61437.12, -62083.00, 123248.61, 0.000, 0.000, 0.000, 16:30:31.266, 1578580231266
5, -75778.87, -6869.65, -23183.07, -6643.97, -133278.03, -152951.03, 4194.75, -187500.02, 0.000, 0.000, 0.000, 16:30:31.266, 1578580231266
6, -61570.29, -61668.28, -61576.26, -68687.78, -61663.19, -61341.79, -61981.96, 123246.13, 0.000, 0.000, 0.000, 16:30:31.266, 1578580231266
7, -75760.12, -6869.18, -23165.12, -6643.50, -133277.50, -152950.48, 4194.57, -187500.02, 0.000, 0.000, 0.000, 16:30:31.266, 1578580231266
8, -61567.52, -61688.00, -61591.73, -68686.91, -61675.12, -61531.98, -61981.30, 123245.88, 0.000, 0.000, 0.000, 16:30:31.266, 1578580231266
9, -75742.80, -6870.05, -23148.38, -6644.53, -133278.31, -152951.31, 4195.53, -187500.02, 0.000, 0.000, 0.000, 16:30:31.267, 1578580231267
10, -61532.07, -61631.09, -61548.03, -68680.38, -61638.82, -61451.65, -61924.39, 123243.27, 0.000, 0.000, 0.000, 16:30:31.267, 1578580231267
11, -75724.11, -6869.50, -23130.19, -6644.06, -133277.70, -152950.64, 4195.38, -187500.02, 0.000, 0.000, 0.000, 16:30:31.267, 1578580231267
12, -61508.31, -61525.84, -61492.55, -68672.65, -61594.30, -61342.48, -61878.03, 123242.30, 0.000, 0.000, 0.000, 16:30:31.267, 1578580231267
13, -75707.37, -6870.84, -23114.18, -6645.53, -133279.06, -152951.91, 4196.52, -187500.02, -0.006, -0.016, 0.984, 16:30:31.267, 1578580231267
14, -61515.60, -61515.84, -61481.04, -68667.20, -61595.19, -61248.14, -61921.66, 123242.40, 0.000, 0.000, 0.000, 16:30:31.267, 1578580231267
15, -75688.44, -6870.01, -23095.86, -6644.73, -133278.13, -152950.97, 4196.00, -187500.02, 0.000, 0.000, 0.000, 16:30:31.267, 1578580231267
16, -61511.82, -61516.25, -61501.71, -68661.56, -61612.00, -61181.50, -61876.60, 123240.02, 0.000, 0.000, 0.000, 16:30:31.267, 1578580231267
17, -75669.15, -6868.91, -23077.13, -6643.72, -133276.81, -152949.77, 4195.40, -187500.02, 0.000, 0.000, 0.000, 16:30:31.267, 1578580231267
18, -61481.85, -61525.12, -61479.43, -68655.28, -61573.02, -61263.58, -61879.66, 123238.30, 0.000, 0.000, 0.000, 16:30:31.267, 1578580231267
19, -75651.58, -6869.65, -23060.16, -6644.46, -133277.38, -152950.20, 4196.14, -187500.02, 0.000, 0.000, 0.000, 16:30:31.267, 1578580231267
20, -61553.93, -61675.50, -61550.42, -68657.96, -61647.79, -61541.55, -61978.30, 123238.40, 0.000, 0.000, 0.000, 16:30:31.267, 1578580231267
21, -75632.34, -6868.62, -23041.68, -6643.47, -133276.23, -152949.14, 4195.53, -187500.02, 0.000, 0.000, 0.000, 16:30:31.267, 1578580231267
22, -61528.83, -61632.65, -61515.38, -68650.05, -61636.74, -61456.57, -61942.61, 123235.98, 0.000, 0.000, 0.000, 16:30:31.268, 1578580231268
23, -75615.91, -6870.21, -23025.80, -6645.11, -133277.92, -152950.67, 4196.85, -187500.02, -0.006, -0.024, 0.980, 16:30:31.268, 1578580231268
24, -61538.80, -61605.74, -61508.11, -68646.34, -61627.13, -61407.91, -61911.45, 123233.97, 0.000, 0.000, 0.000, 16:30:31.268, 1578580231268
25, -75598.16, -6870.61, -23008.82, -6645.62, -133278.28, -152950.91, 4197.34, -187500.02, 0.000, 0.000, 0.000, 16:30:31.268, 1578580231268
26, -61486.72, -61518.66, -61472.39, -68640.04, -61592.11, -61324.63, -61869.49, 123232.23, 0.000, 0.000, 0.000, 16:30:31.268, 1578580231268
27, -75580.03, -6870.68, -22991.29, -6645.73, -133278.22, -152950.91, 4197.64, -187500.02, 0.000, 0.000, 0.000, 16:30:31.268, 1578580231268
28, -61486.09, -61506.75, -61447.78, -68633.06, -61586.74, -61248.14, -61896.25, 123228.91, 0.000, 0.000, 0.000, 16:30:31.268, 1578580231268
29, -75559.27, -6868.09, -22971.27, -6643.23, -133275.52, -152948.17, 4195.80, -187500.02, 0.000, 0.000, 0.000, 16:30:31.268, 1578580231268
30, -61479.84, -61490.63, -61429.59, -68624.30, -61555.92, -61244.34, -61835.36, 123227.17, 0.000, 0.000, 0.000, 16:30:31.268, 1578580231268
31, -75539.39, -6866.41, -22952.16, -6641.66, -133273.72, -152946.36, 4194.73, -187500.02, 0.000, 0.000, 0.000, 16:30:31.268, 1578580231268
32, -61497.67, -61510.93, -61431.00, -68617.26, -61562.94, -61344.14, -61853.71, 123227.58, 0.002, -0.018, 0.976, 16:30:31.268, 1578580231268
33, -75519.08, -6864.33, -22932.44, -6639.56, -133271.53, -152944.11, 4193.30, -187500.02, 0.000, 0.000, 0.000, 16:30:31.268, 1578580231268
34, -61447.87, -61512.63, -61417.25, -68611.67, -61551.56, -61258.26, -61839.07, 123226.08, 0.000, 0.000, 0.000, 16:30:31.269, 1578580231269
35, -75500.05, -6863.53, -22914.09, -6638.83, -133270.63, -152943.22, 4192.96, -187500.02, 0.000, 0.000, 0.000, 16:30:31.269, 1578580231269
36, -61437.77, -61470.67, -61396.13, -68603.98, -61527.42, -61148.05, -61805.97, 123223.71, 0.000, 0.000, 0.000, 16:30:31.269, 1578580231269
37, -75482.42, -6863.95, -22897.06, -6639.43, -133271.06, -152943.66, 4193.48, -187500.02, 0.000, 0.000, 0.000, 16:30:31.269, 1578580231269
38, -61465.66, -61498.25, -61456.63, -68601.52, -61561.48, -61291.59, -61849.13, 123223.62, 0.000, 0.000, 0.000, 16:30:31.269, 1578580231269
39, -75462.52, -6862.39, -22877.93, -6637.86, -133269.33, -152941.88, 4192.38, -187500.02, 0.000, 0.000, 0.000, 16:30:31.269, 1578580231269
40, -61475.90, -61509.52, -61452.16, -68596.05, -61565.35, -61316.18, -61852.91, 123220.11, 0.000, 0.000, 0.000, 16:30:31.269, 1578580231269
41, -75444.71, -6862.70, -22860.85, -6638.36, -133269.56, -152942.09, 4193.03, -187500.02, 0.000, 0.000, 0.000, 16:30:31.269, 1578580231269
42, -61447.54, -61461.55, -61426.41, -68591.09, -61542.11, -61219.55, -61799.82, 123219.24, 0.004, -0.014, 0.980, 16:30:31.269, 1578580231269
43, -75427.75, -6864.02, -22844.51, -6639.70, -133270.81, -152943.23, 4194.26, -187500.02, 0.000, 0.000, 0.000, 16:30:31.269, 1578580231269
44, -61499.21, -61535.76, -61501.54, -68593.57, -61609.95, -61485.24, -61885.65, 123217.72, 0.000, 0.000, 0.000, 16:30:31.269, 1578580231269
45, -75411.34, -6865.76, -22828.78, -6641.44, -133272.50, -152944.95, 4195.67, -187500.02, 0.000, 0.000, 0.000, 16:30:31.269, 1578580231269
46, -61422.12, -61386.61, -61379.77, -68579.51, -61500.96, -61363.72, -61746.11, 123216.73, 0.000, 0.000, 0.000, 16:30:31.269, 1578580231269
47, -75389.08, -6861.61, -22807.09, -6637.51, -133268.42, -152940.83, 4192.67, -187500.02, 0.000, 0.000, 0.000, 16:30:31.270, 1578580231270
48, -61415.91, -61438.73, -61391.52, -68572.83, -61525.68, -61248.56, -61826.29, 123216.85, 0.000, 0.000, 0.000, 16:30:31.270, 1578580231270
49, -75369.19, -6859.91, -22787.83, -6635.81, -133266.58, -152938.92, 4191.65, -187500.02, 0.000, 0.000, 0.000, 16:30:31.270, 1578580231270
50, -61455.54, -61506.32, -61431.93, -68568.63, -61542.66, -61241.95, -61884.71, 123214.91, 0.000, 0.000, 0.000, 16:30:31.270, 1578580231270
51, -75351.69, -6860.55, -22771.02, -6636.52, -133267.11, -152939.48, 4192.40, -187500.02, 0.000, 0.000, 0.000, 16:30:31.270, 1578580231270
52, -61436.45, -61537.01, -61441.25, -68567.77, -61548.99, -61312.51, -61895.38, 123214.50, 0.002, -0.020, 0.980, 16:30:31.270, 1578580231270
53, -75334.95, -6862.12, -22755.08, -6638.07, -133268.58, -152940.86, 4193.75, -187500.02, 0.000, 0.000, 0.000, 16:30:31.270, 1578580231270
54, -61443.73, -61458.13, -61389.85, -68557.83, -61509.32, -61164.12, -61815.58, 123214.66, 0.000, 0.000, 0.000, 16:30:31.270, 1578580231270
55, -75315.20, -6860.49, -22735.90, -6636.57, -133266.81, -152939.19, 4192.67, -187500.02, 0.000, 0.000, 0.000, 16:30:31.270, 1578580231270
56, -61438.66, -61534.29, -61430.13, -68555.63, -61534.44, -61288.53, -61901.59, 123211.02, 0.000, 0.000, 0.000, 16:30:31.270, 1578580231270
57, -75295.78, -6859.19, -22717.15, -6635.52, -133265.52, -152937.83, 4192.00, -187500.02, 0.000, 0.000, 0.000, 16:30:31.270, 1578580231270
58, -61440.16, -61538.29, -61420.89, -68550.70, -61538.95, -61216.66, -61814.66, 123209.88, 0.000, 0.000, 0.000, 16:30:31.271, 1578580231271
59, -75280.85, -6862.52, -22702.91, -6638.83, -133268.67, -152940.94, 4194.86, -187500.02, 0.000, 0.000, 0.000, 16:30:31.271, 1578580231271
60, -61440.32, -61538.93, -61427.96, -68547.43, -61536.52, -61180.43, -61810.44, 123206.92, 0.000, 0.000, 0.000, 16:30:31.271, 1578580231271
61, -75260.73, -6860.67, -22683.53, -6637.06, -133266.61, -152938.94, 4193.52, -187500.02, 0.000, 0.000, 0.000, 16:30:31.271, 1578580231271
62, -61368.10, -61405.74, -61353.05, -68534.85, -61451.70, -61007.36, -61742.47, 123204.29, 0.000, -0.022, 0.970, 16:30:31.271, 1578580231271
63, -75240.15, -6858.19, -22663.64, -6634.76, -133264.19, -152936.44, 4191.78, -187500.02, 0.000, 0.000, 0.000, 16:30:31.271, 1578580231271
64, -61412.62, -61523.31, -61417.90, -68533.87, -61498.41, -61274.73, -61873.16, 123205.41, 0.000, 0.000, 0.000, 16:30:31.271, 1578580231271
65, -75223.20, -6859.57, -22647.39, -6636.23, -133265.45, -152937.58, 4193.10, -187500.02, 0.000, 0.000, 0.000, 16:30:31.271, 1578580231271
66, -61394.59, -61457.17, -61386.38, -68529.40, -61487.81, -61260.77, -61799.13, 123204.38, 0.000, 0.000, 0.000, 16:30:31.271, 1578580231271
67, -75204.37, -6858.95, -22629.22, -6635.63, -133264.63, -152936.73, 4192.87, -187500.02, 0.000, 0.000, 0.000, 16:30:31.271, 1578580231271
68, -61384.66, -61415.19, -61354.69, -68520.09, -61455.02, -61131.35, -61764.66, 123203.21, 0.000, 0.000, 0.000, 16:30:31.272, 1578580231272
69, -75185.37, -6858.19, -22610.96, -6634.98, -133263.89, -152935.91, 4192.54, -187500.02, 0.000, 0.000, 0.000, 16:30:31.272, 1578580231272
70, -61372.73, -61447.04, -61361.37, -68515.49, -61470.71, -61044.09, -61805.39, 123202.34, 0.000, 0.000, 0.000, 16:30:31.272, 1578580231272
71, -75166.05, -6857.02, -22592.23, -6633.86, -133262.59, -152934.67, 4191.76, -187500.02, 0.000, -0.014, 0.976, 16:30:31.272, 1578580231272
72, -61439.64, -61547.05, -61421.32, -68513.55, -61518.61, -61135.21, -61916.72, 123198.81, 0.000, 0.000, 0.000, 16:30:31.272, 1578580231272
73, -75148.40, -6857.43, -22575.22, -6634.40, -133263.05, -152934.98, 4192.36, -187500.02, 0.000, 0.000, 0.000, 16:30:31.272, 1578580231272
74, -61376.17, -61495.64, -61366.24, -68505.57, -61457.10, -61157.34, -61858.61, 123196.82, 0.000, 0.000, 0.000, 16:30:31.272, 1578580231272
75, -75125.15, -6852.44, -22552.69, -6629.50, -133257.91, -152929.89, 4188.60, -187500.02, 0.000, 0.000, 0.000, 16:30:31.272, 1578580231272
76, -61363.52, -61399.28, -61326.43, -68491.64, -61421.12, -61092.10, -61769.82, 123195.23, 0.000, 0.000, 0.000, 16:30:31.272, 1578580231272
77, -75107.11, -6852.69, -22535.38, -6629.82, -133258.13, -152930.00, 4189.01, -187500.02, 0.000, 0.000, 0.000, 16:30:31.272, 1578580231272
78, -61408.53, -61523.49, -61433.03, -68499.42, -61512.98, -61432.65, -61890.14, 123193.63, 0.000, 0.000, 0.000, 16:30:31.272, 1578580231272
79, -75092.12, -6855.84, -22520.99, -6633.06, -133261.19, -152933.06, 4191.69, -187500.02, 0.000, 0.000, 0.000, 16:30:31.273, 1578580231273
80, -61356.30, -61421.74, -61331.91, -68490.99, -61446.04, -61321.47, -61785.63, 123192.26, 0.000, 0.000, 0.000, 16:30:31.273, 1578580231273
81, -75074.01, -6855.95, -22503.56, -6633.35, -133261.25, -152933.16, 4192.20, -187500.02, 0.004, -0.012, 0.980, 16:30:31.273, 1578580231273
82, -61332.04, -61362.82, -61296.37, -68484.42, -61423.60, -61241.79, -61724.92, 123190.38, 0.000, 0.000, 0.000, 16:30:31.273, 1578580231273
83, -75056.69, -6856.71, -22486.84, -6634.33, -133261.97, -152933.84, 4193.23, -187500.02, 0.000, 0.000, 0.000, 16:30:31.273, 1578580231273
84, -61317.58, -61295.57, -61288.13, -68476.71, -61397.65, -61107.50, -61653.13, 123188.82, 0.000, 0.000, 0.000, 16:30:31.273, 1578580231273
85, -75035.67, -6853.92, -22466.54, -6631.61, -133259.00, -152930.78, 4191.11, -187500.02, 0.000, 0.000, 0.000, 16:30:31.273, 1578580231273
86, -61300.75, -61368.81, -61271.29, -68469.27, -61373.24, -61260.65, -61674.92, 123187.55, 0.000, 0.000, 0.000, 16:30:31.273, 1578580231273
87, -75015.09, -6851.55, -22446.76, -6629.35, -133256.56, -152928.42, 4189.25, -187500.02, 0.000, 0.000, 0.000, 16:30:31.273, 1578580231273
88, -61313.36, -61310.52, -61266.15, -68463.46, -61385.87, -61222.88, -61651.92, 123186.47, 0.000, 0.000, 0.000, 16:30:31.273, 1578580231273
89, -74996.80, -6851.79, -22429.42, -6629.55, -133256.63, -152928.44, 4189.70, -187500.02, 0.000, 0.000, 0.000, 16:30:31.273, 1578580231273
90, -61312.71, -61363.47, -61274.33, -68457.55, -61394.14, -61133.79, -61724.68, 123185.58, 0.000, 0.000, 0.000, 16:30:31.273, 1578580231273
91, -74975.73, -6848.71, -22408.88, -6626.62, -133253.45, -152925.28, 4187.62, -187500.02, 0.000, -0.020, 0.978, 16:30:31.739, 1578580231739
92, -61305.22, -61329.32, -61257.95, -68449.17, -61386.40, -61010.22, -61701.63, 123183.99, 0.000, 0.000, 0.000, 16:30:31.739, 1578580231739
93, -74957.53, -6848.86, -22391.40, -6626.78, -133253.47, -152925.25, 4187.85, -187500.02, 0.000, 0.000, 0.000, 16:30:31.739, 1578580231739
94, -61335.73, -61405.20, -61293.44, -68447.39, -61422.86, -61099.70, -61780.62, 123181.51, 0.000, 0.000, 0.000, 16:30:31.739, 1578580231739
95, -74938.18, -6847.81, -22372.80, -6625.86, -133252.30, -152924.03, 4187.20, -187500.02, 0.000, 0.000, 0.000, 16:30:31.739, 1578580231739
96, -61297.22, -61354.38, -61263.20, -68441.35, -61392.62, -61099.21, -61720.83, 123179.56, 0.000, 0.000, 0.000, 16:30:31.739, 1578580231739
97, -74921.28, -6849.24, -22356.59, -6627.38, -133253.61, -152925.44, 4188.58, -187500.02, 0.000, 0.000, 0.000, 16:30:31.739, 1578580231739
98, -61286.13, -61282.87, -61253.97, -68433.38, -61373.44, -60963.91, -61629.19, 123177.82, 0.000, 0.000, 0.000, 16:30:31.740, 1578580231740
99, -74901.01, -6847.32, -22337.08, -6625.48, -133251.58, -152923.34, 4187.33, -187500.02, 0.000, 0.000, 0.000, 16:30:31.740, 1578580231740
100, -61276.90, -61342.71, -61324.54, -68429.39, -61404.42, -61107.52, -61658.69, 123177.11, 0.000, 0.000, 0.000, 16:30:31.740, 1578580231740
101, -74881.13, -6845.62, -22317.84, -6623.87, -133249.83, -152921.59, 4186.17, -187500.02, 0.000, -0.024, 0.976, 16:30:31.740, 1578580231740
102, -61281.33, -61378.74, -61310.61, -68425.05, -61378.60, -61232.29, -61690.72, 123177.48, 0.000, 0.000, 0.000, 16:30:31.740, 1578580231740
103, -74864.93, -6847.64, -22302.26, -6625.97, -133251.73, -152923.39, 4187.93, -187500.02, 0.000, 0.000, 0.000, 16:30:31.740, 1578580231740
104, -61304.93, -61398.00, -61305.45, -68423.00, -61386.83, -61200.37, -61706.68, 123175.34, 0.000, 0.000, 0.000, 16:30:31.740, 1578580231740
105, -74846.60, -6847.64, -22284.67, -6626.06, -133251.63, -152923.28, 4188.36, -187500.02, 0.000, 0.000, 0.000, 16:30:31.740, 1578580231740
106, -61254.66, -61283.65, -61229.34, -68412.56, -61331.80, -61074.57, -61594.52, 123173.09, 0.000, 0.000, 0.000, 16:30:31.740, 1578580231740
107, -74827.67, -6846.85, -22266.43, -6625.46, -133250.81, -152922.45, 4188.14, -187500.02, 0.000, 0.000, 0.000, 16:30:31.740, 1578580231740
108, -61273.37, -61345.23, -61248.54, -68410.57, -61351.98, -61002.63, -61677.16, 123173.44, 0.000, 0.000, 0.000, 16:30:31.740, 1578580231740
109, -74810.10, -6847.48, -22249.62, -6626.22, -133251.39, -152922.94, 4188.94, -187500.02, 0.000, 0.000, 0.000, 16:30:31.741, 1578580231741
110, -61276.90, -61346.33, -61254.53, -68405.14, -61360.88, -61105.09, -61693.59, 123171.81, 0.000, 0.000, 0.000, 16:30:31.741, 1578580231741
111, -74791.02, -6846.65, -22231.25, -6625.41, -133250.30, -152921.98, 4188.34, -187500.02, 0.002, -0.018, 0.980, 16:30:31.741, 1578580231741
112, -61278.54, -61351.40, -61258.20, -68400.96, -61362.89, -61249.52, -61701.09, 123168.48, 0.000, 0.000, 0.000, 16:30:31.741, 1578580231741
113, -74769.87, -6843.75, -22210.75, -6622.67, -133247.42, -152919.03, 4186.24, -187500.02, 0.000, 0.000, 0.000, 16:30:31.741, 1578580231741
114, -61252.90, -61264.34, -61195.27, -68385.79, -61298.38, -61052.49, -61588.73, 123166.78, 0.000, 0.000, 0.000, 16:30:31.741, 1578580231741
115, -74749.28, -6841.58, -22190.88, -6620.68, -133245.14, -152916.58, 4184.81, -187500.02, 0.000, 0.000, 0.000, 16:30:31.741, 1578580231741
116, -61255.89, -61245.19, -61228.15, -68382.09, -61334.79, -60948.78, -61606.14, 123167.49, 0.000, 0.000, 0.000, 16:30:31.741, 1578580231741
117, -74731.09, -6841.49, -22173.31, -6620.79, -133245.05, -152916.53, 4185.03, -187500.02, 0.000, 0.000, 0.000, 16:30:31.742, 1578580231742
118, -61277.42, -61347.13, -61258.66, -68378.95, -61363.11, -61121.89, -61643.02, 123165.91, 0.000, 0.000, 0.000, 16:30:31.742, 1578580231742
119, -74711.64, -6840.30, -22154.51, -6619.63, -133243.75, -152915.16, 4184.16, -187500.02, 0.000, 0.000, 0.000, 16:30:31.742, 1578580231742
120, -61289.64, -61330.08, -61251.38, -68374.59, -61378.49, -61222.72, -61599.89, 123162.55, -0.004, -0.014, 0.978, 16:30:31.742, 1578580231742
121, -74693.05, -6840.13, -22136.63, -6619.36, -133243.34, -152914.72, 4184.27, -187500.02, 0.000, 0.000, 0.000, 16:30:31.742, 1578580231742
122, -61242.68, -61322.68, -61212.20, -68367.13, -61339.18, -61112.53, -61625.12, 123161.75, 0.000, 0.000, 0.000, 16:30:31.742, 1578580231742
123, -74673.48, -6838.81, -22117.79, -6618.22, -133241.89, -152913.33, 4183.51, -187500.02, 0.000, 0.000, 0.000, 16:30:31.742, 1578580231742
124, -61236.96, -61338.62, -61202.67, -68359.66, -61319.19, -61009.29, -61665.62, 123160.08, 0.000, 0.000, 0.000, 16:30:31.742, 1578580231742
125, -74656.32, -6839.88, -22101.22, -6619.22, -133242.98, -152914.27, 4184.56, -187500.02, 0.000, 0.000, 0.000, 16:30:31.742, 1578580231742
126, -61209.49, -61337.97, -61184.46, -68357.40, -61305.51, -60929.45, -61671.19, 123160.68, 0.000, 0.000, 0.000, 16:30:31.742, 1578580231742
127, -74639.34, -6841.09, -22085.02, -6620.68, -133244.20, -152915.36, 4185.88, -187500.02, 0.000, 0.000, 0.000, 16:30:31.742, 1578580231742
128, -61248.61, -61352.88, -61247.18, -68359.39, -61366.24, -61209.76, -61747.70, 123157.88, 0.000, 0.000, 0.000, 16:30:31.742, 1578580231742
129, -74624.60, -6844.64, -22071.01, -6624.32, -133247.69, -152918.84, 4189.12, -187500.02, 0.000, 0.000, 0.000, 16:30:31.742, 1578580231742
130, -61273.42, -61345.81, -61254.86, -68356.48, -61361.41, -61218.34, -61741.37, 123156.19, -0.002, -0.020, 0.978, 16:30:31.742, 1578580231742
131, -74607.26, -6845.47, -22054.40, -6625.30, -133248.48, -152919.70, 4190.08, -187500.02, 0.000, 0.000, 0.000, 16:30:31.743, 1578580231743
132, -61267.56, -61374.07, -61260.34, -68351.95, -61355.65, -61160.79, -61749.51, 123154.29, 0.000, 0.000, 0.000, 16:30:31.743, 1578580231743
133, -74586.78, -6843.30, -22034.68, -6623.13, -133246.09, -152917.36, 4188.52, -187500.02, 0.000, 0.000, 0.000, 16:30:31.743, 1578580231743
134, -61175.87, -61183.81, -61135.15, -68334.84, -61241.88, -60935.59, -61554.60, 123153.62, 0.000, 0.000, 0.000, 16:30:31.743, 1578580231743
135, -74564.66, -6839.43, -22013.27, -6619.45, -133242.16, -152913.23, 4185.43, -187500.02, 0.000, 0.000, 0.000, 16:30:31.743, 1578580231743
136, -61208.33, -61282.25, -61199.61, -68334.69, -61304.91, -60925.18, -61633.59, 123150.87, 0.000, 0.000, 0.000, 16:30:31.743, 1578580231743
137, -74550.24, -6843.32, -21999.48, -6623.38, -133245.98, -152917.05, 4188.76, -187500.02, 0.000, 0.000, 0.000, 16:30:31.743, 1578580231743
138, -61218.72, -61235.75, -61180.57, -68329.26, -61303.97, -60850.86, -61549.28, 123149.70, 0.000, 0.000, 0.000, 16:30:31.744, 1578580231744
139, -74530.70, -6841.98, -21980.73, -6622.29, -133244.56, -152915.75, 4188.16, -187500.02, 0.000, 0.000, 0.000, 16:30:31.744, 1578580231744
140, -61216.48, -61288.64, -61198.23, -68325.81, -61308.89, -61169.05, -61562.54, 123149.19, -0.002, -0.022, 0.978, 16:30:31.744, 1578580231744
141, -74511.26, -6840.75, -21962.06, -6621.23, -133243.17, -152914.38, 4187.26, -187500.02, 0.000, 0.000, 0.000, 16:30:31.744, 1578580231744
142, -61173.59, -61198.80, -61125.63, -68313.84, -61245.61, -61039.46, -61513.99, 123147.55, 0.000, 0.000, 0.000, 16:30:31.744, 1578580231744
143, -74489.00, -6836.73, -21940.43, -6617.35, -133239.14, -152910.25, 4184.18, -187500.02, 0.000, 0.000, 0.000, 16:30:31.744, 1578580231744
144, -61173.88, -61256.27, -61141.05, -68309.88, -61246.21, -60964.36, -61601.61, 123146.91, 0.000, 0.000, 0.000, 16:30:31.744, 1578580231744
145, -74472.23, -6838.25, -21924.40, -6618.95, -133240.67, -152911.61, 4185.83, -187500.02, 0.000, 0.000, 0.000, 16:30:31.744, 1578580231744
146, -61184.28, -61233.50, -61138.14, -68304.45, -61243.02, -60886.71, -61579.21, 123143.55, 0.000, 0.000, 0.000, 16:30:31.745, 1578580231745
147, -74453.86, -6838.43, -21906.81, -6619.11, -133240.38, -152911.39, 4186.08, -187500.02, 0.000, 0.000, 0.000, 16:30:31.745, 1578580231745
148, -61186.87, -61252.16, -61147.84, -68299.82, -61250.15, -61009.98, -61595.59, 123144.52, 0.000, 0.000, 0.000, 16:30:31.745, 1578580231745
149, -74433.38, -6836.15, -21887.01, -6616.88, -133238.09, -152909.06, 4184.45, -187500.02, 0.000, 0.000, 0.000, 16:30:31.745, 1578580231745
150, -61110.32, -61103.36, -61069.57, -68286.05, -61186.07, -60862.70, -61444.45, 123142.30, -0.002, -0.018, 0.978, 16:30:31.745, 1578580231745
151, -74412.30, -6833.31, -21866.62, -6614.04, -133235.09, -152906.11, 4182.17, -187500.02, 0.000, 0.000, 0.000, 16:30:31.745, 1578580231745
152, -61152.92, -61172.43, -61130.90, -68286.30, -61237.07, -61072.21, -61538.15, 123142.64, 0.000, 0.000, 0.000, 16:30:31.746, 1578580231746
153, -74395.95, -6835.34, -21851.11, -6616.18, -133237.02, -152907.98, 4184.20, -187500.02, 0.000, 0.000, 0.000, 16:30:31.747, 1578580231747
154, -61142.34, -61224.64, -61137.94, -68281.27, -61252.88, -61033.31, -61530.86, 123140.20, 0.000, 0.000, 0.000, 16:30:31.748, 1578580231748
155, -74375.83, -6833.46, -21831.69, -6614.42, -133235.08, -152905.97, 4183.04, -187500.02, 0.000, 0.000, 0.000, 16:30:31.748, 1578580231748
156, -61111.01, -61200.48, -61083.18, -68273.36, -61197.66, -60909.04, -61531.29, 123140.07, 0.000, 0.000, 0.000, 16:30:31.748, 1578580231748
157, -74358.87, -6834.83, -21815.46, -6615.80, -133236.44, -152907.20, 4184.27, -187500.02, 0.000, 0.000, 0.000, 16:30:31.748, 1578580231748
158, -61138.90, -61257.05, -61122.96, -68271.92, -61221.61, -60885.14, -61607.57, 123136.98, 0.000, 0.000, 0.000, 16:30:31.748, 1578580231748
159, -74339.75, -6833.96, -21797.02, -6615.02, -133235.55, -152906.25, 4183.80, -187500.02, -0.002, -0.014, 0.980, 16:30:31.748, 1578580231748
160, -61136.33, -61271.05, -61124.89, -68267.01, -61219.79, -60988.30, -61631.89, 123136.18, 0.000, 0.000, 0.000, 16:30:31.749, 1578580231749
161, -74321.18, -6833.78, -21779.25, -6614.86, -133235.14, -152905.89, 4183.98, -187500.02, 0.000, 0.000, 0.000, 16:30:31.749, 1578580231749
162, -61131.32, -61175.79, -61090.40, -68257.02, -61203.97, -60887.76, -61530.84, 123133.14, 0.000, 0.000, 0.000, 16:30:31.749, 1578580231749
163, -74299.48, -6830.38, -21758.35, -6611.56, -133231.70, -152902.36, 4181.43, -187500.02, 0.000, 0.000, 0.000, 16:30:31.749, 1578580231749
164, -61103.63, -61187.03, -61087.34, -68251.05, -61205.85, -60982.35, -61535.89, 123130.93, 0.000, 0.000, 0.000, 16:30:31.749, 1578580231749
165, -74279.80, -6828.95, -21739.37, -6610.15, -133230.16, -152900.80, 4180.49, -187500.02, 0.000, 0.000, 0.000, 16:30:31.749, 1578580231749
166, -61095.07, -61168.12, -61083.38, -68242.89, -61192.01, -60928.06, -61537.17, 123129.12, 0.000, 0.000, 0.000, 16:30:31.749, 1578580231749
167, -74260.02, -6827.36, -21720.17, -6608.67, -133228.48, -152899.05, 4179.33, -187500.02, 0.000, 0.000, 0.000, 16:30:31.749, 1578580231749
168, -61091.34, -61158.13, -61060.96, -68238.87, -61185.60, -60992.50, -61530.28, 123129.36, 0.000, 0.000, 0.000, 16:30:31.749, 1578580231749
169, -74244.47, -6830.27, -21705.51, -6611.62, -133231.30, -152901.78, 4182.15, -187500.02, -0.002, -0.018, 0.978, 16:30:31.749, 1578580231749
170, -61106.94, -61123.55, -61074.95, -68237.13, -61205.36, -60960.71, -61490.94, 123127.51, 0.000, 0.000, 0.000, 16:30:31.750, 1578580231750
171, -74226.52, -6830.51, -21688.25, -6612.07, -133231.50, -152902.02, 4182.84, -187500.02, 0.000, 0.000, 0.000, 16:30:31.750, 1578580231750
172, -61058.35, -61038.54, -61025.89, -68226.30, -61144.51, -60829.84, -61405.20, 123124.60, 0.000, 0.000, 0.000, 16:30:31.750, 1578580231750
173, -74207.68, -6829.93, -21670.08, -6611.60, -133230.83, -152901.28, 4182.57, -187500.02, 0.000, 0.000, 0.000, 16:30:31.750, 1578580231750
174, -61090.27, -61129.92, -61093.35, -68228.02, -61193.24, -60824.86, -61535.04, 123124.78, 0.000, 0.000, 0.000, 16:30:31.750, 1578580231750
175, -74189.77, -6830.27, -21652.92, -6611.98, -133230.97, -152901.47, 4182.97, -187500.02, 0.000, 0.000, 0.000, 16:30:31.750, 1578580231750
176, -61051.64, -61049.36, -61011.57, -68213.09, -61116.46, -60719.65, -61445.99, 123121.48, 0.000, 0.000, 0.000, 16:30:31.750, 1578580231750
177, -74166.33, -6825.33, -21630.39, -6607.15, -133225.95, -152896.36, 4179.15, -187500.02, 0.000, 0.000, 0.000, 16:30:31.750, 1578580231750
178, -61110.29, -61234.32, -61086.76, -68214.35, -61199.81, -60982.60, -61484.98, 123121.80, 0.000, 0.000, 0.000, 16:30:31.751, 1578580231751
179, -74151.82, -6829.08, -21616.51, -6610.93, -133229.58, -152899.98, 4182.73, -187500.02, -0.002, -0.018, 0.976, 16:30:31.751, 1578580231751
180, -61112.59, -61233.81, -61108.10, -68215.35, -61208.11, -61051.39, -61536.50, 123121.92, 0.000, 0.000, 0.000, 16:30:31.751, 1578580231751
181, -74137.36, -6832.95, -21602.80, -6614.73, -133233.31, -152903.67, 4185.99, -187500.02, 0.000, 0.000, 0.000, 16:30:31.751, 1578580231751
182, -61132.80, -61236.04, -61140.51, -68215.82, -61228.31, -61057.54, -61553.91, 123119.04, 0.000, 0.000, 0.000, 16:30:31.751, 1578580231751
183, -74120.30, -6834.09, -21586.46, -6615.92, -133234.36, -152904.66, 4187.13, -187500.02, 0.000, 0.000, 0.000, 16:30:31.751, 1578580231751
184, -61078.55, -61102.13, -61055.71, -68203.46, -61159.91, -60923.14, -61428.09, 123115.77, 0.000, 0.000, 0.000, 16:30:31.751, 1578580231751
185, -74096.37, -6828.44, -21563.20, -6610.42, -133228.58, -152898.80, 4182.61, -187500.02, 0.000, 0.000, 0.000, 16:30:31.751, 1578580231751
186, -61041.98, -61050.23, -60989.37, -68189.36, -61110.43, -60731.14, -61384.10, 123114.86, 0.000, 0.000, 0.000, 16:30:31.751, 1578580231751
187, -74076.54, -6826.89, -21544.06, -6609.08, -133226.94, -152897.22, 4181.81, -187500.02, 0.000, 0.000, 0.000, 16:30:31.752, 1578580231752
188, -61017.87, -61050.86, -60980.65, -68182.34, -61104.30, -60651.05, -61413.41, 123112.51, 0.000, 0.000, 0.000, 16:30:31.752, 1578580231752
189, -74056.55, -6825.15, -21524.77, -6607.40, -133225.17, -152895.38, 4180.45, -187500.02, 0.006, -0.020, 0.984, 16:30:31.752, 1578580231752
190, -61023.75, -61084.77, -60991.36, -68181.58, -61124.73, -60932.84, -61440.63, 123113.45, 0.000, 0.000, 0.000, 16:30:31.752, 1578580231752
191, -74039.80, -6826.69, -21508.68, -6608.87, -133226.52, -152896.64, 4181.94, -187500.02, 0.000, 0.000, 0.000, 16:30:31.752, 1578580231752
192, -61037.25, -61042.23, -60991.00, -68174.63, -61117.00, -60844.64, -61367.38, 123112.35, 0.000, 0.000, 0.000, 16:30:31.752, 1578580231752
193, -74020.57, -6825.98, -21490.26, -6608.23, -133225.67, -152895.63, 4181.56, -187500.02, 0.000, 0.000, 0.000, 16:30:31.752, 1578580231752
194, -61043.39, -61114.41, -61040.40, -68171.73, -61141.83, -60777.23, -61478.58, 123111.86, 0.000, 0.000, 0.000, 16:30:31.752, 1578580231752
195, -74002.76, -6826.40, -21473.21, -6608.74, -133226.03, -152895.98, 4182.28, -187500.02, 0.000, 0.000, 0.000, 16:30:31.752, 1578580231752
196, -61053.25, -61094.73, -61054.46, -68167.95, -61147.44, -60722.47, -61456.66, 123108.73, 0.000, 0.000, 0.000, 16:30:31.753, 1578580231753
197, -73984.59, -6826.58, -21455.93, -6609.03, -133225.95, -152896.05, 4182.68, -187500.02, 0.000, 0.000, 0.000, 16:30:31.753, 1578580231753
198, -61065.77, -61132.11, -61071.04, -68163.48, -61148.74, -60854.16, -61440.23, 123106.61, 0.000, -0.012, 0.980, 16:30:31.753, 1578580231753
199, -73967.87, -6828.03, -21439.75, -6610.60, -133227.34, -152897.44, 4184.07, -187500.02, 0.000, 0.000, 0.000, 16:30:31.753, 1578580231753
200, -61091.52, -61137.74, -61106.98, -68164.80, -61181.71, -60922.16, -61501.40, 123105.36, 0.000, 0.000, 0.000, 16:30:31.753, 1578580231753
201, -73950.14, -6828.55, -21422.74, -6611.35, -133227.80, -152897.75, 4184.65, -187500.02, 0.000, 0.000, 0.000, 16:30:31.753, 1578580231753
202, -60992.03, -61026.18, -60980.38, -68151.30, -61074.55, -60745.96, -61384.44, 123104.02, 0.000, 0.000, 0.000, 16:30:31.753, 1578580231753
203, -73929.66, -6826.40, -21403.18, -6609.25, -133225.48, -152895.50, 4183.33, -187500.02, 0.000, 0.000, 0.000, 16:30:31.753, 1578580231753
204, -61023.43, -61063.02, -60984.56, -68143.31, -61080.23, -60752.98, -61391.70, 123103.75, 0.000, 0.000, 0.000, 16:30:31.754, 1578580231754
205, -73909.55, -6824.73, -21383.69, -6607.51, -133223.52, -152893.45, 4181.85, -187500.02, 0.000, 0.000, 0.000, 16:30:31.754, 1578580231754
206, -61034.23, -61183.09, -61037.38, -68142.89, -61122.34, -61013.00, -61456.84, 123102.05, 0.000, 0.000, 0.000, 16:30:31.754, 1578580231754
207, -73889.99, -6823.32, -21364.91, -6606.33, -133222.06, -152891.94, 4180.83, -187500.02, 0.000, 0.000, 0.000, 16:30:31.754, 1578580231754
208, -61023.12, -61108.48, -61009.82, -68135.98, -61115.55, -60942.61, -61401.52, 123098.49, -0.004, -0.014, 0.972, 16:30:31.754, 1578580231754
209, -73873.48, -6825.08, -21349.16, -6608.23, -133223.67, -152893.59, 4182.77, -187500.02, 0.000, 0.000, 0.000, 16:30:31.754, 1578580231754
210, -60999.81, -61048.85, -60972.56, -68129.81, -61080.97, -60861.12, -61344.34, 123096.23, 0.000, 0.000, 0.000, 16:30:31.754, 1578580231754
211, -73852.53, -6822.56, -21328.97, -6605.68, -133221.06, -152890.89, 4180.87, -187500.02, 0.000, 0.000, 0.000, 16:30:32.220, 1578580232220
212, -60949.43, -60947.80, -60891.13, -68115.33, -60998.00, -60647.48, -61292.28, 123097.24, 0.000, 0.000, 0.000, 16:30:32.220, 1578580232220
213, -73831.25, -6819.56, -21308.37, -6602.77, -133217.89, -152887.77, 4178.48, -187500.02, 0.000, 0.000, 0.000, 16:30:32.220, 1578580232220
214, -60984.63, -61085.75, -60967.49, -68116.20, -61074.44, -60865.18, -61475.18, 123097.18, 0.000, 0.000, 0.000, 16:30:32.220, 1578580232220
215, -73814.71, -6821.39, -21292.61, -6604.63, -133219.56, -152889.39, 4180.29, -187500.02, 0.000, 0.000, 0.000, 16:30:32.220, 1578580232220
216, -60989.08, -61069.16, -60966.08, -68113.56, -61083.11, -60844.40, -61449.19, 123093.96, 0.000, 0.000, 0.000, 16:30:32.220, 1578580232220
217, -73796.88, -6821.77, -21275.55, -6605.16, -133219.95, -152889.69, 4180.92, -187500.02, 0.000, 0.000, 0.000, 16:30:32.220, 1578580232220
218, -60954.59, -61021.38, -60914.38, -68103.51, -61038.72, -60711.43, -61352.54, 123093.65, -0.008, -0.014, 0.974, 16:30:32.220, 1578580232220
219, -73777.95, -6821.24, -21257.51, -6604.74, -133219.30, -152889.02, 4180.85, -187500.02, 0.000, 0.000, 0.000, 16:30:32.220, 1578580232220
220, -60958.46, -60989.01, -60921.36, -68097.72, -61035.50, -60611.29, -61298.72, 123091.27, 0.000, 0.000, 0.000, 16:30:32.221, 1578580232221
221, -73758.98, -6820.63, -21239.32, -6604.02, -133218.53, -152888.23, 4180.45, -187500.02, 0.000, 0.000, 0.000, 16:30:32.221, 1578580232221
222, -61029.98, -61079.05, -61011.52, -68098.16, -61120.82, -60796.70, -61422.95, 123088.26, 0.000, 0.000, 0.000, 16:30:32.221, 1578580232221
223, -73739.32, -6819.11, -21220.25, -6602.66, -133216.91, -152886.58, 4179.40, -187500.02, 0.000, 0.000, 0.000, 16:30:32.221, 1578580232221
224, -60954.86, -60983.83, -60932.75, -68087.70, -61046.66, -60757.56, -61318.05, 123084.95, 0.000, 0.000, 0.000, 16:30:32.221, 1578580232221
225, -73718.80, -6816.92, -21200.54, -6600.47, -133214.63, -152884.25, 4177.76, -187500.02, 0.000, 0.000, 0.000, 16:30:32.221, 1578580232221
226, -60948.96, -60984.92, -60935.75, -68082.61, -61045.34, -60748.48, -61330.86, 123083.38, 0.000, 0.000, 0.000, 16:30:32.221, 1578580232221
227, -73702.91, -6819.56, -21185.47, -6603.11, -133216.95, -152886.59, 4180.27, -187500.02, 0.000, 0.000, 0.000, 16:30:32.221, 1578580232221
228, -60938.74, -60932.95, -60907.79, -68077.42, -61009.55, -60777.79, -61281.35, 123084.37, -0.008, -0.016, 0.978, 16:30:32.221, 1578580232221
229, -73682.95, -6817.82, -21166.25, -6601.59, -133215.09, -152884.70, 4179.06, -187500.02, 0.000, 0.000, 0.000, 16:30:32.221, 1578580232221
230, -60938.25, -60966.26, -60951.17, -68072.80, -61053.41, -60727.99, -61307.28, 123080.99, 0.000, 0.000, 0.000, 16:30:32.221, 1578580232221
231, -73664.48, -6817.53, -21148.53, -6601.45, -133214.81, -152884.41, 4179.15, -187500.02, 0.000, 0.000, 0.000, 16:30:32.221, 1578580232221
232, -60948.31, -60957.21, -60919.81, -68065.84, -61018.94, -60661.47, -61306.45, 123081.40, 0.000, 0.000, 0.000, 16:30:32.221, 1578580232221
233, -73647.97, -6819.29, -21132.54, -6603.20, -133216.45, -152886.00, 4180.89, -187500.02, 0.000, 0.000, 0.000, 16:30:32.221, 1578580232221
234, -60988.10, -61102.54, -60993.86, -68069.62, -61084.97, -60934.54, -61432.09, 123080.68, 0.000, 0.000, 0.000, 16:30:32.221, 1578580232221
235, -73629.95, -6819.65, -21115.36, -6603.62, -133216.66, -152886.19, 4181.50, -187500.02, 0.000, 0.000, 0.000, 16:30:32.222, 1578580232222
236, -60936.33, -60952.36, -60903.00, -68056.74, -61013.78, -60781.70, -61289.46, 123078.13, 0.000, 0.000, 0.000, 16:30:32.222, 1578580232222
237, -73608.00, -6816.05, -21094.30, -6600.05, -133212.84, -152882.42, 4178.52, -187500.02, -0.008, -0.018, 0.976, 16:30:32.222, 1578580232222
238, -60929.91, -60997.62, -60878.82, -68047.31, -61001.35, -60642.23, -61282.51, 123077.13, 0.000, 0.000, 0.000, 16:30:32.222, 1578580232222
239, -73585.59, -6811.87, -21072.55, -6595.93, -133208.56, -152878.06, 4175.06, -187500.02, 0.000, 0.000, 0.000, 16:30:32.222, 1578580232222
240, -60908.43, -60981.10, -60883.22, -68036.38, -60969.37, -60659.17, -61332.76, 123074.00, 0.000, 0.000, 0.000, 16:30:32.222, 1578580232222
241, -73563.26, -6807.98, -21050.96, -6592.13, -133204.59, -152873.88, 4172.02, -187500.02, 0.000, 0.000, 0.000, 16:30:32.222, 1578580232222
242, -60900.37, -61001.35, -60907.07, -68036.02, -60990.38, -60913.48, -61357.84, 123072.50, 0.000, 0.000, 0.000, 16:30:32.222, 1578580232222
243, -73548.14, -6811.20, -21036.75, -6595.57, -133207.86, -152877.13, 4175.46, -187500.02, 0.000, 0.000, 0.000, 16:30:32.222, 1578580232222
244, -60885.17, -60904.99, -60855.91, -68030.44, -60965.86, -60814.96, -61256.45, 123072.63, 0.000, 0.000, 0.000, 16:30:32.222, 1578580232222
245, -73528.25, -6809.68, -21017.54, -6594.10, -133206.17, -152875.52, 4174.26, -187500.02, 0.000, 0.000, 0.000, 16:30:32.222, 1578580232222
246, -60864.51, -60883.76, -60825.53, -68018.55, -60941.92, -60679.20, -61235.22, 123069.17, 0.000, 0.000, 0.000, 16:30:32.222, 1578580232222
247, -73506.34, -6806.13, -20996.47, -6590.72, -133202.56, -152871.88, 4171.30, -187500.02, -0.004, -0.018, 0.978, 16:30:32.222, 1578580232222
248, -60874.53, -60903.18, -60852.44, -68011.20, -60965.97, -60538.31, -61264.79, 123069.17, 0.000, 0.000, 0.000, 16:30:32.222, 1578580232222
249, -73487.77, -6805.99, -20978.63, -6590.55, -133202.27, -152871.52, 4171.53, -187500.02, 0.000, 0.000, 0.000, 16:30:32.223, 1578580232223
250, -60901.75, -60999.16, -60887.65, -68012.63, -61010.34, -60738.38, -61351.42, 123068.61, 0.000, 0.000, 0.000, 16:30:32.223, 1578580232223
251, -73470.83, -6807.36, -20962.36, -6592.04, -133203.58, -152872.83, 4173.36, -187500.02, 0.000, 0.000, 0.000, 16:30:32.223, 1578580232223
252, -60842.07, -60942.32, -60829.71, -68006.21, -60948.98, -60748.24, -61284.55, 123065.93, 0.000, 0.000, 0.000, 16:30:32.223, 1578580232223
253, -73452.55, -6807.47, -20944.86, -6592.13, -133203.55, -152872.73, 4173.63, -187500.02, 0.000, 0.000, 0.000, 16:30:32.223, 1578580232223
254, -60837.98, -60874.68, -60783.06, -67995.95, -60915.45, -60590.14, -61191.63, 123065.75, 0.000, 0.000, 0.000, 16:30:32.223, 1578580232223
255, -73433.48, -6806.89, -20926.60, -6591.62, -133202.78, -152872.00, 4173.20, -187500.02, 0.000, 0.000, 0.000, 16:30:32.223, 1578580232223
0, -60907.47, -60917.78, -60886.71, -67996.80, -61010.71, -60581.43, -61347.96, 123063.63, 0.000, 0.000, 0.000, 16:30:32.223, 1578580232223
1, -73416.13, -6807.83, -20909.99, -6592.71, -133203.73, -152872.88, 4174.55, -187500.02, -0.004, -0.016, 0.976, 16:30:32.223, 1578580232223
2, -60881.77, -60909.15, -60882.98, -67993.52, -60995.36, -60538.38, -61325.36, 123060.52, 0.000, 0.000, 0.000, 16:30:32.223, 1578580232223
3, -73398.14, -6808.21, -20892.67, -6593.12, -133203.98, -152873.05, 4175.19, -187500.02, 0.000, 0.000, 0.000, 16:30:32.223, 1578580232223
4, -60830.61, -60882.62, -60809.82, -67983.07, -60921.22, -60585.09, -61239.96, 123061.41, 0.000, 0.000, 0.000, 16:30:32.223, 1578580232223
5, -73378.27, -6806.62, -20873.49, -6591.60, -133202.17, -152871.17, 4173.90, -187500.02, 0.000, 0.000, 0.000, 16:30:32.224, 1578580232224
6, -60820.41, -60869.54, -60808.72, -67979.77, -60924.28, -60711.09, -61222.50, 123059.45, 0.000, 0.000, 0.000, 16:30:32.224, 1578580232224
7, -73361.46, -6808.23, -20857.51, -6593.27, -133203.56, -152872.63, 4175.55, -187500.02, 0.000, 0.000, 0.000, 16:30:32.224, 1578580232224
8, -60841.02, -60849.40, -60817.35, -67976.59, -60926.18, -60652.13, -61229.50, 123057.97, 0.000, 0.000, 0.000, 16:30:32.224, 1578580232224
9, -73343.78, -6808.92, -20840.56, -6593.90, -133204.20, -152873.14, 4176.45, -187500.02, 0.000, 0.000, 0.000, 16:30:32.224, 1578580232224
10, -60826.18, -60865.61, -60803.31, -67971.30, -60916.73, -60562.72, -61238.39, 123056.14, 0.000, 0.000, 0.000, 16:30:32.224, 1578580232224
11, -73324.00, -6807.58, -20821.72, -6592.83, -133202.78, -152871.70, 4175.69, -187500.02, -0.002, -0.016, 0.974, 16:30:32.224, 1578580232224
12, -60814.16, -60825.20, -60806.58, -67964.74, -60897.66, -60676.02, -61188.88, 123054.40, 0.000, 0.000, 0.000, 16:30:32.224, 1578580232224
13, -73304.96, -6806.69, -20803.33, -6592.13, -133201.84, -152870.84, 4175.13, -187500.02, 0.000, 0.000, 0.000, 16:30:32.224, 1578580232224
14, -60836.62, -60880.32, -60816.32, -67961.51, -60925.49, -60758.34, -61179.05, 123053.32, 0.000, 0.000, 0.000, 16:30:32.224, 1578580232224
15, -73287.16, -6807.38, -20786.25, -6592.78, -133202.28, -152871.16, 4175.77, -187500.02, 0.000, 0.000, 0.000, 16:30:32.224, 1578580232224
16, -60842.99, -60882.53, -60801.37, -67954.24, -60909.11, -60638.31, -61230.77, 123053.50, 0.000, 0.000, 0.000, 16:30:32.224, 1578580232224
17, -73268.41, -6806.84, -20768.14, -6592.29, -133201.64, -152870.50, 4175.69, -187500.02, 0.000, 0.000, 0.000, 16:30:32.225, 1578580232225
18, -60859.20, -60916.95, -60855.98, -67952.77, -60963.06, -60624.19, -61303.84, 123050.23, 0.000, 0.000, 0.000, 16:30:32.225, 1578580232225
19, -73250.33, -6807.07, -20750.84, -6592.65, -133201.89, -152870.73, 4176.31, -187500.02, 0.000, 0.000, 0.000, 16:30:32.225, 1578580232225
20, -60830.25, -60856.67, -60799.58, -67944.90, -60917.60, -60528.21, -61217.92, 123048.45, 0.000, -0.018, 0.976, 16:30:32.225, 1578580232225
21, -73230.66, -6805.82, -20732.07, -6591.51, -133200.34, -152869.23, 4175.33, -187500.02, 0.000, 0.000, 0.000, 16:30:32.225, 1578580232225
22, -60783.67, -60779.58, -60759.28, -67934.95, -60869.21, -60379.57, -61142.75, 123046.33, 0.000, 0.000, 0.000, 16:30:32.225, 1578580232225
23, -73211.13, -6804.70, -20713.27, -6590.50, -133199.20, -152867.91, 4174.52, -187500.02, 0.000, 0.000, 0.000, 16:30:32.225, 1578580232225
24, -60798.20, -60876.94, -60790.86, -67933.99, -60891.45, -60762.81, -61225.61, 123046.48, 0.000, 0.000, 0.000, 16:30:32.225, 1578580232225
25, -73191.86, -6803.85, -20694.76, -6589.67, -133198.22, -152866.95, 4174.19, -187500.02, 0.000, 0.000, 0.000, 16:30:32.225, 1578580232225
26, -60768.33, -60741.54, -60715.00, -67923.09, -60833.58, -60680.00, -61110.92, 123045.81, 0.000, 0.000, 0.000, 16:30:32.225, 1578580232225
27, -73171.48, -6801.79, -20675.16, -6587.73, -133195.97, -152864.69, 4172.71, -187500.02, 0.000, 0.000, 0.000, 16:30:32.225, 1578580232225
28, -60811.18, -60762.34, -60769.47, -67917.18, -60876.74, -60601.43, -61164.38, 123043.20, 0.000, 0.000, 0.000, 16:30:32.225, 1578580232225
29, -73154.20, -6802.98, -20658.67, -6588.85, -133196.97, -152865.59, 4173.85, -187500.02, 0.000, 0.000, 0.000, 16:30:32.225, 1578580232225
30, -60843.46, -60858.63, -60848.22, -67922.08, -60939.97, -60603.20, -61256.09, 123044.02, -0.004, -0.020, 0.976, 16:30:32.226, 1578580232226
31, -73137.90, -6805.01, -20643.13, -6590.97, -133198.95, -152867.42, 4175.86, -187500.02, 0.000, 0.000, 0.000, 16:30:32.226, 1578580232226
32, -60828.17, -60888.50, -60838.29, -67914.84, -60911.47, -60607.42, -61294.27, 123040.91, 0.000, 0.000, 0.000, 16:30:32.226, 1578580232226
33, -73118.01, -6803.51, -20624.13, -6589.54, -133197.27, -152865.78, 4174.95, -187500.02, 0.000, 0.000, 0.000, 16:30:32.226, 1578580232226
34, -60799.76, -60846.90, -60809.15, -67908.64, -60901.24, -60594.50, -61244.61, 123038.26, 0.000, 0.000, 0.000, 16:30:32.226, 1578580232226
35, -73099.88, -6803.74, -20606.81, -6589.94, -133197.30, -152865.83, 4175.51, -187500.02, 0.000, 0.000, 0.000, 16:30:32.227, 1578580232227
36, -60785.19, -60813.06, -60761.79, -67901.71, -60869.09, -60498.44, -61196.88, 123036.89, 0.000, 0.000, 0.000, 16:30:32.227, 1578580232227
37, -73082.29, -6804.50, -20590.05, -6590.84, -133198.05, -152866.48, 4176.36, -187500.02, 0.000, 0.000, 0.000, 16:30:32.227, 1578580232227
38, -60733.87, -60819.56, -60702.15, -67894.36, -60824.73, -60372.86, -61161.79, 123037.01, 0.000, 0.000, 0.000, 16:30:32.227, 1578580232227
39, -73063.55, -6804.23, -20572.14, -6590.61, -133197.61, -152866.02, 4176.36, -187500.02, 0.000, 0.000, 0.000, 16:30:32.227, 1578580232227
40, -60788.99, -60804.43, -60770.19, -67894.20, -60882.08, -60614.69, -61143.22, 123033.83, -0.002, -0.012, 0.978, 16:30:32.227, 1578580232227
41, -73045.97, -6804.85, -20555.27, -6591.40, -133198.17, -152866.44, 4177.16, -187500.02, 0.000, 0.000, 0.000, 16:30:32.227, 1578580232227
42, -60739.57, -60735.16, -60719.41, -67885.02, -60818.67, -60586.73, -61086.04, 123031.73, 0.000, 0.000, 0.000, 16:30:32.227, 1578580232227
43, -73024.27, -6801.55, -20534.32, -6588.11, -133194.67, -152862.88, 4174.52, -187500.02, 0.000, 0.000, 0.000, 16:30:32.227, 1578580232227
44, -60726.09, -60720.30, -60692.54, -67875.34, -60795.00, -60500.45, -61092.79, 123030.86, 0.000, 0.000, 0.000, 16:30:32.227, 1578580232227
45, -73003.81, -6799.42, -20514.61, -6586.05, -133192.39, -152860.67, 4172.76, -187500.02, 0.000, 0.000, 0.000, 16:30:32.228, 1578580232228
46, -60743.57, -60736.64, -60721.53, -67872.23, -60835.72, -60770.12, -61110.52, 123028.40, 0.000, 0.000, 0.000, 16:30:32.228, 1578580232228
47, -72986.96, -6801.01, -20498.70, -6587.64, -133193.81, -152862.09, 4174.41, -187500.02, 0.000, 0.000, 0.000, 16:30:32.228, 1578580232228
48, -60739.86, -60793.43, -60720.19, -67869.69, -60831.10, -60697.79, -61127.75, 123029.12, 0.000, 0.000, 0.000, 16:30:32.228, 1578580232228
49, -72967.22, -6799.87, -20479.88, -6586.63, -133192.41, -152860.58, 4173.74, -187500.02, 0.000, 0.000, 0.000, 16:30:32.228, 1578580232228
50, -60726.38, -60737.91, -60698.08, -67858.89, -60808.90, -60539.23, -61124.66, 123029.07, -0.004, -0.014, 0.980, 16:30:32.228, 1578580232228
51, -72947.71, -6798.60, -20461.05, -6585.45, -133191.09, -152859.22, 4173.07, -187500.02, 0.000, 0.000, 0.000, 16:30:32.228, 1578580232228
52, -60723.09, -60732.44, -60706.57, -67856.59, -60821.20, -60501.92, -61115.77, 123026.68, 0.000, 0.000, 0.000, 16:30:32.229, 1578580232229
53, -72931.21, -6800.47, -20445.23, -6587.30, -133192.63, -152860.84, 4174.84, -187500.02, 0.000, 0.000, 0.000, 16:30:32.229, 1578580232229
54, -60742.38, -60821.71, -60738.81, -67854.75, -60841.83, -60483.33, -61145.32, 123025.30, 0.000, 0.000, 0.000, 16:30:32.229, 1578580232229
55, -72913.16, -6800.67, -20427.91, -6587.64, -133192.67, -152860.80, 4175.15, -187500.02, 0.000, 0.000, 0.000, 16:30:32.229, 1578580232229
56, -60721.17, -60812.46, -60711.52, -67849.12, -60817.17, -60633.84, -61151.27, 123022.32, 0.000, 0.000, 0.000, 16:30:32.229, 1578580232229
57, -72893.77, -6799.78, -20409.44, -6586.86, -133191.73, -152859.69, 4174.72, -187500.02, 0.000, 0.000, 0.000, 16:30:32.230, 1578580232230
58, -60674.68, -60700.45, -60652.06, -67840.54, -60766.25, -60519.94, -61069.21, 123021.36, 0.000, 0.000, 0.000, 16:30:32.230, 1578580232230
59, -72877.05, -6801.46, -20393.48, -6588.60, -133193.22, -152861.20, 4176.49, -187500.02, 0.000, 0.000, 0.000, 16:30:32.230, 1578580232230
60, -60723.23, -60741.89, -60677.50, -67837.05, -60793.86, -60434.46, -61061.45, 123020.71, -0.002, -0.016, 0.974, 16:30:32.230, 1578580232230
61, -72857.66, -6800.43, -20374.71, -6587.57, -133191.94, -152859.94, 4175.53, -187500.02, 0.000, 0.000, 0.000, 16:30:32.230, 1578580232230
62, -60751.28, -60859.68, -60757.14, -67837.12, -60844.96, -60607.58, -61176.84, 123018.68, 0.000, 0.000, 0.000, 16:30:32.231, 1578580232231
63, -72839.48, -6800.50, -20357.39, -6587.73, -133191.83, -152859.86, 4175.77, -187500.02, 0.000, 0.000, 0.000, 16:30:32.231, 1578580232231
64, -60693.05, -60743.43, -60668.87, -67827.66, -60772.43, -60498.05, -61061.14, 123018.32, 0.000, 0.000, 0.000, 16:30:32.231, 1578580232231
65, -72823.88, -6803.33, -20342.63, -6590.61, -133194.47, -152862.48, 4178.46, -187500.02, 0.000, 0.000, 0.000, 16:30:32.231, 1578580232231
66, -60700.65, -60788.11, -60685.77, -67826.43, -60788.00, -60443.85, -61114.61, 123017.54, 0.000, 0.000, 0.000, 16:30:32.231, 1578580232231
67, -72803.38, -6801.17, -20322.90, -6588.53, -133192.14, -152860.02, 4176.92, -187500.02, 0.000, 0.000, 0.000, 16:30:32.231, 1578580232231
68, -60679.55, -60691.96, -60653.18, -67815.44, -60743.41, -60495.64, -61035.21, 123016.15, 0.000, 0.000, 0.000, 16:30:32.231, 1578580232231
69, -72783.02, -6799.27, -20303.38, -6586.68, -133190.05, -152857.83, 4175.37, -187500.02, -0.002, -0.014, 0.978, 16:30:32.231, 1578580232231
70, -60657.96, -60666.45, -60636.04, -67806.38, -60734.85, -60415.45, -61040.91, 123014.32, 0.000, 0.000, 0.000, 16:30:32.232, 1578580232232
71, -72761.70, -6796.38, -20282.84, -6583.73, -133186.95, -152854.67, 4172.87, -187500.02, 0.000, 0.000, 0.000, 16:30:32.232, 1578580232232
72, -60675.37, -60776.52, -60683.40, -67806.56, -60786.62, -60691.71, -61172.30, 123014.56, 0.000, 0.000, 0.000, 16:30:32.232, 1578580232232
73, -72744.80, -6797.86, -20266.71, -6585.29, -133188.25, -152855.95, 4174.59, -187500.02, 0.000, 0.000, 0.000, 16:30:32.232, 1578580232232
74, -60687.71, -60745.40, -60670.10, -67803.57, -60792.03, -60745.38, -61134.63, 123012.22, 0.000, 0.000, 0.000, 16:30:32.232, 1578580232232
75, -72728.41, -6799.78, -20251.04, -6587.42, -133190.08, -152857.78, 4176.56, -187500.02, 0.000, 0.000, 0.000, 16:30:32.700, 1578580232700
76, -60659.68, -60688.02, -60630.67, -67797.04, -60754.61, -60662.48, -61042.39, 123009.73, 0.000, 0.000, 0.000, 16:30:32.700, 1578580232700
77, -72709.71, -6799.47, -20233.16, -6587.15, -133189.53, -152857.11, 4176.36, -187500.02, 0.000, 0.000, 0.000, 16:30:32.700, 1578580232700
78, -60668.00, -60658.14, -60628.25, -67790.02, -60746.21, -60574.57, -60993.68, 123007.55, 0.000, 0.000, 0.000, 16:30:32.700, 1578580232700
79, -72690.71, -6798.82, -20214.85, -6586.48, -133188.66, -152856.20, 4175.91, -187500.02, -0.002, -0.016, 0.978, 16:30:32.700, 1578580232700
