%OpenBCI Raw EEG Data
%Number of channels = 8
%Sample Rate = 250.0 Hz
%First Column = SampleIndex
%Last Column = Timestamp 
%Other Columns = EEG data in microvolts followed by Accel Data (in G) interleaved with Aux Data
0, 0.00, 0.00, 0.00, 0.00, 0.00, 0.00, 0.00, 0.00, 445, 763, 1018, 17:15:31.424, 1579101331424
1, -109264.33, -85845.88, -103105.55, -119709.37, -179652.16, -113283.02, -176159.09, -185326.55, 449, 619, 1019, 17:15:31.440, 1579101331440
2, -109261.60, -85843.34, -103102.52, -119706.46, -179651.22, -113281.74, -176158.19, -185325.77, 450, 512, 1019, 17:15:31.443, 1579101331443
3, -109258.54, -85840.38, -103099.12, -119703.20, -179650.11, -113280.18, -176156.94, -185324.61, 450, 440, 1018, 17:15:31.447, 1579101331447
4, -109255.73, -85837.65, -103096.05, -119700.34, -179649.33, -113278.99, -176156.02, -185323.92, 451, 391, 1018, 17:15:31.452, 1579101331452
5, -109254.97, -85837.05, -103095.00, -119699.53, -179650.52, -113279.87, -176157.22, -185325.33, 450, 357, 1018, 17:15:31.454, 1579101331454
6, -109253.13, -85835.41, -103092.95, -119697.63, -179650.70, -113279.69, -176157.42, -185325.50, 451, 334, 1018, 17:15:31.460, 1579101331460
7, -109253.36, -85835.66, -103092.86, -119697.66, -179652.75, -113281.38, -176159.55, -185327.67, 451, 317, 1019, 17:15:31.463, 1579101331463
8, -109252.24, -85834.74, -103091.41, -119696.41, -179653.50, -113281.74, -176160.28, -185328.52, 451, 306, 1019, 17:15:31.467, 1579101331467
9, -109246.77, -85829.40, -103085.68, -119690.93, -179650.00, -113277.88, -176156.70, -185325.22, 451, 298, 1018, 17:15:31.471, 1579101331471
10, -109242.07, -85824.80, -103080.68, -119686.05, -179647.20, -113274.77, -176153.91, -185322.63, 451, 293, 1019, 17:15:31.475, 1579101331475
11, -109242.60, -85825.53, -103080.92, -119686.55, -179649.70, -113276.85, -176156.30, -185325.14, 451, 290, 1018, 17:15:31.479, 1579101331479
12, -109240.50, -85823.56, -103078.51, -119684.29, -179649.48, -113276.20, -176155.98, -185325.06, 451, 287, 1019, 17:15:31.482, 1579101331482
13, -109237.51, -85820.59, -103075.16, -119681.05, -179648.39, -113274.62, -176154.69, -185323.94, 451, 285, 1019, 17:15:31.486, 1579101331486
14, -109233.84, -85817.04, -103071.13, -119677.18, -179646.69, -113272.63, -176152.91, -185322.31, 451, 284, 1018, 17:15:31.489, 1579101331489
15, -109232.59, -85816.05, -103069.63, -119675.95, -179647.61, -113273.12, -176153.78, -185323.41, 451, 283, 1018, 17:15:31.494, 1579101331494
16, -109228.84, -85812.39, -103065.52, -119672.09, -179645.61, -113270.75, -176151.80, -185321.55, 452, 283, 1019, 17:15:31.499, 1579101331499
17, -109225.44, -85809.17, -103061.81, -119668.51, -179644.11, -113268.87, -176150.31, -185320.11, 452, 283, 1019, 17:15:31.504, 1579101331504
18, -109225.23, -85808.95, -103061.27, -119668.06, -179645.88, -113270.05, -176151.92, -185321.89, 451, 282, 1019, 17:15:31.507, 1579101331507
19, -109224.57, -85808.43, -103060.52, -119667.28, -179647.20, -113271.10, -176153.25, -185323.36, 452, 282, 1019, 17:15:31.511, 1579101331511
20, -109221.33, -85805.39, -103057.05, -119664.02, -179645.97, -113269.56, -176151.91, -185322.28, 452, 282, 1019, 17:15:31.515, 1579101331515
21, -109217.59, -85801.77, -103052.91, -119660.15, -179644.19, -113267.26, -176149.95, -185320.47, 452, 282, 1019, 17:15:31.518, 1579101331518
22, -109215.54, -85799.72, -103050.45, -119657.87, -179643.92, -113266.63, -176149.73, -185320.30, 452, 282, 1019, 17:15:31.521, 1579101331521
23, -109214.73, -85798.98, -103049.43, -119656.84, -179645.13, -113267.39, -176150.77, -185321.53, 452, 282, 1018, 17:15:31.527, 1579101331527
24, -109213.03, -85797.39, -103047.44, -119654.96, -179645.34, -113267.26, -176150.94, -185321.86, 452, 281, 1018, 17:15:31.531, 1579101331531
25, -109209.97, -85794.66, -103044.16, -119652.02, -179644.30, -113265.92, -176149.94, -185320.97, 452, 282, 1018, 17:15:31.538, 1579101331538
26, -109205.88, -85790.73, -103039.77, -119647.86, -179642.23, -113263.44, -176147.72, -185318.98, 452, 282, 1018, 17:15:31.538, 1579101331538
27, -109205.05, -85789.93, -103038.56, -119646.76, -179643.25, -113263.95, -176148.55, -185320.00, 452, 282, 1018, 17:15:31.542, 1579101331542
28, -109202.22, -85787.13, -103035.26, -119643.72, -179642.17, -113262.48, -176147.52, -185319.00, 452, 281, 1019, 17:15:31.548, 1579101331548
29, -109199.38, -85784.45, -103032.11, -119640.66, -179641.36, -113261.27, -176146.63, -185318.08, 452, 281, 1019, 17:15:31.550, 1579101331550
30, -109196.47, -85781.66, -103028.95, -119637.62, -179640.42, -113259.91, -176145.67, -185317.33, 452, 282, 1018, 17:15:31.555, 1579101331555
31, -109195.29, -85780.49, -103027.48, -119636.23, -179641.13, -113260.17, -176146.25, -185318.19, 452, 282, 1018, 17:15:31.559, 1579101331559
32, -109194.59, -85779.87, -103026.34, -119635.30, -179642.23, -113260.89, -176147.30, -185319.36, 452, 282, 1019, 17:15:31.563, 1579101331563
33, -109194.82, -85780.27, -103026.32, -119635.48, -179644.39, -113262.77, -176149.33, -185321.69, 452, 282, 1018, 17:15:31.566, 1579101331566
34, -109194.64, -85780.13, -103025.78, -119635.09, -179646.13, -113264.06, -176151.05, -185323.45, 452, 281, 1018, 17:15:31.570, 1579101331570
35, -109193.45, -85779.06, -103024.35, -119633.82, -179646.94, -113264.47, -176151.83, -185324.39, 451, 281, 1018, 17:15:31.574, 1579101331574
36, -109190.95, -85776.67, -103021.47, -119631.20, -179646.34, -113263.35, -176151.13, -185323.92, 452, 282, 1019, 17:15:31.579, 1579101331579
37, -109191.11, -85776.91, -103021.24, -119631.09, -179648.34, -113264.87, -176153.00, -185325.89, 452, 281, 1019, 17:15:31.582, 1579101331582
38, -109188.96, -85774.84, -103018.77, -119628.70, -179647.95, -113264.16, -176152.61, -185325.69, 451, 281, 1019, 17:15:31.587, 1579101331587
39, -109186.05, -85772.11, -103015.66, -119625.68, -179647.09, -113262.90, -176151.66, -185324.98, 451, 281, 1019, 17:15:31.590, 1579101331590
40, -109183.09, -85769.23, -103012.48, -119622.66, -179646.19, -113261.56, -176150.56, -185324.13, 452, 281, 1019, 17:15:31.594, 1579101331594
41, -109180.84, -85767.09, -103009.84, -119620.32, -179645.80, -113260.73, -176150.09, -185323.73, 452, 281, 1019, 17:15:31.598, 1579101331598
42, -109180.24, -85766.52, -103008.91, -119619.52, -179647.02, -113261.60, -176151.28, -185325.06, 452, 282, 1017, 17:15:31.602, 1579101331602
43, -109179.62, -85765.97, -103007.90, -119618.62, -179648.31, -113262.45, -176152.50, -185326.44, 452, 281, 1019, 17:15:31.607, 1579101331607
44, -109176.16, -85762.63, -103004.26, -119615.05, -179646.80, -113260.47, -176150.98, -185325.08, 452, 281, 1018, 17:15:31.611, 1579101331611
45, -109172.45, -85758.99, -103000.34, -119611.35, -179645.05, -113258.41, -176149.17, -185323.47, 451, 281, 1019, 17:15:31.615, 1579101331615
46, -109172.84, -85759.66, -103000.39, -119611.69, -179647.47, -113260.35, -176151.44, -185325.89, 452, 281, 1019, 17:15:31.619, 1579101331619
47, -109171.39, -85758.25, -102998.60, -119609.95, -179647.88, -113260.29, -176151.77, -185326.28, 452, 281, 1019, 17:15:31.623, 1579101331623
48, -109168.98, -85756.02, -102996.03, -119607.35, -179647.36, -113259.46, -176151.23, -185326.02, 452, 281, 1018, 17:15:31.626, 1579101331626
49, -109166.52, -85753.60, -102993.23, -119604.88, -179646.81, -113258.54, -176150.67, -185325.70, 452, 281, 1018, 17:15:31.631, 1579101331631
50, -109161.27, -85748.42, -102987.58, -119599.51, -179643.52, -113254.77, -176147.31, -185322.47, 452, 281, 1019, 17:15:31.636, 1579101331636
51, -109155.66, -85743.01, -102981.66, -119593.83, -179639.94, -113250.74, -176143.55, -185318.95, 452, 281, 1018, 17:15:31.639, 1579101331639
52, -109156.10, -85743.59, -102981.84, -119594.08, -179642.28, -113252.64, -176145.84, -185321.34, 452, 281, 1019, 17:15:31.644, 1579101331644
53, -109157.27, -85744.84, -102982.58, -119595.02, -179645.30, -113255.32, -176148.77, -185324.44, 451, 281, 1018, 17:15:31.647, 1579101331647
54, -109155.61, -85743.41, -102980.70, -119593.30, -179645.61, -113255.37, -176149.05, -185324.92, 452, 281, 1018, 17:15:31.650, 1579101331650
55, -109151.84, -85739.86, -102976.80, -119589.56, -179643.88, -113253.27, -176147.23, -185323.38, 452, 281, 1018, 17:15:31.655, 1579101331655
56, -109149.24, -85737.34, -102973.84, -119586.79, -179643.17, -113252.10, -176146.47, -185322.70, 452, 281, 1018, 17:15:31.659, 1579101331659
57, -109148.75, -85736.98, -102973.08, -119586.21, -179644.56, -113253.09, -176147.86, -185324.09, 452, 281, 1018, 17:15:31.662, 1579101331662
58, -109147.25, -85735.79, -102971.38, -119584.69, -179645.13, -113253.34, -176148.33, -185324.70, 451, 281, 1019, 17:15:31.667, 1579101331667
59, -109143.50, -85732.15, -102967.27, -119580.89, -179643.27, -113251.14, -176146.53, -185323.05, 451, 281, 1019, 17:15:31.675, 1579101331675
60, -109140.62, -85729.40, -102964.07, -119577.90, -179642.33, -113249.85, -176145.59, -185322.36, 452, 281, 1018, 17:15:31.676, 1579101331676
61, -109138.98, -85727.84, -102962.23, -119576.20, -179642.66, -113249.83, -176145.80, -185322.78, 452, 281, 1019, 17:15:31.679, 1579101331679
62, -109138.22, -85727.32, -102961.19, -119575.39, -179643.83, -113250.63, -176146.92, -185324.05, 451, 281, 1019, 17:15:31.683, 1579101331683
63, -109134.34, -85723.56, -102956.96, -119571.30, -179641.95, -113248.26, -176144.95, -185322.23, 451, 280, 1018, 17:15:31.687, 1579101331687
64, -109130.06, -85719.48, -102952.45, -119566.90, -179639.72, -113245.69, -176142.63, -185320.09, 451, 280, 1018, 17:15:31.692, 1579101331692
65, -109128.79, -85718.52, -102950.88, -119565.71, -179640.50, -113246.00, -176143.30, -185320.88, 451, 280, 1018, 17:15:31.694, 1579101331694
66, -109125.39, -85715.18, -102947.13, -119562.13, -179638.95, -113244.04, -176141.69, -185319.33, 451, 280, 1019, 17:15:31.700, 1579101331700
67, -109122.02, -85711.85, -102943.50, -119558.60, -179637.52, -113242.18, -176140.14, -185318.03, 452, 280, 1019, 17:15:31.706, 1579101331706
68, -109119.60, -85709.57, -102940.87, -119556.17, -179637.03, -113241.40, -176139.66, -185317.70, 451, 280, 1019, 17:15:31.708, 1579101331708
69, -109115.98, -85706.11, -102937.00, -119552.55, -179635.42, -113239.48, -176138.05, -185316.34, 451, 280, 1018, 17:15:31.711, 1579101331711
70, -109112.59, -85702.95, -102933.45, -119549.11, -179634.02, -113237.73, -176136.69, -185315.11, 451, 280, 1019, 17:15:31.715, 1579101331715
71, -109111.27, -85701.68, -102931.73, -119547.54, -179634.59, -113237.94, -176137.08, -185315.64, 451, 280, 1019, 17:15:31.719, 1579101331719
72, -109108.59, -85699.18, -102928.84, -119544.77, -179633.86, -113236.86, -176136.23, -185314.94, 451, 280, 1018, 17:15:31.723, 1579101331723
73, -109106.23, -85697.01, -102926.25, -119542.42, -179633.47, -113236.13, -176135.97, -185314.70, 451, 280, 1019, 17:15:31.728, 1579101331728
74, -109102.62, -85693.66, -102922.38, -119538.87, -179631.95, -113234.13, -176134.36, -185313.30, 451, 280, 1018, 17:15:31.731, 1579101331731
75, -109099.46, -85690.75, -102919.03, -119535.67, -179630.84, -113232.59, -176133.17, -185312.31, 451, 280, 1018, 17:15:31.735, 1579101331735
76, -109099.38, -85690.86, -102918.73, -119535.56, -179632.89, -113234.20, -176134.95, -185314.31, 451, 280, 1019, 17:15:31.739, 1579101331739
77, -109097.20, -85688.90, -102916.28, -119533.26, -179632.63, -113233.64, -176134.64, -185314.11, 451, 280, 1019, 17:15:31.743, 1579101331743
78, -109094.48, -85686.28, -102913.22, -119530.40, -179631.80, -113232.46, -176133.80, -185313.45, 452, 280, 1018, 17:15:31.747, 1579101331747
79, -109093.83, -85685.77, -102912.39, -119529.68, -179633.13, -113233.46, -176135.14, -185314.94, 452, 280, 1019, 17:15:31.751, 1579101331751
80, -109089.65, -85681.85, -102908.03, -119525.55, -179631.00, -113231.01, -176132.98, -185313.03, 452, 280, 1018, 17:15:31.755, 1579101331755
81, -109088.20, -85680.65, -102906.35, -119524.18, -179631.52, -113231.20, -176133.55, -185313.81, 452, 280, 1018, 17:15:31.759, 1579101331759
82, -109086.59, -85679.20, -102904.34, -119522.53, -179631.83, -113231.12, -176133.75, -185314.19, 452, 281, 1018, 17:15:31.762, 1579101331762
83, -109082.97, -85675.66, -102900.41, -119518.66, -179630.19, -113228.99, -176131.94, -185312.52, 451, 280, 1018, 17:15:31.766, 1579101331766
84, -109078.43, -85671.28, -102895.65, -119514.02, -179627.69, -113226.16, -176129.30, -185310.08, 451, 280, 1019, 17:15:31.771, 1579101331771
85, -109072.91, -85665.96, -102889.91, -119508.65, -179624.16, -113222.35, -176125.75, -185306.75, 451, 280, 1018, 17:15:31.774, 1579101331774
86, -109071.73, -85665.00, -102888.52, -119507.45, -179625.08, -113222.89, -176126.52, -185307.72, 451, 280, 1018, 17:15:31.779, 1579101331779
87, -109067.93, -85661.36, -102884.49, -119503.46, -179623.17, -113220.68, -176124.63, -185305.92, 451, 280, 1019, 17:15:31.783, 1579101331783
88, -109063.19, -85656.82, -102879.48, -119498.77, -179620.38, -113217.55, -176121.95, -185303.38, 451, 280, 1018, 17:15:31.787, 1579101331787
89, -109058.77, -85652.58, -102874.82, -119494.37, -179618.03, -113214.76, -176119.45, -185301.08, 451, 280, 1018, 17:15:31.790, 1579101331790
90, -109054.91, -85649.02, -102870.81, -119490.55, -179616.20, -113212.74, -176117.55, -185299.39, 451, 280, 1018, 17:15:31.794, 1579101331794
91, -109051.99, -85646.38, -102867.71, -119487.55, -179615.38, -113211.52, -176116.63, -185298.59, 451, 280, 1018, 17:15:31.799, 1579101331799
92, -109050.56, -85645.04, -102865.95, -119485.91, -179615.81, -113211.60, -176117.03, -185299.13, 451, 280, 1019, 17:15:31.803, 1579101331803
93, -109049.82, -85644.53, -102864.94, -119485.18, -179617.03, -113212.48, -176118.28, -185300.53, 451, 280, 1019, 17:15:31.807, 1579101331807
94, -109045.66, -85640.51, -102860.58, -119481.00, -179614.91, -113209.99, -176116.11, -185298.55, 451, 280, 1019, 17:15:31.810, 1579101331810
95, -109041.17, -85636.28, -102856.04, -119476.57, -179612.48, -113207.31, -176113.66, -185296.25, 451, 280, 1019, 17:15:31.814, 1579101331814
96, -109038.09, -85633.46, -102852.60, -119473.49, -179611.39, -113205.81, -176112.52, -185295.23, 452, 280, 1020, 17:15:31.818, 1579101331818
97, -109036.16, -85631.72, -102850.34, -119471.50, -179611.44, -113205.46, -176112.52, -185295.38, 452, 280, 1018, 17:15:31.822, 1579101331822
98, -109035.13, -85630.87, -102849.11, -119470.38, -179612.39, -113206.02, -176113.34, -185296.47, 452, 280, 1019, 17:15:31.827, 1579101331827
99, -109031.29, -85627.20, -102844.98, -119466.47, -179610.59, -113203.80, -176111.44, -185294.75, 452, 280, 1018, 17:15:31.831, 1579101331831
100, -109028.09, -85624.30, -102841.60, -119463.37, -179609.38, -113202.35, -176110.33, -185293.73, 452, 281, 1018, 17:15:31.835, 1579101331835
101, -109024.59, -85620.97, -102837.84, -119459.77, -179607.89, -113200.43, -176108.66, -185292.30, 452, 281, 1019, 17:15:31.838, 1579101331838
102, -109023.20, -85619.63, -102836.13, -119458.16, -179608.36, -113200.61, -176109.08, -185292.84, 452, 281, 1019, 17:15:31.842, 1579101331842
103, -109021.84, -85618.55, -102834.56, -119456.75, -179609.06, -113201.05, -176109.66, -185293.77, 452, 281, 1018, 17:15:31.847, 1579101331847
104, -109019.71, -85616.63, -102832.20, -119454.70, -179608.98, -113200.54, -176109.55, -185293.81, 452, 280, 1019, 17:15:31.850, 1579101331850
105, -109015.55, -85612.59, -102827.84, -119450.45, -179606.78, -113197.90, -176107.28, -185291.70, 452, 281, 1018, 17:15:31.855, 1579101331855
106, -109011.63, -85608.88, -102823.61, -119446.47, -179604.91, -113195.66, -176105.34, -185289.88, 452, 280, 1019, 17:15:31.859, 1579101331859
107, -109008.29, -85605.66, -102819.97, -119442.94, -179603.50, -113193.88, -176103.80, -185288.52, 452, 281, 1019, 17:15:31.863, 1579101331863
108, -109005.99, -85603.42, -102817.38, -119440.55, -179603.14, -113193.14, -176103.39, -185288.22, 452, 281, 1019, 17:15:31.866, 1579101331866
109, -109003.27, -85600.90, -102814.42, -119437.70, -179602.50, -113192.09, -176102.69, -185287.78, 452, 280, 1018, 17:15:31.870, 1579101331870
110, -108999.41, -85597.41, -102810.48, -119433.99, -179600.75, -113190.03, -176100.98, -185286.17, 452, 281, 1018, 17:15:31.874, 1579101331874
111, -108996.18, -85594.35, -102806.94, -119430.59, -179599.30, -113188.25, -176099.58, -185284.83, 452, 281, 1018, 17:15:31.878, 1579101331878
112, -108993.05, -85591.40, -102803.45, -119427.40, -179598.30, -113186.80, -176098.38, -185283.80, 453, 281, 1019, 17:15:31.881, 1579101331881
113, -108991.02, -85589.56, -102801.19, -119425.39, -179598.25, -113186.41, -176098.30, -185283.81, 452, 280, 1019, 17:15:31.886, 1579101331886
114, -108990.74, -85589.45, -102800.68, -119424.96, -179599.91, -113187.71, -176099.98, -185285.66, 452, 280, 1018, 17:15:31.890, 1579101331890
115, -108987.08, -85585.88, -102796.67, -119421.32, -179598.14, -113185.59, -176098.34, -185284.05, 453, 281, 1018, 17:15:31.893, 1579101331893
116, -108983.17, -85582.19, -102792.56, -119417.43, -179596.47, -113183.44, -176096.31, -185282.36, 453, 281, 1019, 17:15:31.898, 1579101331898
117, -108981.20, -85580.38, -102790.39, -119415.29, -179596.42, -113183.13, -176096.14, -185282.45, 454, 281, 1018, 17:15:31.903, 1579101331903
118, -108980.13, -85579.59, -102789.12, -119414.17, -179597.36, -113183.66, -176097.08, -185283.48, 454, 281, 1019, 17:15:31.908, 1579101331908
119, -108977.40, -85577.07, -102786.15, -119411.38, -179596.63, -113182.50, -176096.30, -185282.86, 454, 281, 1018, 17:15:31.910, 1579101331910
120, -108975.45, -85575.28, -102783.94, -119409.34, -179596.73, -113182.21, -176096.30, -185283.03, 454, 281, 1018, 17:15:31.914, 1579101331914
121, -108970.12, -85570.09, -102778.21, -119403.88, -179593.33, -113178.52, -176092.80, -185279.77, 454, 281, 1019, 17:15:31.919, 1579101331919
122, -108964.20, -85564.29, -102772.11, -119397.88, -179589.31, -113174.12, -176088.83, -185275.86, 454, 282, 1018, 17:15:31.921, 1579101331921
123, -108961.48, -85561.83, -102769.14, -119395.05, -179588.69, -113172.94, -176088.00, -185275.25, 453, 281, 1018, 17:15:31.926, 1579101331926
124, -108957.48, -85558.01, -102764.91, -119391.01, -179586.69, -113170.68, -176085.98, -185273.36, 453, 281, 1019, 17:15:31.929, 1579101331929
125, -108955.07, -85555.61, -102762.19, -119388.48, -179586.30, -113169.94, -176085.63, -185273.06, 453, 281, 1019, 17:15:31.933, 1579101331933
126, -108955.97, -85556.71, -102762.79, -119389.24, -179589.16, -113172.24, -176088.28, -185276.02, 453, 281, 1018, 17:15:31.938, 1579101331938
127, -108954.91, -85555.75, -102761.49, -119388.09, -179589.95, -113172.73, -176089.11, -185277.00, 452, 281, 1019, 17:15:31.943, 1579101331943
128, -108950.91, -85551.88, -102757.27, -119383.99, -179587.98, -113170.30, -176087.08, -185275.09, 453, 281, 1019, 17:15:31.947, 1579101331947
129, -108946.89, -85548.13, -102753.02, -119379.97, -179586.11, -113168.02, -176084.94, -185273.25, 452, 281, 1018, 17:15:31.951, 1579101331951
130, -108942.73, -85544.17, -102748.57, -119375.68, -179583.91, -113165.45, -176082.72, -185271.13, 452, 281, 1019, 17:15:31.953, 1579101331953
131, -108940.25, -85541.87, -102745.80, -119373.16, -179583.39, -113164.66, -176082.25, -185270.72, 452, 281, 1019, 17:15:31.958, 1579101331958
132, -108938.02, -85539.70, -102743.12, -119370.63, -179582.97, -113163.91, -176081.72, -185270.42, 452, 281, 1019, 17:15:31.961, 1579101331961
133, -108934.93, -85536.79, -102739.74, -119367.41, -179581.83, -113162.38, -176080.59, -185269.41, 453, 281, 1018, 17:15:31.966, 1579101331966
134, -108933.55, -85535.56, -102738.09, -119365.95, -179582.58, -113162.61, -176081.22, -185270.20, 453, 281, 1019, 17:15:31.973, 1579101331973
135, -108932.83, -85534.85, -102737.09, -119365.11, -179583.86, -113163.50, -176082.45, -185271.61, 452, 281, 1018, 17:15:31.974, 1579101331974
136, -108929.59, -85531.83, -102733.55, -119361.82, -179582.53, -113161.76, -176081.11, -185270.34, 453, 282, 1019, 17:15:31.978, 1579101331978
137, -108926.84, -85529.23, -102730.55, -119359.01, -179581.86, -113160.71, -176080.38, -185269.73, 453, 281, 1019, 17:15:31.981, 1579101331981
138, -108923.16, -85525.64, -102726.55, -119355.05, -179580.09, -113158.63, -176078.55, -185268.06, 453, 281, 1018, 17:15:31.986, 1579101331986
139, -108923.00, -85525.64, -102726.11, -119354.76, -179581.95, -113160.04, -176080.38, -185270.00, 453, 281, 1018, 17:15:31.990, 1579101331990
140, -108919.76, -85522.51, -102722.69, -119351.47, -179580.69, -113158.45, -176079.03, -185268.95, 452, 281, 1019, 17:15:31.994, 1579101331994
141, -108915.84, -85518.76, -102718.38, -119347.43, -179578.73, -113156.02, -176076.95, -185266.98, 452, 282, 1018, 17:15:31.999, 1579101331999
142, -108917.50, -85520.48, -102719.70, -119348.86, -179582.31, -113159.10, -176080.42, -185270.67, 453, 281, 1019, 17:15:32.002, 1579101332002
143, -108917.25, -85520.25, -102719.09, -119348.41, -179583.94, -113160.38, -176082.03, -185272.38, 452, 281, 1018, 17:15:32.005, 1579101332005
144, -108914.15, -85517.44, -102715.70, -119345.33, -179582.88, -113158.95, -176080.91, -185271.39, 452, 281, 1018, 17:15:32.011, 1579101332011
145, -108911.42, -85514.77, -102712.68, -119342.42, -179582.16, -113157.78, -176080.11, -185270.77, 453, 281, 1019, 17:15:32.014, 1579101332014
146, -108907.95, -85511.42, -102708.97, -119338.84, -179580.64, -113155.84, -176078.56, -185269.48, 453, 282, 1018, 17:15:32.018, 1579101332018
147, -108905.20, -85508.70, -102705.79, -119335.87, -179579.81, -113154.61, -176077.63, -185268.63, 453, 282, 1018, 17:15:32.022, 1579101332022
148, -108902.30, -85505.97, -102702.66, -119332.80, -179578.89, -113153.27, -176076.64, -185267.81, 453, 282, 1018, 17:15:32.029, 1579101332029
149, -108899.30, -85503.00, -102699.35, -119329.57, -179577.81, -113151.77, -176075.45, -185266.86, 452, 282, 1018, 17:15:32.030, 1579101332030
150, -108899.57, -85503.38, -102699.27, -119329.74, -179580.22, -113153.67, -176077.77, -185269.11, 452, 282, 1018, 17:15:32.033, 1579101332033
151, -108897.96, -85501.86, -102697.30, -119327.94, -179580.56, -113153.55, -176077.92, -185269.45, 453, 282, 1019, 17:15:32.038, 1579101332038
152, -108896.17, -85500.16, -102695.13, -119325.95, -179580.64, -113153.22, -176078.00, -185269.73, 452, 282, 1018, 17:15:32.043, 1579101332043
153, -108894.43, -85498.48, -102692.98, -119323.94, -179580.80, -113152.91, -176078.09, -185269.94, 452, 282, 1018, 17:15:32.046, 1579101332046
154, -108889.02, -85493.23, -102687.29, -119318.46, -179577.28, -113149.02, -176074.59, -185266.55, 452, 281, 1019, 17:15:32.051, 1579101332051
155, -108884.64, -85488.94, -102682.75, -119313.98, -179574.95, -113146.16, -176072.23, -185264.39, 452, 282, 1018, 17:15:32.055, 1579101332055
156, -108883.66, -85487.93, -102681.27, -119312.78, -179575.89, -113146.74, -176073.05, -185265.42, 452, 281, 1019, 17:15:32.058, 1579101332058
157, -108883.70, -85488.09, -102681.07, -119312.63, -179577.86, -113148.35, -176074.97, -185267.53, 452, 281, 1019, 17:15:32.060, 1579101332060
158, -108882.18, -85486.57, -102679.17, -119310.84, -179578.20, -113148.26, -176075.28, -185268.00, 452, 281, 1018, 17:15:32.066, 1579101332066
159, -108881.06, -85485.72, -102677.79, -119309.56, -179579.08, -113148.84, -176075.97, -185268.89, 453, 281, 1019, 17:15:32.073, 1579101332073
160, -108878.56, -85483.33, -102674.92, -119306.99, -179578.58, -113148.02, -176075.45, -185268.50, 452, 281, 1018, 17:15:32.075, 1579101332075
161, -108877.04, -85481.96, -102673.14, -119305.38, -179579.03, -113148.02, -176075.91, -185269.06, 452, 281, 1018, 17:15:32.077, 1579101332077
162, -108876.51, -85481.61, -102672.40, -119304.82, -179580.50, -113148.98, -176077.30, -185270.61, 452, 281, 1019, 17:15:32.082, 1579101332082
163, -108875.23, -85480.42, -102670.95, -119303.52, -179581.23, -113149.27, -176077.97, -185271.50, 452, 281, 1018, 17:15:32.086, 1579101332086
164, -108872.66, -85478.05, -102668.09, -119300.87, -179580.56, -113148.39, -176077.36, -185271.06, 452, 281, 1019, 17:15:32.089, 1579101332089
165, -108870.83, -85476.40, -102666.05, -119299.03, -179580.80, -113148.28, -176077.45, -185271.34, 452, 281, 1019, 17:15:32.094, 1579101332094
166, -108866.29, -85471.91, -102661.23, -119294.32, -179578.20, -113145.33, -176074.78, -185268.78, 452, 281, 1019, 17:15:32.098, 1579101332098
167, -108860.97, -85466.83, -102655.55, -119288.88, -179574.94, -113141.51, -176071.38, -185265.48, 452, 281, 1018, 17:15:32.102, 1579101332102
168, -108857.10, -85463.16, -102651.43, -119285.02, -179573.11, -113139.30, -176069.52, -185263.77, 452, 281, 1019, 17:15:32.108, 1579101332108
169, -108855.83, -85462.02, -102649.91, -119283.70, -179573.81, -113139.68, -176070.23, -185264.69, 452, 281, 1019, 17:15:32.110, 1579101332110
170, -108851.90, -85458.18, -102645.64, -119279.66, -179571.98, -113137.42, -176068.23, -185262.92, 452, 281, 1018, 17:15:32.114, 1579101332114
171, -108851.07, -85457.58, -102644.55, -119278.80, -179573.17, -113138.20, -176069.41, -185264.27, 452, 281, 1019, 17:15:32.118, 1579101332118
172, -108849.26, -85455.90, -102642.45, -119276.84, -179573.23, -113137.91, -176069.47, -185264.44, 453, 281, 1018, 17:15:32.121, 1579101332121
173, -108845.98, -85452.73, -102638.78, -119273.30, -179571.88, -113136.19, -176067.97, -185263.19, 453, 281, 1019, 17:15:32.126, 1579101332126
174, -108843.72, -85450.56, -102636.16, -119270.89, -179571.58, -113135.45, -176067.61, -185262.89, 453, 281, 1018, 17:15:32.130, 1579101332130
175, -108841.28, -85448.34, -102633.62, -119268.50, -179571.20, -113134.71, -176067.30, -185262.66, 453, 281, 1018, 17:15:32.135, 1579101332135
176, -108841.64, -85449.02, -102633.77, -119268.86, -179573.69, -113136.79, -176069.63, -185265.17, 453, 281, 1018, 17:15:32.140, 1579101332140
177, -108841.84, -85449.24, -102633.55, -119268.84, -179575.72, -113138.47, -176071.59, -185267.34, 452, 281, 1018, 17:15:32.143, 1579101332143
178, -108840.68, -85448.08, -102632.16, -119267.59, -179576.41, -113138.89, -176072.42, -185268.19, 453, 281, 1019, 17:15:32.146, 1579101332146
179, -108838.09, -85445.73, -102629.33, -119264.88, -179575.86, -113137.98, -176071.80, -185267.66, 452, 281, 1019, 17:15:32.150, 1579101332150
180, -108831.80, -85439.77, -102622.78, -119258.51, -179571.70, -113133.33, -176067.50, -185263.50, 453, 281, 1019, 17:15:32.154, 1579101332154
181, -108828.54, -85436.57, -102619.11, -119255.00, -179570.36, -113131.59, -176066.08, -185262.34, 453, 281, 1019, 17:15:32.159, 1579101332159
182, -108828.27, -85436.43, -102618.53, -119254.64, -179572.08, -113132.84, -176067.72, -185264.08, 452, 281, 1019, 17:15:32.162, 1579101332162
183, -108826.04, -85434.24, -102616.03, -119252.38, -179571.83, -113132.21, -176067.45, -185263.92, 453, 281, 1019, 17:15:32.165, 1579101332165
184, -108824.20, -85432.55, -102613.91, -119250.35, -179571.94, -113131.95, -176067.56, -185264.19, 453, 281, 1019, 17:15:32.169, 1579101332169
185, -108820.38, -85428.84, -102609.79, -119246.46, -179570.11, -113129.75, -176065.59, -185262.47, 454, 281, 1018, 17:15:32.174, 1579101332174
186, -108816.65, -85425.21, -102605.79, -119242.69, -179568.34, -113127.49, -176063.72, -185260.77, 454, 282, 1019, 17:15:32.177, 1579101332177
187, -108815.53, -85424.25, -102604.36, -119241.39, -179569.13, -113127.92, -176064.38, -185261.72, 454, 282, 1018, 17:15:32.183, 1579101332183
188, -108812.31, -85421.15, -102600.74, -119237.99, -179567.89, -113126.34, -176063.19, -185260.58, 454, 282, 1018, 17:15:32.186, 1579101332186
189, -108809.23, -85418.17, -102597.37, -119234.75, -179566.73, -113124.81, -176061.89, -185259.50, 454, 281, 1019, 17:15:32.190, 1579101332190
190, -108808.83, -85417.86, -102596.67, -119234.26, -179568.34, -113125.95, -176063.41, -185261.27, 454, 282, 1019, 17:15:32.193, 1579101332193
191, -108806.66, -85415.87, -102594.26, -119232.05, -179568.14, -113125.44, -176063.09, -185261.16, 455, 282, 1019, 17:15:32.197, 1579101332197
192, -108805.18, -85414.51, -102592.52, -119230.44, -179568.64, -113125.48, -176063.61, -185261.67, 455, 282, 1019, 17:15:32.201, 1579101332201
193, -108803.08, -85412.52, -102590.08, -119228.13, -179568.52, -113124.95, -176063.44, -185261.52, 454, 282, 1018, 17:15:32.205, 1579101332205
194, -108801.72, -85411.27, -102588.40, -119226.62, -179569.08, -113125.05, -176063.98, -185262.25, 455, 282, 1018, 17:15:32.211, 1579101332211
195, -108799.88, -85409.61, -102586.23, -119224.76, -179569.30, -113124.90, -176064.06, -185262.56, 455, 282, 1018, 17:15:32.214, 1579101332214
196, -108797.94, -85407.73, -102583.98, -119222.68, -179569.14, -113124.56, -176063.92, -185262.61, 455, 282, 1018, 17:15:32.219, 1579101332219
197, -108795.52, -85405.37, -102581.34, -119220.02, -179568.67, -113123.72, -176063.34, -185262.22, 455, 282, 1018, 17:15:32.221, 1579101332221
198, -108794.41, -85404.34, -102579.93, -119218.75, -179569.66, -113124.19, -176064.19, -185263.23, 455, 282, 1019, 17:15:32.225, 1579101332225
199, -108792.51, -85402.59, -102577.78, -119216.80, -179569.80, -113123.85, -176064.27, -185263.45, 454, 282, 1018, 17:15:32.229, 1579101332229
200, -108789.05, -85399.46, -102574.14, -119213.41, -179568.41, -113122.09, -176062.83, -185262.11, 454, 282, 1019, 17:15:32.233, 1579101332233
201, -108784.51, -85395.10, -102569.27, -119208.71, -179565.77, -113119.18, -176060.14, -185259.67, 455, 282, 1018, 17:15:32.237, 1579101332237
202, -108783.27, -85393.92, -102567.75, -119207.34, -179566.47, -113119.42, -176060.69, -185260.55, 454, 282, 1018, 17:15:32.243, 1579101332243
203, -108781.71, -85392.52, -102565.94, -119205.60, -179566.91, -113119.47, -176061.09, -185260.97, 454, 282, 1018, 17:15:32.246, 1579101332246
204, -108779.16, -85390.16, -102563.08, -119203.01, -179566.42, -113118.60, -176060.55, -185260.58, 454, 282, 1018, 17:15:32.251, 1579101332251
205, -108777.38, -85388.51, -102561.04, -119201.16, -179566.73, -113118.40, -176060.77, -185261.00, 455, 282, 1019, 17:15:32.254, 1579101332254
206, -108774.85, -85386.16, -102558.27, -119198.50, -179566.16, -113117.48, -176060.13, -185260.50, 455, 282, 1019, 17:15:32.258, 1579101332258
207, -108772.95, -85384.27, -102555.99, -119196.48, -179566.13, -113117.03, -176060.14, -185260.58, 455, 282, 1019, 17:15:32.263, 1579101332263
208, -108769.42, -85381.02, -102552.20, -119192.91, -179564.66, -113115.09, -176058.47, -185259.23, 455, 282, 1019, 17:15:32.267, 1579101332267
209, -108765.53, -85377.36, -102547.99, -119189.00, -179562.75, -113112.90, -176056.58, -185257.38, 454, 282, 1018, 17:15:32.269, 1579101332269
210, -108764.52, -85376.64, -102546.89, -119187.97, -179563.88, -113113.62, -176057.72, -185258.67, 455, 282, 1019, 17:15:32.274, 1579101332274
211, -108760.57, -85372.75, -102542.67, -119183.95, -179561.95, -113111.24, -176055.67, -185256.80, 455, 282, 1019, 17:15:32.277, 1579101332277
212, -108756.08, -85368.22, -102537.75, -119179.14, -179559.30, -113108.25, -176052.86, -185254.20, 455, 282, 1019, 17:15:32.281, 1579101332281
213, -108751.80, -85364.08, -102533.13, -119174.71, -179556.97, -113105.55, -176050.53, -185252.02, 455, 282, 1018, 17:15:32.285, 1579101332285
214, -108752.37, -85364.86, -102533.55, -119175.27, -179559.63, -113107.78, -176053.16, -185254.77, 455, 282, 1019, 17:15:32.289, 1579101332289
215, -108751.07, -85363.68, -102531.96, -119173.91, -179560.23, -113107.96, -176053.63, -185255.45, 455, 282, 1018, 17:15:32.294, 1579101332294
216, -108748.12, -85360.88, -102528.59, -119170.83, -179559.22, -113106.53, -176052.48, -185254.58, 455, 282, 1019, 17:15:32.297, 1579101332297
217, -108744.74, -85357.71, -102524.90, -119167.30, -179557.81, -113104.74, -176051.14, -185253.17, 455, 282, 1019, 17:15:32.304, 1579101332304
218, -108743.20, -85356.23, -102523.09, -119165.59, -179558.19, -113104.88, -176051.52, -185253.80, 455, 282, 1018, 17:15:32.305, 1579101332305
219, -108741.77, -85355.03, -102521.37, -119164.09, -179558.83, -113105.12, -176052.08, -185254.58, 455, 282, 1019, 17:15:32.309, 1579101332309
220, -108739.52, -85352.99, -102519.00, -119161.82, -179558.59, -113104.45, -176051.81, -185254.42, 455, 282, 1019, 17:15:32.313, 1579101332313
221, -108736.56, -85350.18, -102515.78, -119158.77, -179557.69, -113103.16, -176050.67, -185253.58, 455, 282, 1018, 17:15:32.317, 1579101332317
222, -108734.35, -85348.16, -102513.23, -119156.36, -179557.45, -113102.53, -176050.30, -185253.38, 455, 282, 1019, 17:15:32.321, 1579101332321
223, -108732.07, -85346.04, -102510.77, -119154.02, -179557.19, -113101.92, -176050.05, -185253.20, 454, 282, 1018, 17:15:32.325, 1579101332325
224, -108729.90, -85343.96, -102508.34, -119151.80, -179556.97, -113101.34, -176049.80, -185253.17, 454, 282, 1018, 17:15:32.330, 1579101332330
225, -108725.61, -85339.83, -102503.78, -119147.47, -179554.63, -113098.64, -176047.45, -185250.95, 455, 282, 1019, 17:15:32.333, 1579101332333
226, -108722.39, -85336.81, -102500.24, -119144.13, -179553.33, -113097.05, -176046.11, -185249.83, 454, 282, 1018, 17:15:32.339, 1579101332339
227, -108720.24, -85334.84, -102497.85, -119141.81, -179553.19, -113096.45, -176045.89, -185249.73, 455, 282, 1019, 17:15:32.343, 1579101332343
228, -108718.50, -85333.15, -102495.75, -119139.89, -179553.48, -113096.23, -176046.11, -185250.05, 454, 282, 1018, 17:15:32.345, 1579101332345
229, -108715.51, -85330.20, -102492.40, -119136.76, -179552.47, -113094.84, -176045.03, -185249.17, 455, 281, 1019, 17:15:32.350, 1579101332350
230, -108712.71, -85327.58, -102489.36, -119133.99, -179551.72, -113093.66, -176044.13, -185248.50, 455, 282, 1018, 17:15:32.354, 1579101332354
231, -108709.47, -85324.59, -102485.94, -119130.77, -179550.48, -113092.07, -176042.89, -185247.39, 455, 282, 1019, 17:15:32.359, 1579101332359
232, -108708.22, -85323.52, -102484.47, -119129.34, -179551.27, -113092.42, -176043.58, -185248.22, 455, 282, 1019, 17:15:32.361, 1579101332361
233, -108705.13, -85320.52, -102481.00, -119126.21, -179550.03, -113090.86, -176042.41, -185247.19, 455, 282, 1018, 17:15:32.364, 1579101332364
234, -108701.38, -85316.92, -102476.98, -119122.32, -179548.34, -113088.78, -176040.56, -185245.53, 455, 281, 1019, 17:15:32.369, 1579101332369
235, -108699.37, -85315.09, -102474.63, -119120.27, -179548.39, -113088.52, -176040.41, -185245.66, 455, 282, 1019, 17:15:32.373, 1579101332373
236, -108695.55, -85311.45, -102470.63, -119116.29, -179546.55, -113086.34, -176038.56, -185243.98, 455, 282, 1019, 17:15:32.378, 1579101332378
237, -108695.01, -85310.88, -102469.76, -119115.52, -179547.88, -113087.26, -176039.78, -185245.38, 455, 282, 1019, 17:15:32.382, 1579101332382
238, -108691.75, -85307.76, -102466.12, -119112.11, -179546.55, -113085.45, -176038.41, -185244.14, 455, 282, 1018, 17:15:32.387, 1579101332387
239, -108689.98, -85306.23, -102464.02, -119110.30, -179546.80, -113085.30, -176038.64, -185244.55, 455, 282, 1018, 17:15:32.389, 1579101332389
240, -108686.29, -85302.62, -102460.02, -119106.41, -179545.05, -113083.15, -176036.88, -185242.89, 455, 282, 1019, 17:15:32.393, 1579101332393
241, -108684.75, -85301.27, -102458.34, -119104.87, -179545.56, -113083.30, -176037.34, -185243.47, 455, 282, 1019, 17:15:32.399, 1579101332399
242, -108683.95, -85300.65, -102457.29, -119103.99, -179546.84, -113084.20, -176038.48, -185244.84, 455, 282, 1018, 17:15:32.402, 1579101332402
243, -108680.34, -85297.18, -102453.40, -119100.23, -179545.28, -113082.16, -176036.81, -185243.30, 455, 282, 1019, 17:15:32.405, 1579101332405
244, -108679.32, -85296.31, -102452.10, -119099.05, -179546.13, -113082.68, -176037.59, -185244.23, 455, 282, 1019, 17:15:32.409, 1579101332409
245, -108678.29, -85295.35, -102450.83, -119098.05, -179547.13, -113083.35, -176038.56, -185245.47, 455, 282, 1018, 17:15:32.413, 1579101332413
246, -108675.43, -85292.60, -102447.59, -119095.03, -179546.23, -113082.10, -176037.64, -185244.70, 455, 282, 1019, 17:15:32.417, 1579101332417
247, -108673.64, -85290.99, -102445.51, -119093.11, -179546.48, -113081.78, -176037.70, -185245.03, 455, 282, 1019, 17:15:32.421, 1579101332421
248, -108670.24, -85287.80, -102441.70, -119089.58, -179545.05, -113079.95, -176036.23, -185243.66, 455, 282, 1018, 17:15:32.428, 1579101332428
249, -108668.23, -85285.91, -102439.38, -119087.50, -179544.94, -113079.57, -176036.13, -185243.78, 455, 282, 1019, 17:15:32.430, 1579101332430
250, -108665.46, -85283.28, -102436.45, -119084.75, -179544.20, -113078.43, -176035.25, -185243.14, 455, 282, 1019, 17:15:32.434, 1579101332434
251, -108663.27, -85281.24, -102433.98, -119082.40, -179543.98, -113077.83, -176035.05, -185243.00, 455, 282, 1019, 17:15:32.438, 1579101332438
252, -108661.82, -85279.86, -102432.12, -119080.75, -179544.45, -113077.96, -176035.52, -185243.56, 455, 282, 1019, 17:15:32.443, 1579101332443
253, -108659.36, -85277.42, -102429.37, -119077.93, -179543.91, -113077.00, -176034.83, -185243.08, 455, 282, 1019, 17:15:32.445, 1579101332445
254, -108657.30, -85275.59, -102426.98, -119075.72, -179543.83, -113076.48, -176034.63, -185243.11, 455, 282, 1018, 17:15:32.448, 1579101332448
255, -108655.85, -85274.16, -102425.03, -119074.16, -179544.22, -113076.58, -176035.11, -185243.67, 454, 282, 1019, 17:15:32.454, 1579101332454
0, -108656.45, -85274.83, -102425.44, -119074.69, -179546.89, -113078.73, -176037.69, -185246.36, 455, 282, 1018, 17:15:32.458, 1579101332458
1, -108656.77, -85275.16, -102425.30, -119074.73, -179548.92, -113080.42, -176039.70, -185248.61, 455, 282, 1018, 17:15:32.463, 1579101332463
2, -108653.77, -85272.28, -102421.99, -119071.59, -179547.89, -113079.02, -176038.52, -185247.66, 454, 282, 1019, 17:15:32.466, 1579101332466
3, -108651.02, -85269.82, -102419.09, -119068.79, -179547.25, -113077.92, -176037.70, -185247.05, 454, 282, 1018, 17:15:32.470, 1579101332470
4, -108649.50, -85268.39, -102417.37, -119067.11, -179547.69, -113077.96, -176038.13, -185247.58, 455, 282, 1018, 17:15:32.473, 1579101332473
5, -108646.84, -85265.80, -102414.28, -119064.16, -179546.81, -113076.80, -176037.14, -185246.88, 455, 282, 1019, 17:15:32.477, 1579101332477
6, -108644.14, -85263.19, -102411.20, -119061.34, -179546.03, -113075.59, -176036.36, -185246.17, 455, 282, 1019, 17:15:32.482, 1579101332482
7, -108642.20, -85261.38, -102409.01, -119059.38, -179546.19, -113075.28, -176036.34, -185246.25, 455, 282, 1018, 17:15:32.486, 1579101332486
8, -108641.74, -85261.04, -102408.16, -119058.73, -179547.64, -113076.42, -176037.81, -185247.91, 455, 282, 1019, 17:15:32.490, 1579101332490
9, -108640.12, -85259.61, -102406.39, -119056.98, -179548.06, -113076.35, -176038.22, -185248.55, 455, 282, 1019, 17:15:32.494, 1579101332494
10, -108639.09, -85258.70, -102405.05, -119055.87, -179548.94, -113076.82, -176039.06, -185249.47, 455, 282, 1019, 17:15:32.497, 1579101332497
11, -108636.52, -85256.13, -102402.05, -119053.10, -179548.19, -113075.70, -176038.22, -185248.84, 455, 282, 1019, 17:15:32.501, 1579101332501
12, -108634.08, -85253.84, -102399.30, -119050.53, -179547.67, -113074.84, -176037.53, -185248.39, 455, 282, 1019, 17:15:32.505, 1579101332505
13, -108629.81, -85249.70, -102394.77, -119046.15, -179545.48, -113072.17, -176035.16, -185246.20, 455, 282, 1018, 17:15:32.511, 1579101332511
14, -108627.28, -85247.34, -102392.02, -119043.42, -179544.92, -113071.23, -176034.73, -185245.80, 455, 282, 1018, 17:15:32.514, 1579101332514
15, -108625.49, -85245.62, -102389.88, -119041.45, -179545.05, -113070.95, -176034.75, -185245.94, 455, 282, 1019, 17:15:32.518, 1579101332518
16, -108620.58, -85240.66, -102384.64, -119036.42, -179542.03, -113067.57, -176031.67, -185243.00, 455, 282, 1018, 17:15:32.522, 1579101332522
17, -108618.30, -85238.60, -102382.09, -119034.08, -179541.70, -113066.83, -176031.31, -185242.88, 455, 282, 1018, 17:15:32.526, 1579101332526
18, -108614.25, -85234.73, -102377.78, -119029.95, -179539.73, -113064.48, -176029.06, -185240.97, 455, 282, 1019, 17:15:32.529, 1579101332529
19, -108608.84, -85229.52, -102372.17, -119024.42, -179536.36, -113060.71, -176025.61, -185237.77, 455, 282, 1018, 17:15:32.533, 1579101332533
20, -108608.22, -85228.92, -102371.12, -119023.64, -179537.63, -113061.60, -176026.89, -185239.14, 455, 282, 1019, 17:15:32.538, 1579101332538
21, -108608.62, -85229.45, -102371.16, -119023.91, -179539.91, -113063.59, -176029.17, -185241.58, 455, 282, 1019, 17:15:32.544, 1579101332544
22, -108606.52, -85227.35, -102368.70, -119021.56, -179539.75, -113063.05, -176028.97, -185241.39, 454, 282, 1018, 17:15:32.546, 1579101332546
23, -108605.47, -85226.53, -102367.37, -119020.48, -179540.73, -113063.55, -176029.81, -185242.42, 454, 282, 1018, 17:15:32.550, 1579101332550
24, -108602.90, -85224.20, -102364.59, -119017.96, -179540.25, -113062.70, -176029.28, -185242.20, 453, 282, 1019, 17:15:32.555, 1579101332555
25, -108599.63, -85220.96, -102361.02, -119014.56, -179538.86, -113061.02, -176027.94, -185241.02, 453, 282, 1019, 17:15:32.557, 1579101332557
26, -108598.43, -85219.98, -102359.59, -119013.22, -179539.63, -113061.42, -176028.63, -185241.78, 453, 282, 1019, 17:15:32.561, 1579101332561
27, -108597.24, -85218.80, -102358.07, -119011.84, -179540.41, -113061.76, -176029.28, -185242.56, 453, 281, 1019, 17:15:32.565, 1579101332565
28, -108595.63, -85217.32, -102356.16, -119010.16, -179540.69, -113061.65, -176029.55, -185242.98, 452, 281, 1019, 17:15:32.570, 1579101332570
29, -108591.45, -85213.32, -102351.74, -119005.96, -179538.53, -113059.01, -176027.27, -185240.92, 452, 281, 1018, 17:15:32.577, 1579101332577
30, -108587.25, -85209.16, -102347.25, -119001.60, -179536.33, -113056.46, -176024.92, -185238.89, 452, 281, 1019, 17:15:32.578, 1579101332578
31, -108585.91, -85207.98, -102345.55, -118999.95, -179536.84, -113056.70, -176025.44, -185239.56, 452, 281, 1019, 17:15:32.581, 1579101332581
32, -108583.52, -85205.70, -102342.73, -118997.30, -179536.36, -113055.86, -176024.97, -185239.22, 452, 281, 1018, 17:15:32.587, 1579101332587
33, -108578.87, -85201.20, -102337.84, -118992.66, -179533.77, -113052.82, -176022.19, -185236.64, 452, 281, 1019, 17:15:32.590, 1579101332590
34, -108578.67, -85201.25, -102337.48, -118992.48, -179535.63, -113054.25, -176024.00, -185238.53, 452, 281, 1019, 17:15:32.593, 1579101332593
35, -108579.32, -85201.96, -102337.80, -118993.02, -179538.13, -113056.41, -176026.59, -185241.23, 453, 281, 1019, 17:15:32.597, 1579101332597
36, -108580.34, -85203.04, -102338.33, -118993.87, -179540.98, -113058.92, -176029.34, -185244.19, 453, 281, 1018, 17:15:32.602, 1579101332602
37, -108578.53, -85201.41, -102336.25, -118991.92, -179541.09, -113058.70, -176029.39, -185244.39, 452, 281, 1018, 17:15:32.605, 1579101332605
38, -108574.24, -85197.34, -102331.85, -118987.61, -179538.97, -113056.10, -176027.02, -185242.36, 452, 281, 1018, 17:15:32.609, 1579101332609
39, -108571.12, -85194.14, -102328.32, -118984.30, -179537.77, -113054.47, -176025.75, -185241.19, 452, 281, 1019, 17:15:32.613, 1579101332613
40, -108568.97, -85192.27, -102325.97, -118982.04, -179537.50, -113053.94, -176025.50, -185241.13, 452, 281, 1019, 17:15:32.619, 1579101332619
41, -108566.51, -85189.91, -102323.22, -118979.41, -179536.97, -113053.09, -176024.97, -185240.77, 452, 281, 1018, 17:15:32.621, 1579101332621
42, -108563.67, -85187.23, -102320.16, -118976.45, -179536.06, -113051.74, -176023.98, -185240.05, 452, 281, 1018, 17:15:32.626, 1579101332626
43, -108560.63, -85184.33, -102316.80, -118973.23, -179535.00, -113050.20, -176022.78, -185239.11, 452, 281, 1018, 17:15:32.630, 1579101332630
44, -108559.06, -85182.83, -102314.81, -118971.65, -179535.33, -113050.25, -176023.05, -185239.55, 452, 281, 1018, 17:15:32.633, 1579101332633
45, -108556.81, -85180.70, -102312.20, -118969.21, -179535.03, -113049.48, -176022.69, -185239.19, 452, 281, 1018, 17:15:32.637, 1579101332637
46, -108553.08, -85176.93, -102308.11, -118965.23, -179533.19, -113047.27, -176020.70, -185237.30, 452, 281, 1019, 17:15:32.644, 1579101332644
47, -108549.61, -85173.51, -102304.40, -118961.59, -179531.55, -113045.30, -176019.09, -185235.89, 452, 281, 1018, 17:15:32.645, 1579101332645
48, -108548.83, -85172.93, -102303.30, -118960.80, -179532.72, -113046.16, -176020.25, -185237.42, 452, 281, 1019, 17:15:32.649, 1579101332649
49, -108547.13, -85171.37, -102301.31, -118959.04, -179533.11, -113046.11, -176020.47, -185237.81, 452, 281, 1018, 17:15:32.653, 1579101332653
50, -108542.66, -85167.05, -102296.60, -118954.39, -179530.69, -113043.30, -176017.91, -185235.38, 452, 281, 1018, 17:15:32.658, 1579101332658
51, -108539.82, -85164.41, -102293.47, -118951.48, -179529.78, -113041.98, -176016.94, -185234.59, 452, 281, 1019, 17:15:32.661, 1579101332661
52, -108539.20, -85163.83, -102292.42, -118950.66, -179531.03, -113042.80, -176018.13, -185235.97, 452, 281, 1019, 17:15:32.665, 1579101332665
53, -108537.16, -85161.91, -102290.05, -118948.42, -179530.86, -113042.36, -176017.97, -185235.89, 452, 281, 1019, 17:15:32.669, 1579101332669
54, -108534.28, -85159.30, -102287.08, -118945.59, -179530.08, -113041.22, -176017.13, -185235.20, 452, 281, 1018, 17:15:32.675, 1579101332675
55, -108530.70, -85155.83, -102283.16, -118941.77, -179528.38, -113039.16, -176015.27, -185233.66, 452, 281, 1019, 17:15:32.678, 1579101332678
56, -108530.34, -85155.59, -102282.45, -118941.25, -179529.92, -113040.30, -176016.77, -185235.36, 452, 281, 1018, 17:15:32.681, 1579101332681
57, -108528.83, -85154.13, -102280.55, -118939.57, -179530.34, -113040.37, -176017.17, -185235.83, 452, 281, 1018, 17:15:32.686, 1579101332686
58, -108526.37, -85151.76, -102277.76, -118937.05, -179529.94, -113039.49, -176016.58, -185235.38, 452, 281, 1018, 17:15:32.689, 1579101332689
59, -108521.18, -85146.89, -102272.39, -118931.82, -179526.77, -113035.98, -176013.39, -185232.41, 452, 281, 1019, 17:15:32.692, 1579101332692
60, -108519.08, -85144.85, -102270.00, -118929.56, -179526.52, -113035.45, -176013.20, -185232.34, 452, 281, 1019, 17:15:32.698, 1579101332698
61, -108518.88, -85144.61, -102269.38, -118929.07, -179528.22, -113036.68, -176014.75, -185234.08, 452, 281, 1019, 17:15:32.702, 1579101332702
62, -108517.80, -85143.47, -102267.90, -118927.80, -179528.95, -113037.20, -176015.47, -185235.03, 452, 281, 1019, 17:15:32.706, 1579101332706
63, -108514.20, -85139.98, -102263.97, -118924.06, -179527.23, -113035.14, -176013.75, -185233.39, 452, 281, 1019, 17:15:32.712, 1579101332712
64, -108512.66, -85138.69, -102262.31, -118922.50, -179527.69, -113035.20, -176014.11, -185234.02, 452, 281, 1019, 17:15:32.714, 1579101332714
65, -108510.92, -85137.26, -102260.32, -118920.75, -179528.06, -113035.05, -176014.33, -185234.47, 452, 281, 1019, 17:15:32.718, 1579101332718
66, -108509.65, -85136.05, -102258.69, -118919.34, -179528.78, -113035.27, -176014.91, -185235.14, 452, 281, 1018, 17:15:32.721, 1579101332721
67, -108506.96, -85133.57, -102255.59, -118916.48, -179528.06, -113034.20, -176014.13, -185234.39, 452, 281, 1018, 17:15:32.725, 1579101332725
68, -108502.59, -85129.34, -102250.89, -118911.95, -179525.55, -113031.45, -176011.64, -185232.03, 452, 281, 1019, 17:15:32.731, 1579101332731
69, -108501.06, -85127.89, -102249.19, -118910.29, -179526.03, -113031.59, -176012.03, -185232.72, 453, 281, 1018, 17:15:32.733, 1579101332733
70, -108499.50, -85126.37, -102247.34, -118908.41, -179526.34, -113031.59, -176012.30, -185233.11, 453, 281, 1018, 17:15:32.738, 1579101332738
71, -108496.84, -85123.66, -102244.16, -118905.63, -179525.45, -113030.33, -176011.36, -185232.45, 454, 281, 1019, 17:15:32.743, 1579101332743
72, -108494.00, -85120.94, -102240.98, -118902.76, -179524.72, -113029.13, -176010.44, -185231.78, 454, 282, 1017, 17:15:32.747, 1579101332747
73, -108491.79, -85118.99, -102238.64, -118900.52, -179524.56, -113028.56, -176010.19, -185231.63, 454, 282, 1018, 17:15:32.748, 1579101332748
74, -108489.84, -85117.16, -102236.36, -118898.45, -179524.48, -113028.19, -176010.13, -185231.73, 454, 282, 1019, 17:15:32.753, 1579101332753
75, -108486.60, -85114.12, -102232.80, -118895.05, -179523.19, -113026.55, -176008.77, -185230.55, 455, 282, 1018, 17:15:32.757, 1579101332757
76, -108483.23, -85110.88, -102229.09, -118891.54, -179521.78, -113024.74, -176007.27, -185229.23, 455, 282, 1018, 17:15:32.761, 1579101332761
77, -108482.47, -85110.12, -102228.12, -118890.60, -179522.92, -113025.33, -176008.20, -185230.48, 455, 282, 1019, 17:15:32.765, 1579101332765
78, -108480.45, -85108.31, -102225.92, -118888.50, -179522.88, -113024.92, -176008.11, -185230.48, 455, 282, 1018, 17:15:32.770, 1579101332770
79, -108479.20, -85107.17, -102224.27, -118887.12, -179523.48, -113025.37, -176008.69, -185231.22, 455, 282, 1018, 17:15:32.772, 1579101332772
80, -108476.68, -85104.80, -102221.43, -118884.50, -179522.95, -113024.30, -176008.11, -185230.80, 455, 282, 1019, 17:15:32.778, 1579101332778
81, -108473.91, -85102.23, -102218.37, -118881.73, -179522.19, -113023.09, -176007.33, -185230.22, 455, 282, 1018, 17:15:32.781, 1579101332781
82, -108470.64, -85099.10, -102214.84, -118878.33, -179520.91, -113021.39, -176005.94, -185229.02, 455, 282, 1019, 17:15:32.785, 1579101332785
83, -108468.41, -85096.93, -102212.16, -118875.87, -179520.63, -113020.72, -176005.61, -185228.83, 455, 282, 1019, 17:15:32.789, 1579101332789
84, -108466.73, -85095.41, -102210.23, -118874.13, -179520.88, -113020.63, -176005.77, -185229.14, 455, 282, 1019, 17:15:32.793, 1579101332793
85, -108463.89, -85092.62, -102207.04, -118871.09, -179519.84, -113019.29, -176004.83, -185228.25, 455, 282, 1019, 17:15:32.797, 1579101332797
86, -108460.43, -85089.22, -102203.28, -118867.40, -179518.31, -113017.32, -176003.13, -185226.83, 455, 282, 1019, 17:15:32.800, 1579101332800
87, -108457.45, -85086.36, -102200.04, -118864.34, -179517.34, -113016.02, -176001.97, -185225.91, 455, 282, 1018, 17:15:32.804, 1579101332804
88, -108457.19, -85086.30, -102199.44, -118864.09, -179519.11, -113017.32, -176003.64, -185227.69, 455, 282, 1018, 17:15:32.810, 1579101332810
89, -108454.93, -85084.21, -102197.02, -118861.70, -179518.81, -113016.70, -176003.36, -185227.61, 454, 282, 1018, 17:15:32.813, 1579101332813
90, -108450.10, -85079.66, -102191.97, -118856.78, -179516.02, -113013.50, -176000.56, -185224.98, 455, 282, 1018, 17:15:32.817, 1579101332817
91, -108447.73, -85077.30, -102189.13, -118854.26, -179515.48, -113012.49, -175999.84, -185224.55, 455, 282, 1018, 17:15:32.822, 1579101332822
92, -108445.52, -85075.07, -102186.56, -118851.77, -179515.03, -113011.73, -175999.33, -185224.34, 454, 282, 1018, 17:15:32.825, 1579101332825
93, -108444.16, -85073.82, -102184.84, -118850.23, -179515.58, -113011.98, -175999.78, -185224.94, 455, 282, 1018, 17:15:32.828, 1579101332828
94, -108440.42, -85070.20, -102180.82, -118846.48, -179513.92, -113009.95, -175998.02, -185223.30, 455, 282, 1019, 17:15:32.833, 1579101332833
95, -108439.59, -85069.59, -102179.79, -118845.63, -179515.17, -113010.69, -175999.13, -185224.61, 455, 282, 1018, 17:15:32.837, 1579101332837
96, -108440.96, -85071.20, -102180.93, -118846.84, -179518.45, -113013.55, -176002.41, -185228.00, 455, 282, 1018, 17:15:32.841, 1579101332841
97, -108435.59, -85065.80, -102175.23, -118841.18, -179514.92, -113009.61, -175998.77, -185224.67, 455, 282, 1019, 17:15:32.846, 1579101332846
98, -108430.19, -85060.48, -102169.48, -118835.75, -179511.39, -113005.86, -175995.19, -185221.33, 455, 282, 1018, 17:15:32.850, 1579101332850
99, -108427.46, -85057.93, -102166.47, -118832.91, -179510.66, -113004.80, -175994.39, -185220.61, 455, 282, 1018, 17:15:32.854, 1579101332854
100, -108425.41, -85055.96, -102164.10, -118830.66, -179510.47, -113004.25, -175994.20, -185220.45, 455, 282, 1019, 17:15:32.857, 1579101332857
101, -108424.60, -85055.34, -102163.02, -118829.71, -179511.69, -113004.96, -175995.27, -185221.72, 455, 282, 1018, 17:15:32.860, 1579101332860
102, -108422.66, -85053.41, -102160.79, -118827.48, -179511.69, -113004.56, -175995.19, -185221.88, 455, 282, 1019, 17:15:32.865, 1579101332865
103, -108419.19, -85050.09, -102156.95, -118823.97, -179510.11, -113002.73, -175993.63, -185220.45, 455, 282, 1018, 17:15:32.871, 1579101332871
104, -108416.59, -85047.71, -102154.20, -118821.35, -179509.58, -113001.90, -175993.00, -185220.08, 455, 282, 1018, 17:15:32.876, 1579101332876
105, -108415.26, -85046.40, -102152.37, -118819.84, -179510.08, -113001.97, -175993.42, -185220.77, 455, 282, 1019, 17:15:32.878, 1579101332878
106, -108413.80, -85044.96, -102150.44, -118818.12, -179510.56, -113001.92, -175993.77, -185221.20, 455, 282, 1019, 17:15:32.881, 1579101332881
107, -108410.41, -85041.75, -102146.69, -118814.60, -179509.17, -113000.16, -175992.31, -185219.84, 455, 282, 1018, 17:15:32.885, 1579101332885
108, -108405.33, -85036.74, -102141.37, -118809.46, -179506.09, -112996.83, -175989.16, -185216.88, 455, 282, 1019, 17:15:32.888, 1579101332888
109, -108403.14, -85034.77, -102139.09, -118807.20, -179505.95, -112996.31, -175988.98, -185216.86, 455, 282, 1018, 17:15:32.893, 1579101332893
110, -108401.40, -85033.16, -102137.05, -118805.30, -179505.98, -112996.11, -175989.03, -185217.14, 455, 282, 1019, 17:15:32.897, 1579101332897
111, -108400.50, -85032.42, -102135.80, -118804.30, -179507.05, -112996.76, -175989.89, -185218.27, 455, 282, 1019, 17:15:32.905, 1579101332905
112, -108399.01, -85030.93, -102134.02, -118802.70, -179507.53, -112996.80, -175990.39, -185218.75, 455, 282, 1019, 17:15:32.906, 1579101332906
113, -108396.03, -85028.02, -102130.75, -118799.48, -179506.45, -112995.28, -175989.19, -185217.88, 455, 282, 1018, 17:15:32.908, 1579101332908
114, -108392.39, -85024.67, -102126.84, -118795.83, -179504.81, -112993.34, -175987.50, -185216.34, 455, 282, 1019, 17:15:32.913, 1579101332913
115, -108390.89, -85023.41, -102125.09, -118794.35, -179505.42, -112993.45, -175987.92, -185216.98, 455, 282, 1018, 17:15:32.917, 1579101332917
116, -108388.12, -85020.71, -102122.03, -118791.43, -179504.44, -112992.18, -175987.02, -185216.30, 455, 282, 1019, 17:15:32.923, 1579101332923
117, -108384.88, -85017.61, -102118.55, -118788.03, -179503.09, -112990.55, -175985.58, -185215.11, 455, 282, 1019, 17:15:32.925, 1579101332925
118, -108381.75, -85014.45, -102115.04, -118784.66, -179501.89, -112988.91, -175984.23, -185213.95, 455, 282, 1018, 17:15:32.930, 1579101332930
119, -108379.41, -85012.22, -102112.42, -118782.24, -179501.44, -112988.20, -175983.80, -185213.66, 455, 282, 1018, 17:15:32.934, 1579101332934
120, -108378.89, -85011.84, -102111.51, -118781.55, -179502.97, -112989.31, -175985.25, -185215.09, 455, 282, 1019, 17:15:32.938, 1579101332938
121, -108378.22, -85011.21, -102110.63, -118780.77, -179504.22, -112990.21, -175986.50, -185216.55, 455, 282, 1019, 17:15:32.941, 1579101332941
122, -108376.59, -85009.70, -102108.71, -118778.93, -179504.50, -112990.10, -175986.72, -185216.98, 455, 282, 1018, 17:15:32.945, 1579101332945
123, -108374.17, -85007.48, -102105.96, -118776.49, -179504.06, -112989.23, -175986.20, -185216.66, 454, 282, 1019, 17:15:32.949, 1579101332949
124, -108370.10, -85003.62, -102101.55, -118772.34, -179501.98, -112986.77, -175984.02, -185214.59, 455, 282, 1018, 17:15:32.954, 1579101332954
125, -108364.02, -84997.53, -102095.10, -118766.10, -179497.84, -112982.23, -175979.80, -185210.64, 455, 282, 1018, 17:15:32.957, 1579101332957
126, -108361.72, -84995.43, -102092.51, -118763.69, -179497.59, -112981.56, -175979.33, -185210.48, 455, 282, 1018, 17:15:32.962, 1579101332962
127, -108361.95, -84995.81, -102092.51, -118763.87, -179499.75, -112983.41, -175981.47, -185212.77, 455, 282, 1018, 17:15:32.965, 1579101332965
128, -108361.39, -84995.21, -102091.57, -118763.09, -179501.06, -112984.35, -175982.70, -185214.22, 455, 282, 1019, 17:15:32.970, 1579101332970
129, -108358.86, -84992.98, -102088.75, -118760.45, -179500.58, -112983.52, -175982.13, -185213.77, 455, 282, 1019, 17:15:32.973, 1579101332973
130, -108355.06, -84989.38, -102084.70, -118756.60, -179498.67, -112981.31, -175980.22, -185212.05, 455, 282, 1018, 17:15:32.977, 1579101332977
131, -108354.55, -84988.99, -102083.95, -118756.06, -179500.19, -112982.41, -175981.64, -185213.67, 454, 282, 1019, 17:15:32.981, 1579101332981
132, -108354.30, -84988.82, -102083.34, -118755.62, -179501.88, -112983.68, -175983.19, -185215.41, 453, 282, 1019, 17:15:32.986, 1579101332986
133, -108351.35, -84986.02, -102080.05, -118752.55, -179500.91, -112982.19, -175982.14, -185214.45, 453, 281, 1018, 17:15:32.990, 1579101332990
134, -108346.16, -84980.97, -102074.58, -118747.26, -179497.64, -112978.66, -175978.88, -185211.38, 453, 281, 1019, 17:15:32.992, 1579101332992
135, -108343.91, -84978.76, -102071.96, -118744.80, -179497.27, -112977.98, -175978.42, -185211.06, 453, 282, 1018, 17:15:32.997, 1579101332997
136, -108341.59, -84976.45, -102069.26, -118742.21, -179496.70, -112977.13, -175977.83, -185210.69, 453, 281, 1018, 17:15:33.003, 1579101333003
137, -108340.87, -84975.95, -102068.43, -118741.38, -179498.05, -112977.94, -175979.08, -185212.11, 452, 281, 1019, 17:15:33.006, 1579101333006
138, -108337.41, -84972.75, -102064.70, -118737.89, -179496.61, -112976.09, -175977.48, -185210.70, 452, 281, 1018, 17:15:33.009, 1579101333009
139, -108333.76, -84969.13, -102060.72, -118734.05, -179494.84, -112974.02, -175975.72, -185209.14, 452, 281, 1018, 17:15:33.014, 1579101333014
140, -108330.45, -84965.98, -102057.10, -118730.77, -179493.52, -112972.33, -175974.34, -185208.02, 452, 281, 1019, 17:15:33.017, 1579101333017
141, -108329.16, -84964.70, -102055.45, -118729.24, -179494.06, -112972.55, -175974.81, -185208.72, 452, 281, 1018, 17:15:33.025, 1579101333025
142, -108327.62, -84963.16, -102053.50, -118727.45, -179494.45, -112972.41, -175975.13, -185209.05, 452, 281, 1018, 17:15:33.026, 1579101333026
143, -108328.02, -84963.80, -102053.68, -118727.77, -179496.84, -112974.45, -175977.48, -185211.58, 452, 281, 1018, 17:15:33.029, 1579101333029
144, -108327.14, -84963.02, -102052.52, -118726.72, -179497.89, -112975.26, -175978.45, -185212.78, 452, 281, 1018, 17:15:33.033, 1579101333033
145, -108326.98, -84962.98, -102052.12, -118726.45, -179499.59, -112976.64, -175980.17, -185214.58, 452, 281, 1019, 17:15:33.037, 1579101333037
146, -108324.57, -84960.70, -102049.39, -118723.88, -179499.09, -112975.77, -175979.56, -185214.17, 452, 281, 1019, 17:15:33.041, 1579101333041
147, -108322.00, -84958.33, -102046.53, -118721.24, -179498.56, -112974.77, -175978.83, -185213.72, 452, 281, 1019, 17:15:33.045, 1579101333045
148, -108318.27, -84954.82, -102042.57, -118717.46, -179496.84, -112972.66, -175977.11, -185212.06, 452, 281, 1019, 17:15:33.047, 1579101333047
149, -108317.42, -84954.04, -102041.45, -118716.41, -179497.91, -112973.45, -175978.16, -185213.33, 452, 281, 1018, 17:15:33.053, 1579101333053
150, -108315.34, -84952.12, -102039.09, -118714.23, -179497.78, -112972.89, -175977.89, -185213.19, 452, 281, 1019, 17:15:33.056, 1579101333056
151, -108315.23, -84952.23, -102038.55, -118714.00, -179499.64, -112974.34, -175979.64, -185215.17, 452, 281, 1019, 17:15:33.060, 1579101333060
152, -108313.66, -84950.69, -102036.65, -118712.26, -179499.92, -112974.36, -175979.95, -185215.64, 452, 281, 1018, 17:15:33.064, 1579101333064
153, -108310.91, -84948.00, -102033.52, -118709.38, -179499.08, -112973.13, -175978.94, -185214.94, 452, 281, 1019, 17:15:33.068, 1579101333068
154, -108304.55, -84941.70, -102026.91, -118702.82, -179494.53, -112968.35, -175974.42, -185210.55, 452, 281, 1018, 17:15:33.072, 1579101333072
155, -108299.92, -84937.20, -102022.01, -118698.04, -179491.94, -112965.27, -175971.67, -185207.98, 452, 281, 1018, 17:15:33.075, 1579101333075
156, -108299.63, -84937.16, -102021.38, -118697.68, -179493.59, -112966.54, -175973.31, -185209.77, 452, 281, 1019, 17:15:33.080, 1579101333080
157, -108295.25, -84932.87, -102016.60, -118693.10, -179490.94, -112963.59, -175970.72, -185207.23, 452, 281, 1019, 17:15:33.085, 1579101333085
158, -108292.41, -84930.28, -102013.58, -118690.24, -179490.22, -112962.41, -175969.89, -185206.59, 452, 281, 1018, 17:15:33.088, 1579101333088
159, -108290.31, -84928.27, -102011.16, -118688.01, -179490.06, -112961.96, -175969.72, -185206.61, 452, 281, 1019, 17:15:33.093, 1579101333093
160, -108288.03, -84926.10, -102008.59, -118685.52, -179489.84, -112961.29, -175969.25, -185206.38, 452, 281, 1019, 17:15:33.096, 1579101333096
161, -108285.80, -84924.00, -102006.05, -118683.20, -179489.47, -112960.64, -175968.91, -185206.13, 452, 281, 1018, 17:15:33.101, 1579101333101
162, -108282.38, -84920.78, -102002.38, -118679.71, -179488.03, -112958.83, -175967.28, -185204.78, 452, 281, 1019, 17:15:33.105, 1579101333105
163, -108281.10, -84919.51, -102000.82, -118678.30, -179488.69, -112959.03, -175967.81, -185205.55, 452, 281, 1018, 17:15:33.108, 1579101333108
164, -108279.42, -84917.98, -101998.80, -118676.52, -179488.81, -112958.90, -175967.98, -185205.91, 452, 281, 1018, 17:15:33.111, 1579101333111
165, -108276.92, -84915.52, -101995.95, -118673.79, -179488.33, -112957.98, -175967.44, -185205.45, 452, 281, 1019, 17:15:33.116, 1579101333116
166, -108276.12, -84914.81, -101994.83, -118672.78, -179489.39, -112958.72, -175968.39, -185206.61, 452, 281, 1018, 17:15:33.120, 1579101333120
167, -108274.33, -84913.18, -101992.62, -118670.84, -179489.59, -112958.54, -175968.45, -185206.92, 452, 281, 1019, 17:15:33.123, 1579101333123
168, -108272.25, -84911.28, -101990.34, -118668.73, -179489.52, -112958.02, -175968.39, -185207.00, 452, 281, 1019, 17:15:33.129, 1579101333129
169, -108269.70, -84908.93, -101987.52, -118666.16, -179488.88, -112957.04, -175967.83, -185206.48, 452, 281, 1019, 17:15:33.133, 1579101333133
170, -108266.55, -84905.87, -101984.10, -118662.88, -179487.86, -112955.52, -175966.45, -185205.44, 452, 281, 1019, 17:15:33.137, 1579101333137
171, -108261.95, -84901.34, -101979.30, -118658.16, -179485.19, -112952.46, -175963.72, -185202.84, 452, 281, 1019, 17:15:33.140, 1579101333140
172, -108262.37, -84901.82, -101979.31, -118658.37, -179487.45, -112954.42, -175965.95, -185205.23, 452, 281, 1018, 17:15:33.144, 1579101333144
173, -108259.53, -84899.05, -101976.08, -118655.26, -179486.45, -112953.04, -175964.77, -185204.38, 452, 281, 1018, 17:15:33.148, 1579101333148
174, -108254.59, -84894.20, -101970.80, -118650.30, -179483.39, -112949.66, -175961.75, -185201.52, 452, 281, 1019, 17:15:33.153, 1579101333153
175, -108252.55, -84892.39, -101968.52, -118648.22, -179483.36, -112949.24, -175961.58, -185201.45, 452, 281, 1019, 17:15:33.157, 1579101333157
176, -108248.76, -84888.75, -101964.50, -118644.22, -179481.47, -112947.01, -175959.72, -185199.78, 452, 281, 1019, 17:15:33.161, 1579101333161
177, -108246.95, -84886.91, -101962.35, -118642.14, -179481.63, -112946.69, -175959.81, -185200.02, 452, 281, 1019, 17:15:33.165, 1579101333165
178, -108245.38, -84885.42, -101960.48, -118640.46, -179481.97, -112946.60, -175960.06, -185200.42, 452, 281, 1018, 17:15:33.171, 1579101333171
179, -108243.73, -84883.97, -101958.53, -118638.83, -179482.17, -112946.63, -175960.22, -185200.83, 452, 281, 1019, 17:15:33.172, 1579101333172
180, -108242.68, -84883.01, -101957.28, -118637.67, -179483.09, -112947.18, -175961.11, -185201.86, 452, 281, 1019, 17:15:33.176, 1579101333176
181, -108239.80, -84880.14, -101953.91, -118634.43, -179482.06, -112945.69, -175960.06, -185200.88, 452, 281, 1018, 17:15:33.180, 1579101333180
182, -108237.36, -84877.88, -101951.13, -118631.84, -179481.53, -112944.81, -175959.45, -185200.48, 452, 281, 1019, 17:15:33.185, 1579101333185
183, -108234.88, -84875.47, -101948.34, -118629.24, -179481.02, -112943.95, -175958.78, -185200.06, 452, 281, 1019, 17:15:33.189, 1579101333189
184, -108229.65, -84870.45, -101942.91, -118624.03, -179477.84, -112940.39, -175955.58, -185196.95, 452, 281, 1018, 17:15:33.193, 1579101333193
185, -108225.58, -84866.42, -101938.41, -118619.97, -179475.78, -112937.91, -175953.34, -185194.95, 452, 281, 1019, 17:15:33.196, 1579101333196
186, -108224.21, -84865.30, -101936.78, -118618.45, -179476.36, -112938.09, -175953.78, -185195.73, 452, 281, 1018, 17:15:33.204, 1579101333204
187, -108223.61, -84864.90, -101935.84, -118617.73, -179477.69, -112939.12, -175955.03, -185197.14, 452, 281, 1019, 17:15:33.205, 1579101333205
188, -108222.31, -84863.58, -101934.16, -118616.19, -179478.22, -112939.31, -175955.52, -185197.78, 452, 281, 1018, 17:15:33.208, 1579101333208
189, -108219.79, -84861.13, -101931.38, -118613.48, -179477.55, -112938.31, -175954.88, -185197.25, 452, 281, 1018, 17:15:33.213, 1579101333213
190, -108216.46, -84858.02, -101927.75, -118610.00, -179476.23, -112936.59, -175953.47, -185196.02, 452, 281, 1019, 17:15:33.217, 1579101333217
191, -108215.27, -84857.08, -101926.34, -118608.68, -179476.98, -112936.97, -175954.17, -185196.95, 452, 281, 1019, 17:15:33.221, 1579101333221
192, -108212.21, -84854.20, -101923.08, -118605.57, -179475.92, -112935.47, -175953.06, -185196.02, 452, 281, 1018, 17:15:33.224, 1579101333224
193, -108209.62, -84851.78, -101920.17, -118602.98, -179475.31, -112934.46, -175952.38, -185195.53, 452, 281, 1019, 17:15:33.228, 1579101333228
194, -108208.59, -84850.73, -101918.84, -118601.77, -179476.20, -112935.11, -175953.13, -185196.52, 452, 281, 1018, 17:15:33.232, 1579101333232
195, -108206.36, -84848.70, -101916.30, -118599.47, -179475.88, -112934.45, -175952.64, -185196.36, 453, 281, 1018, 17:15:33.237, 1579101333237
196, -108204.84, -84847.27, -101914.41, -118597.75, -179476.30, -112934.46, -175953.02, -185196.83, 453, 281, 1019, 17:15:33.241, 1579101333241
197, -108202.13, -84844.49, -101911.21, -118594.77, -179475.53, -112933.23, -175952.08, -185196.06, 452, 281, 1019, 17:15:33.247, 1579101333247
198, -108198.51, -84841.20, -101907.39, -118591.06, -179473.97, -112931.34, -175950.59, -185194.56, 452, 281, 1018, 17:15:33.249, 1579101333249
199, -108196.88, -84839.80, -101905.49, -118589.34, -179474.38, -112931.38, -175950.89, -185195.06, 452, 281, 1019, 17:15:33.252, 1579101333252
200, -108194.55, -84837.63, -101902.96, -118586.88, -179473.86, -112930.66, -175950.41, -185194.75, 452, 281, 1019, 17:15:33.256, 1579101333256
201, -108192.81, -84835.88, -101900.80, -118584.96, -179473.97, -112930.33, -175950.38, -185194.97, 452, 281, 1018, 17:15:33.260, 1579101333260
202, -108190.80, -84833.83, -101898.36, -118582.66, -179473.86, -112929.86, -175950.06, -185194.98, 452, 281, 1019, 17:15:33.264, 1579101333264
203, -108189.39, -84832.63, -101896.50, -118581.27, -179474.41, -112930.09, -175950.56, -185195.64, 452, 281, 1018, 17:15:33.268, 1579101333268
204, -108185.55, -84828.98, -101892.52, -118577.37, -179472.50, -112927.91, -175948.66, -185194.05, 452, 281, 1019, 17:15:33.273, 1579101333273
205, -108183.42, -84827.05, -101890.24, -118575.15, -179472.34, -112927.36, -175948.50, -185193.92, 452, 281, 1019, 17:15:33.276, 1579101333276
206, -108180.45, -84824.06, -101886.83, -118571.89, -179471.22, -112925.91, -175947.25, -185192.83, 452, 281, 1019, 17:15:33.282, 1579101333282
207, -108178.62, -84822.38, -101884.77, -118569.98, -179471.42, -112925.70, -175947.31, -185193.09, 452, 281, 1018, 17:15:33.284, 1579101333284
208, -108176.38, -84820.35, -101882.34, -118567.73, -179471.14, -112925.16, -175946.91, -185193.05, 452, 281, 1019, 17:15:33.288, 1579101333288
209, -108173.81, -84818.01, -101879.49, -118565.18, -179470.52, -112924.07, -175946.28, -185192.52, 452, 281, 1018, 17:15:33.292, 1579101333292
210, -108172.94, -84817.23, -101878.31, -118564.06, -179471.56, -112924.65, -175947.31, -185193.61, 452, 281, 1019, 17:15:33.296, 1579101333296
211, -108170.15, -84814.56, -101875.27, -118561.16, -179470.67, -112923.52, -175946.33, -185192.89, 452, 281, 1019, 17:15:33.301, 1579101333301
212, -108167.71, -84812.15, -101872.45, -118558.55, -179470.13, -112922.66, -175945.80, -185192.48, 452, 281, 1018, 17:15:33.304, 1579101333304
213, -108164.83, -84809.47, -101869.23, -118555.52, -179469.38, -112921.44, -175944.83, -185191.66, 452, 281, 1019, 17:15:33.308, 1579101333308
214, -108160.89, -84805.73, -101865.08, -118551.55, -179467.33, -112919.13, -175942.78, -185189.89, 452, 281, 1019, 17:15:33.312, 1579101333312
215, -108161.59, -84806.54, -101865.52, -118552.17, -179470.02, -112921.50, -175945.42, -185192.69, 452, 281, 1018, 17:15:33.316, 1579101333316
216, -108161.07, -84806.16, -101864.65, -118551.55, -179471.47, -112922.55, -175946.75, -185194.17, 452, 281, 1019, 17:15:33.321, 1579101333321
217, -108158.91, -84804.20, -101862.22, -118549.23, -179471.16, -112921.92, -175946.33, -185193.98, 452, 281, 1018, 17:15:33.324, 1579101333324
218, -108157.59, -84802.88, -101860.67, -118547.73, -179471.78, -112922.15, -175946.83, -185194.70, 452, 281, 1018, 17:15:33.329, 1579101333329
219, -108155.17, -84800.52, -101857.81, -118545.18, -179471.36, -112921.39, -175946.33, -185194.45, 453, 281, 1019, 17:15:33.332, 1579101333332
220, -108154.32, -84799.84, -101856.65, -118544.40, -179472.47, -112922.10, -175947.50, -185195.63, 452, 281, 1018, 17:15:33.336, 1579101333336
221, -108152.35, -84797.91, -101854.33, -118542.05, -179472.41, -112921.52, -175947.22, -185195.58, 453, 281, 1018, 17:15:33.340, 1579101333340
222, -108148.69, -84794.42, -101850.39, -118538.20, -179470.67, -112919.40, -175945.42, -185194.03, 453, 281, 1019, 17:15:33.344, 1579101333344
223, -108145.73, -84791.66, -101847.15, -118535.16, -179469.66, -112918.08, -175944.34, -185193.06, 452, 281, 1018, 17:15:33.348, 1579101333348
224, -108144.13, -84790.18, -101845.30, -118533.46, -179469.97, -112918.15, -175944.56, -185193.56, 452, 281, 1018, 17:15:33.352, 1579101333352
225, -108142.38, -84788.63, -101843.30, -118531.72, -179470.17, -112918.02, -175944.67, -185193.83, 452, 281, 1018, 17:15:33.357, 1579101333357
226, -108138.90, -84785.28, -101839.46, -118527.99, -179468.55, -112916.02, -175943.06, -185192.28, 452, 281, 1018, 17:15:33.360, 1579101333360
227, -108136.44, -84782.84, -101836.65, -118525.35, -179467.98, -112915.13, -175942.47, -185191.94, 452, 281, 1019, 17:15:33.364, 1579101333364
228, -108135.14, -84781.70, -101835.04, -118523.98, -179468.72, -112915.45, -175943.11, -185192.75, 452, 281, 1018, 17:15:33.368, 1579101333368
229, -108132.10, -84778.71, -101831.68, -118520.75, -179467.61, -112913.90, -175941.89, -185191.77, 452, 281, 1018, 17:15:33.372, 1579101333372
230, -108130.16, -84776.90, -101829.54, -118518.66, -179467.53, -112913.56, -175941.77, -185191.91, 452, 281, 1019, 17:15:33.376, 1579101333376
231, -108128.86, -84775.76, -101827.86, -118517.26, -179468.13, -112913.84, -175942.22, -185192.56, 452, 281, 1019, 17:15:33.380, 1579101333380
232, -108126.96, -84773.97, -101825.63, -118515.29, -179468.16, -112913.43, -175942.28, -185192.72, 452, 281, 1018, 17:15:33.384, 1579101333384
233, -108125.94, -84772.99, -101824.28, -118514.17, -179469.13, -112914.02, -175943.16, -185193.73, 452, 281, 1019, 17:15:33.388, 1579101333388
234, -108122.23, -84769.46, -101820.28, -118510.35, -179467.41, -112911.95, -175941.39, -185192.16, 452, 281, 1018, 17:15:33.391, 1579101333391
235, -108119.05, -84766.33, -101816.88, -118507.00, -179466.08, -112910.23, -175939.92, -185190.88, 452, 281, 1018, 17:15:33.397, 1579101333397
236, -108116.50, -84763.83, -101813.96, -118504.09, -179465.30, -112909.14, -175939.16, -185190.25, 452, 281, 1019, 17:15:33.400, 1579101333400
237, -108115.02, -84762.55, -101812.17, -118502.48, -179465.80, -112909.27, -175939.56, -185190.88, 452, 281, 1018, 17:15:33.405, 1579101333405
238, -108111.49, -84759.06, -101808.30, -118498.91, -179464.20, -112907.40, -175937.97, -185189.52, 452, 281, 1018, 17:15:33.408, 1579101333408
239, -108109.22, -84756.96, -101805.80, -118496.56, -179463.88, -112906.80, -175937.55, -185189.27, 452, 281, 1019, 17:15:33.412, 1579101333412
240, -108108.19, -84756.05, -101804.41, -118495.35, -179464.81, -112907.27, -175938.31, -185190.23, 452, 281, 1018, 17:15:33.416, 1579101333416
241, -108103.13, -84751.13, -101799.02, -118490.15, -179461.64, -112903.77, -175935.02, -185187.17, 452, 281, 1019, 17:15:33.419, 1579101333419
242, -108099.91, -84748.07, -101795.54, -118486.80, -179460.34, -112902.21, -175933.75, -185186.00, 452, 281, 1018, 17:15:33.424, 1579101333424
243, -108097.52, -84745.77, -101792.75, -118484.38, -179459.89, -112901.38, -175933.22, -185185.69, 452, 281, 1018, 17:15:33.428, 1579101333428
244, -108095.85, -84744.27, -101790.82, -118482.68, -179460.19, -112901.27, -175933.45, -185186.08, 452, 281, 1019, 17:15:33.433, 1579101333433
245, -108095.71, -84744.20, -101790.34, -118482.32, -179462.02, -112902.68, -175935.14, -185187.97, 452, 281, 1018, 17:15:33.438, 1579101333438
246, -108094.51, -84743.04, -101788.70, -118480.80, -179462.66, -112903.02, -175935.77, -185188.69, 452, 281, 1019, 17:15:33.440, 1579101333440
247, -108092.95, -84741.54, -101786.82, -118478.97, -179462.89, -112902.91, -175935.98, -185189.03, 452, 281, 1019, 17:15:33.445, 1579101333445
248, -108088.92, -84737.74, -101782.69, -118474.99, -179460.89, -112900.45, -175933.77, -185187.22, 452, 281, 1019, 17:15:33.448, 1579101333448
249, -108085.19, -84734.08, -101778.58, -118471.22, -179459.11, -112898.30, -175931.94, -185185.63, 452, 281, 1019, 17:15:33.453, 1579101333453
250, -108083.35, -84732.31, -101776.41, -118469.25, -179459.22, -112898.03, -175931.94, -185185.83, 452, 281, 1019, 17:15:33.456, 1579101333456
251, -108080.74, -84729.80, -101773.52, -118466.45, -179458.59, -112897.05, -175931.17, -185185.30, 453, 281, 1019, 17:15:33.460, 1579101333460
252, -108076.85, -84726.03, -101769.37, -118462.45, -179456.63, -112894.66, -175929.17, -185183.33, 454, 281, 1018, 17:15:33.465, 1579101333465
253, -108074.73, -84724.04, -101766.93, -118460.13, -179456.31, -112894.05, -175928.83, -185183.14, 454, 281, 1018, 17:15:33.468, 1579101333468
254, -108071.33, -84720.73, -101763.24, -118456.59, -179454.81, -112892.17, -175927.31, -185181.78, 454, 282, 1019, 17:15:33.471, 1579101333471
255, -108068.27, -84717.84, -101759.94, -118453.34, -179453.66, -112890.74, -175926.08, -185180.78, 454, 282, 1019, 17:15:33.475, 1579101333475
0, -108066.39, -84716.08, -101757.72, -118451.28, -179453.59, -112890.39, -175926.08, -185180.94, 455, 282, 1018, 17:15:33.480, 1579101333480
1, -108062.23, -84712.17, -101753.25, -118447.08, -179451.48, -112887.84, -175923.95, -185178.97, 455, 282, 1017, 17:15:33.484, 1579101333484
2, -108061.45, -84711.52, -101752.20, -118446.27, -179452.77, -112888.73, -175925.03, -185180.22, 455, 282, 1019, 17:15:33.488, 1579101333488
3, -108059.86, -84710.07, -101750.44, -118444.62, -179453.13, -112888.73, -175925.34, -185180.78, 455, 282, 1018, 17:15:33.494, 1579101333494
4, -108058.25, -84708.51, -101748.52, -118442.88, -179453.39, -112888.73, -175925.56, -185181.22, 455, 282, 1019, 17:15:33.495, 1579101333495
5, -108055.59, -84705.84, -101745.41, -118440.02, -179452.61, -112887.50, -175924.70, -185180.44, 455, 282, 1018, 17:15:33.499, 1579101333499
6, -108053.34, -84703.66, -101742.84, -118437.58, -179452.30, -112886.79, -175924.30, -185180.19, 455, 282, 1019, 17:15:33.503, 1579101333503
7, -108051.91, -84702.38, -101741.07, -118435.90, -179452.78, -112886.90, -175924.73, -185180.78, 455, 282, 1019, 17:15:33.507, 1579101333507
8, -108048.93, -84699.54, -101737.80, -118432.88, -179451.72, -112885.56, -175923.69, -185179.92, 455, 282, 1019, 17:15:33.513, 1579101333513
9, -108040.98, -84691.80, -101729.52, -118424.92, -179445.75, -112879.21, -175917.66, -185174.11, 455, 282, 1019, 17:15:33.517, 1579101333517
10, -108038.29, -84689.13, -101726.41, -118422.02, -179444.92, -112877.96, -175916.77, -185173.27, 455, 282, 1019, 17:15:33.520, 1579101333520
11, -108038.02, -84688.86, -101725.83, -118421.48, -179446.50, -112879.26, -175918.28, -185174.97, 455, 282, 1019, 17:15:33.523, 1579101333523
12, -108035.72, -84686.76, -101723.27, -118419.07, -179446.22, -112878.59, -175917.95, -185174.88, 454, 282, 1018, 17:15:33.527, 1579101333527
13, -108034.11, -84685.39, -101721.42, -118417.34, -179446.59, -112878.56, -175918.13, -185175.34, 454, 282, 1019, 17:15:33.532, 1579101333532
14, -108033.40, -84684.86, -101720.46, -118416.61, -179447.89, -112879.48, -175919.38, -185176.80, 454, 282, 1019, 17:15:33.536, 1579101333536
15, -108031.99, -84683.49, -101718.70, -118415.00, -179448.41, -112879.66, -175919.78, -185177.33, 453, 282, 1019, 17:15:33.539, 1579101333539
16, -108031.77, -84683.42, -101718.23, -118414.82, -179450.17, -112881.05, -175921.45, -185179.22, 453, 281, 1018, 17:15:33.545, 1579101333545
17, -108029.60, -84681.39, -101715.72, -118412.52, -179449.88, -112880.44, -175921.25, -185179.17, 453, 281, 1019, 17:15:33.549, 1579101333549
18, -108024.99, -84676.81, -101710.73, -118407.73, -179447.16, -112877.36, -175918.44, -185176.58, 452, 281, 1018, 17:15:33.552, 1579101333552
19, -108020.32, -84672.23, -101705.82, -118402.82, -179444.41, -112874.27, -175915.53, -185173.94, 452, 281, 1019, 17:15:33.556, 1579101333556
20, -108019.92, -84672.02, -101705.17, -118402.38, -179445.98, -112875.45, -175916.98, -185175.56, 452, 281, 1019, 17:15:33.560, 1579101333560
21, -108018.22, -84670.44, -101703.09, -118400.65, -179446.19, -112875.26, -175917.23, -185175.97, 452, 281, 1018, 17:15:33.564, 1579101333564
22, -108014.02, -84666.39, -101698.60, -118396.25, -179443.91, -112872.59, -175914.89, -185173.73, 452, 281, 1018, 17:15:33.569, 1579101333569
23, -108010.63, -84663.27, -101695.00, -118392.76, -179442.61, -112870.85, -175913.41, -185172.39, 452, 281, 1019, 17:15:33.573, 1579101333573
24, -108008.88, -84661.52, -101692.88, -118390.77, -179442.72, -112870.52, -175913.47, -185172.64, 452, 281, 1019, 17:15:33.578, 1579101333578
25, -108008.32, -84660.96, -101691.96, -118390.01, -179444.02, -112871.43, -175914.69, -185174.08, 452, 281, 1018, 17:15:33.580, 1579101333580
26, -108008.48, -84661.23, -101691.88, -118390.16, -179446.17, -112873.27, -175916.69, -185176.27, 452, 281, 1019, 17:15:33.583, 1579101333583
27, -108005.88, -84658.88, -101688.97, -118387.40, -179445.55, -112872.22, -175915.98, -185175.72, 452, 281, 1019, 17:15:33.587, 1579101333587
28, -108003.89, -84657.16, -101686.71, -118385.38, -179445.45, -112871.88, -175915.89, -185175.80, 452, 281, 1018, 17:15:33.592, 1579101333592
29, -107996.72, -84650.01, -101679.31, -118378.12, -179440.30, -112866.29, -175910.61, -185170.70, 452, 281, 1019, 17:15:33.596, 1579101333596
30, -107995.49, -84648.87, -101677.73, -118376.66, -179441.03, -112866.49, -175911.22, -185171.55, 452, 281, 1018, 17:15:33.601, 1579101333601
31, -107994.70, -84648.13, -101676.43, -118375.55, -179441.97, -112867.23, -175912.17, -185172.70, 453, 281, 1018, 17:15:33.605, 1579101333605
32, -107991.09, -84644.69, -101672.63, -118371.98, -179440.30, -112865.30, -175910.55, -185171.14, 453, 281, 1019, 17:15:33.608, 1579101333608
33, -107986.59, -84640.38, -101667.87, -118367.46, -179437.92, -112862.42, -175907.98, -185168.70, 453, 281, 1018, 17:15:33.612, 1579101333612
34, -107984.38, -84638.32, -101665.43, -118365.20, -179437.61, -112861.84, -175907.64, -185168.59, 453, 281, 1018, 17:15:33.616, 1579101333616
35, -107983.91, -84637.98, -101664.65, -118364.53, -179439.03, -112862.85, -175908.98, -185170.25, 453, 281, 1019, 17:15:33.620, 1579101333620
36, -107982.44, -84636.58, -101662.84, -118363.03, -179439.59, -112862.98, -175909.50, -185170.83, 452, 281, 1018, 17:15:33.624, 1579101333624
37, -107980.02, -84634.23, -101660.06, -118360.33, -179439.06, -112862.13, -175908.94, -185170.50, 453, 281, 1018, 17:15:33.629, 1579101333629
38, -107978.91, -84633.24, -101658.68, -118359.13, -179439.94, -112862.58, -175909.72, -185171.44, 452, 281, 1019, 17:15:33.633, 1579101333633
39, -107975.66, -84630.09, -101655.10, -118355.70, -179438.59, -112860.93, -175908.30, -185170.20, 452, 281, 1019, 17:15:33.636, 1579101333636
40, -107972.71, -84627.21, -101651.80, -118352.57, -179437.47, -112859.41, -175907.08, -185169.22, 452, 281, 1018, 17:15:33.640, 1579101333640
41, -107970.26, -84624.88, -101649.05, -118350.13, -179436.94, -112858.60, -175906.48, -185168.81, 452, 281, 1019, 17:15:33.644, 1579101333644
42, -107969.70, -84624.41, -101648.22, -118349.53, -179438.39, -112859.66, -175907.86, -185170.34, 452, 281, 1019, 17:15:33.648, 1579101333648
43, -107970.74, -84625.69, -101648.94, -118350.38, -179441.45, -112862.23, -175910.70, -185173.52, 452, 281, 1018, 17:15:33.652, 1579101333652
44, -107967.44, -84622.61, -101645.31, -118346.88, -179440.05, -112860.48, -175909.23, -185172.17, 452, 281, 1019, 17:15:33.656, 1579101333656
45, -107963.77, -84618.92, -101641.36, -118342.96, -179438.23, -112858.31, -175907.42, -185170.41, 452, 281, 1019, 17:15:33.661, 1579101333661
46, -107961.05, -84616.30, -101638.34, -118340.13, -179437.36, -112857.15, -175906.61, -185169.64, 452, 281, 1018, 17:15:33.664, 1579101333664
47, -107961.72, -84617.13, -101638.67, -118340.66, -179439.98, -112859.32, -175909.19, -185172.47, 452, 281, 1019, 17:15:33.670, 1579101333670
48, -107958.85, -84614.45, -101635.59, -118337.75, -179439.16, -112858.13, -175908.17, -185171.77, 452, 281, 1018, 17:15:33.672, 1579101333672
49, -107955.37, -84611.14, -101631.75, -118334.29, -179437.61, -112856.32, -175906.55, -185170.25, 452, 281, 1018, 17:15:33.677, 1579101333677
50, -107951.19, -84606.96, -101627.16, -118329.88, -179435.31, -112853.48, -175904.06, -185167.98, 453, 281, 1019, 17:15:33.680, 1579101333680
51, -107947.86, -84603.72, -101623.56, -118326.33, -179433.81, -112851.77, -175902.56, -185166.63, 453, 281, 1018, 17:15:33.685, 1579101333685
52, -107946.38, -84602.40, -101621.78, -118324.70, -179434.28, -112851.90, -175903.00, -185167.28, 453, 281, 1018, 17:15:33.688, 1579101333688
53, -107944.39, -84600.52, -101619.41, -118322.64, -179434.25, -112851.52, -175902.88, -185167.30, 454, 281, 1019, 17:15:33.691, 1579101333691
54, -107942.09, -84598.35, -101616.88, -118320.30, -179433.88, -112850.83, -175902.55, -185167.23, 454, 282, 1019, 17:15:33.696, 1579101333696
55, -107939.34, -84595.78, -101613.91, -118317.39, -179433.14, -112849.57, -175901.70, -185166.47, 455, 282, 1018, 17:15:33.700, 1579101333700
56, -107937.24, -84593.84, -101611.54, -118315.13, -179433.00, -112849.04, -175901.45, -185166.42, 455, 282, 1019, 17:15:33.704, 1579101333704
57, -107935.50, -84592.09, -101609.44, -118313.23, -179433.14, -112848.90, -175901.45, -185166.73, 455, 282, 1018, 17:15:33.708, 1579101333708
58, -107932.46, -84589.13, -101606.02, -118310.06, -179432.13, -112847.45, -175900.28, -185165.80, 455, 282, 1018, 17:15:33.713, 1579101333713
59, -107930.55, -84587.42, -101603.80, -118308.09, -179432.06, -112847.12, -175900.31, -185165.91, 455, 282, 1019, 17:15:33.716, 1579101333716
60, -107929.77, -84586.66, -101602.76, -118307.06, -179433.11, -112847.85, -175901.31, -185167.09, 455, 282, 1018, 17:15:33.719, 1579101333719
61, -107927.25, -84584.27, -101599.91, -118304.45, -179432.58, -112846.89, -175900.67, -185166.67, 455, 282, 1019, 17:15:33.724, 1579101333724
62, -107925.20, -84582.44, -101597.64, -118302.26, -179432.53, -112846.40, -175900.58, -185166.61, 455, 282, 1019, 17:15:33.729, 1579101333729
63, -107922.98, -84580.30, -101595.18, -118299.91, -179432.25, -112845.77, -175900.22, -185166.50, 454, 282, 1019, 17:15:33.732, 1579101333732
64, -107921.08, -84578.59, -101593.01, -118297.97, -179432.28, -112845.52, -175900.20, -185166.67, 454, 282, 1018, 17:15:33.736, 1579101333736
65, -107919.16, -84576.79, -101590.71, -118295.91, -179432.22, -112845.13, -175900.05, -185166.78, 453, 282, 1018, 17:15:33.740, 1579101333740
66, -107917.59, -84575.45, -101588.79, -118294.32, -179432.63, -112845.26, -175900.53, -185167.36, 453, 281, 1018, 17:15:33.744, 1579101333744
67, -107914.80, -84572.70, -101585.57, -118291.44, -179431.70, -112843.96, -175899.64, -185166.45, 453, 281, 1019, 17:15:33.747, 1579101333747
68, -107910.13, -84568.11, -101580.67, -118286.70, -179428.98, -112840.90, -175896.73, -185163.88, 453, 281, 1019, 17:15:33.753, 1579101333753
69, -107907.96, -84566.17, -101578.26, -118284.34, -179428.88, -112840.37, -175896.48, -185163.83, 452, 281, 1019, 17:15:33.756, 1579101333756
70, -107905.57, -84563.73, -101575.48, -118281.70, -179428.36, -112839.42, -175895.91, -185163.34, 453, 281, 1018, 17:15:33.760, 1579101333760
71, -107901.91, -84560.18, -101571.46, -118277.85, -179426.52, -112837.23, -175894.00, -185161.75, 452, 281, 1019, 17:15:33.765, 1579101333765
72, -107899.49, -84558.03, -101568.76, -118275.39, -179426.19, -112836.41, -175893.41, -185161.47, 452, 281, 1018, 17:15:33.770, 1579101333770
73, -107896.27, -84555.13, -101565.45, -118272.15, -179424.94, -112834.91, -175892.17, -185160.28, 453, 281, 1019, 17:15:33.772, 1579101333772
74, -107894.17, -84553.05, -101563.02, -118269.83, -179424.69, -112834.30, -175891.91, -185160.17, 453, 281, 1019, 17:15:33.775, 1579101333775
75, -107893.99, -84552.94, -101562.34, -118269.38, -179426.31, -112835.52, -175893.41, -185161.98, 453, 281, 1018, 17:15:33.780, 1579101333780
76, -107891.13, -84550.19, -101559.20, -118266.41, -179425.41, -112834.24, -175892.44, -185161.13, 453, 281, 1019, 17:15:33.784, 1579101333784
77, -107888.72, -84548.00, -101556.65, -118263.95, -179425.00, -112833.52, -175892.05, -185160.95, 453, 281, 1019, 17:15:33.789, 1579101333789
78, -107887.77, -84547.10, -101555.44, -118262.85, -179426.00, -112834.20, -175892.98, -185162.05, 452, 281, 1018, 17:15:33.792, 1579101333792
79, -107884.67, -84544.17, -101551.99, -118259.70, -179424.80, -112832.70, -175891.77, -185160.92, 453, 281, 1018, 17:15:33.796, 1579101333796
80, -107881.14, -84540.64, -101548.04, -118255.97, -179423.13, -112830.62, -175889.98, -185159.30, 452, 281, 1018, 17:15:33.799, 1579101333799
81, -107880.11, -84539.80, -101546.81, -118254.90, -179424.08, -112831.06, -175890.81, -185160.41, 452, 281, 1018, 17:15:33.803, 1579101333803
82, -107877.49, -84537.31, -101543.88, -118252.19, -179423.58, -112830.04, -175890.09, -185159.77, 453, 281, 1019, 17:15:33.807, 1579101333807
83, -107874.48, -84534.38, -101540.55, -118249.02, -179422.50, -112828.77, -175889.02, -185158.92, 453, 281, 1019, 17:15:33.812, 1579101333812
84, -107872.38, -84532.41, -101538.18, -118246.78, -179422.16, -112828.25, -175888.75, -185158.84, 453, 281, 1019, 17:15:33.816, 1579101333816
85, -107869.76, -84529.91, -101535.21, -118244.01, -179421.48, -112827.16, -175888.03, -185158.20, 453, 281, 1019, 17:15:33.821, 1579101333821
86, -107869.00, -84529.35, -101534.13, -118243.12, -179422.72, -112827.84, -175889.16, -185159.55, 453, 281, 1018, 17:15:33.824, 1579101333824
87, -107865.36, -84525.96, -101530.18, -118239.36, -179420.98, -112825.86, -175887.38, -185157.91, 452, 281, 1018, 17:15:33.828, 1579101333828
88, -107859.86, -84520.50, -101524.44, -118233.82, -179417.45, -112822.02, -175883.81, -185154.56, 453, 281, 1019, 17:15:33.831, 1579101333831
89, -107857.11, -84517.73, -101521.30, -118230.89, -179416.50, -112820.67, -175882.81, -185153.73, 452, 281, 1018, 17:15:33.838, 1579101333838
90, -107856.84, -84517.55, -101520.75, -118230.46, -179418.23, -112821.86, -175884.33, -185155.50, 453, 281, 1018, 17:15:33.842, 1579101333842
91, -107856.82, -84517.64, -101520.44, -118230.30, -179420.11, -112823.31, -175886.19, -185157.53, 452, 281, 1018, 17:15:33.844, 1579101333844
92, -107854.70, -84515.70, -101518.02, -118228.09, -179419.84, -112822.88, -175885.92, -185157.48, 452, 281, 1018, 17:15:33.849, 1579101333849
93, -107855.61, -84516.77, -101518.63, -118228.84, -179422.72, -112825.50, -175888.67, -185160.44, 452, 281, 1018, 17:15:33.854, 1579101333854
94, -107853.69, -84514.94, -101516.48, -118226.84, -179422.75, -112825.16, -175888.69, -185160.55, 452, 281, 1019, 17:15:33.856, 1579101333856
95, -107848.21, -84509.57, -101510.55, -118221.14, -179419.14, -112821.14, -175885.02, -185157.06, 452, 281, 1018, 17:15:33.860, 1579101333860
96, -107846.31, -84507.67, -101508.30, -118219.09, -179419.23, -112820.74, -175884.91, -185157.17, 453, 281, 1019, 17:15:33.863, 1579101333863
97, -107844.91, -84506.51, -101506.63, -118217.68, -179419.80, -112820.91, -175885.41, -185157.84, 452, 281, 1019, 17:15:33.867, 1579101333867
98, -107842.56, -84504.41, -101503.96, -118215.27, -179419.33, -112820.18, -175884.95, -185157.52, 452, 281, 1018, 17:15:33.873, 1579101333873
99, -107841.11, -84503.05, -101502.22, -118213.59, -179419.75, -112820.29, -175885.30, -185158.06, 452, 281, 1019, 17:15:33.876, 1579101333876
100, -107837.91, -84499.85, -101498.73, -118210.23, -179418.47, -112818.57, -175883.92, -185156.97, 453, 281, 1018, 17:15:33.879, 1579101333879
101, -107832.77, -84494.77, -101493.16, -118204.88, -179415.22, -112814.97, -175880.53, -185153.86, 452, 281, 1019, 17:15:33.885, 1579101333885
102, -107829.66, -84491.85, -101489.86, -118201.61, -179414.09, -112813.48, -175879.34, -185152.84, 452, 281, 1019, 17:15:33.887, 1579101333887
103, -107828.41, -84490.73, -101488.34, -118200.34, -179414.81, -112813.85, -175880.00, -185153.70, 452, 281, 1018, 17:15:33.891, 1579101333891
104, -107826.42, -84488.79, -101486.05, -118198.23, -179414.63, -112813.41, -175879.88, -185153.73, 452, 281, 1019, 17:15:33.895, 1579101333895
105, -107823.42, -84485.92, -101482.70, -118195.06, -179413.58, -112811.98, -175878.73, -185152.77, 452, 281, 1019, 17:15:33.901, 1579101333901
106, -107821.68, -84484.23, -101480.58, -118193.05, -179413.73, -112811.69, -175878.70, -185153.00, 452, 281, 1018, 17:15:33.904, 1579101333904
107, -107818.69, -84481.45, -101477.38, -118190.01, -179412.78, -112810.37, -175877.64, -185152.13, 452, 281, 1019, 17:15:33.907, 1579101333907
108, -107817.15, -84480.05, -101475.58, -118188.40, -179413.13, -112810.50, -175878.14, -185152.66, 452, 281, 1019, 17:15:33.912, 1579101333912
109, -107813.32, -84476.38, -101471.44, -118184.45, -179411.30, -112808.27, -175876.13, -185150.92, 452, 281, 1018, 17:15:33.915, 1579101333915
110, -107807.91, -84471.02, -101465.78, -118178.92, -179407.72, -112804.45, -175872.53, -185147.52, 452, 281, 1019, 17:15:33.919, 1579101333919
111, -107807.80, -84470.97, -101465.25, -118178.56, -179409.44, -112805.83, -175874.16, -185149.34, 452, 281, 1019, 17:15:33.925, 1579101333925
112, -107805.73, -84469.07, -101462.95, -118176.41, -179409.42, -112805.34, -175874.06, -185149.31, 452, 281, 1019, 17:15:33.929, 1579101333929
113, -107802.62, -84466.14, -101459.64, -118173.38, -179408.44, -112803.93, -175872.97, -185148.45, 452, 281, 1019, 17:15:33.932, 1579101333932
114, -107799.27, -84462.81, -101455.84, -118169.76, -179406.88, -112802.08, -175871.25, -185146.91, 452, 281, 1018, 17:15:33.935, 1579101333935
115, -107799.24, -84462.92, -101455.59, -118169.65, -179408.86, -112803.64, -175873.13, -185148.98, 452, 281, 1018, 17:15:33.939, 1579101333939
116, -107799.33, -84463.17, -101455.30, -118169.63, -179410.92, -112805.27, -175875.17, -185151.16, 453, 281, 1019, 17:15:33.943, 1579101333943
117, -107798.75, -84462.75, -101454.43, -118168.91, -179412.27, -112806.28, -175876.45, -185152.59, 453, 281, 1019, 17:15:33.947, 1579101333947
118, -107796.07, -84460.20, -101451.44, -118165.96, -179411.44, -112805.16, -175875.59, -185151.98, 452, 281, 1018, 17:15:33.954, 1579101333954
119, -107794.62, -84458.77, -101449.71, -118164.33, -179411.84, -112805.27, -175875.83, -185152.69, 452, 281, 1019, 17:15:33.957, 1579101333957
120, -107791.87, -84456.09, -101446.61, -118161.35, -179410.88, -112804.00, -175874.81, -185151.77, 453, 281, 1019, 17:15:33.960, 1579101333960
121, -107789.09, -84453.41, -101443.52, -118158.54, -179410.19, -112802.86, -175874.00, -185151.03, 452, 281, 1019, 17:15:33.963, 1579101333963
122, -107787.75, -84452.17, -101441.96, -118157.06, -179410.88, -112803.15, -175874.63, -185151.83, 452, 281, 1018, 17:15:33.969, 1579101333969
123, -107785.79, -84450.43, -101439.68, -118154.96, -179410.83, -112802.84, -175874.61, -185151.98, 452, 281, 1019, 17:15:33.971, 1579101333971
124, -107784.60, -84449.34, -101438.12, -118153.75, -179411.59, -112803.15, -175875.34, -185152.84, 452, 281, 1018, 17:15:33.975, 1579101333975
125, -107782.66, -84447.32, -101435.74, -118151.54, -179411.39, -112802.61, -175875.13, -185152.77, 452, 281, 1018, 17:15:33.979, 1579101333979
126, -107780.47, -84445.24, -101433.30, -118149.23, -179411.14, -112801.94, -175874.69, -185152.70, 452, 281, 1018, 17:15:33.983, 1579101333983
127, -107778.01, -84442.98, -101430.65, -118146.78, -179410.67, -112801.18, -175874.11, -185152.33, 452, 281, 1019, 17:15:33.990, 1579101333990
128, -107772.87, -84438.12, -101425.28, -118141.57, -179407.52, -112797.74, -175870.89, -185149.23, 452, 281, 1018, 17:15:33.993, 1579101333993
129, -107771.63, -84437.09, -101423.77, -118140.21, -179408.28, -112798.08, -175871.61, -185150.11, 452, 281, 1019, 17:15:33.995, 1579101333995
130, -107770.30, -84435.81, -101422.13, -118138.69, -179408.81, -112798.21, -175872.13, -185150.78, 452, 281, 1018, 17:15:34.000, 1579101334000
131, -107768.91, -84434.54, -101420.34, -118137.21, -179409.36, -112798.30, -175872.58, -185151.36, 453, 281, 1019, 17:15:34.005, 1579101334005
132, -107767.41, -84433.16, -101418.55, -118135.67, -179409.75, -112798.41, -175872.86, -185151.94, 453, 281, 1019, 17:15:34.007, 1579101334007
133, -107764.91, -84430.72, -101415.78, -118132.99, -179409.20, -112797.54, -175872.30, -185151.50, 453, 281, 1019, 17:15:34.012, 1579101334012
134, -107761.80, -84427.77, -101412.45, -118129.77, -179408.03, -112795.99, -175871.03, -185150.42, 453, 281, 1019, 17:15:34.018, 1579101334018
135, -107757.66, -84423.74, -101407.88, -118125.44, -179405.78, -112793.31, -175868.59, -185148.23, 453, 282, 1019, 17:15:34.021, 1579101334021
136, -107755.34, -84421.58, -101405.26, -118123.04, -179405.38, -112792.48, -175868.08, -185147.92, 454, 281, 1019, 17:15:34.024, 1579101334024
137, -107755.30, -84421.58, -101404.85, -118122.84, -179407.20, -112794.07, -175870.02, -185149.91, 454, 281, 1018, 17:15:34.028, 1579101334028
138, -107754.76, -84421.13, -101404.07, -118122.28, -179408.66, -112795.26, -175871.34, -185151.42, 453, 282, 1018, 17:15:34.032, 1579101334032
139, -107751.43, -84417.98, -101400.41, -118118.77, -179407.25, -112793.47, -175869.89, -185150.17, 454, 282, 1018, 17:15:34.036, 1579101334036
140, -107745.82, -84412.55, -101394.48, -118113.03, -179403.56, -112789.40, -175866.22, -185146.69, 454, 282, 1019, 17:15:34.040, 1579101334040
141, -107742.60, -84409.39, -101390.98, -118109.70, -179402.22, -112787.66, -175864.80, -185145.39, 453, 282, 1018, 17:15:34.045, 1579101334045
142, -107738.87, -84405.68, -101386.93, -118105.77, -179400.39, -112785.47, -175862.94, -185143.72, 453, 281, 1018, 17:15:34.048, 1579101334048
143, -107734.09, -84400.97, -101381.79, -118100.76, -179397.48, -112782.18, -175859.92, -185140.88, 452, 281, 1019, 17:15:34.051, 1579101334051
144, -107731.56, -84398.58, -101378.93, -118098.08, -179396.88, -112781.11, -175859.27, -185140.36, 452, 281, 1018, 17:15:34.056, 1579101334056
145, -107732.56, -84399.78, -101379.62, -118099.05, -179399.83, -112783.75, -175862.14, -185143.41, 452, 281, 1019, 17:15:34.060, 1579101334060
146, -107730.89, -84398.27, -101377.63, -118097.34, -179400.08, -112783.70, -175862.27, -185143.77, 452, 281, 1018, 17:15:34.064, 1579101334064
147, -107726.93, -84394.41, -101373.41, -118093.18, -179398.06, -112781.34, -175860.19, -185141.95, 452, 281, 1018, 17:15:34.068, 1579101334068
148, -107725.10, -84392.67, -101371.28, -118091.23, -179398.20, -112781.16, -175860.22, -185142.20, 452, 281, 1018, 17:15:34.072, 1579101334072
149, -107722.26, -84389.95, -101368.04, -118088.27, -179397.36, -112779.88, -175859.30, -185141.38, 452, 281, 1019, 17:15:34.075, 1579101334075
150, -107722.10, -84389.81, -101367.57, -118087.84, -179399.03, -112781.18, -175860.88, -185143.16, 452, 281, 1019, 17:15:34.079, 1579101334079
151, -107721.37, -84389.14, -101366.43, -118086.85, -179400.09, -112781.80, -175861.86, -185144.30, 452, 281, 1019, 17:15:34.085, 1579101334085
152, -107717.37, -84385.30, -101362.16, -118082.74, -179398.16, -112779.43, -175859.77, -185142.42, 453, 281, 1019, 17:15:34.088, 1579101334088
153, -107714.91, -84383.04, -101359.50, -118080.38, -179397.70, -112778.65, -175859.36, -185142.11, 452, 281, 1019, 17:15:34.092, 1579101334092
154, -107710.46, -84378.88, -101354.83, -118075.86, -179395.14, -112775.88, -175856.80, -185139.77, 453, 281, 1019, 17:15:34.096, 1579101334096
155, -107705.81, -84374.32, -101349.80, -118071.01, -179392.33, -112772.68, -175853.84, -185137.19, 453, 281, 1019, 17:15:34.100, 1579101334100
156, -107703.06, -84371.59, -101346.67, -118068.02, -179391.52, -112771.48, -175852.92, -185136.39, 453, 281, 1018, 17:15:34.103, 1579101334103
157, -107702.93, -84371.59, -101346.23, -118067.77, -179393.28, -112772.91, -175854.78, -185138.31, 453, 281, 1018, 17:15:34.107, 1579101334107
158, -107702.50, -84371.35, -101345.48, -118067.23, -179394.89, -112774.00, -175856.28, -185140.03, 453, 281, 1019, 17:15:34.112, 1579101334112
159, -107700.70, -84369.74, -101343.39, -118065.28, -179394.98, -112773.82, -175856.33, -185140.30, 452, 281, 1018, 17:15:34.116, 1579101334116
160, -107698.84, -84367.93, -101341.29, -118063.30, -179395.05, -112773.51, -175856.25, -185140.44, 452, 281, 1018, 17:15:34.121, 1579101334121
161, -107696.45, -84365.78, -101338.80, -118060.99, -179394.77, -112772.68, -175855.72, -185140.19, 452, 281, 1019, 17:15:34.124, 1579101334124
162, -107694.70, -84364.13, -101336.63, -118059.05, -179394.84, -112772.41, -175855.89, -185140.47, 452, 281, 1019, 17:15:34.127, 1579101334127
163, -107692.34, -84361.88, -101333.91, -118056.48, -179394.33, -112771.66, -175855.34, -185140.14, 452, 281, 1019, 17:15:34.130, 1579101334130
164, -107688.38, -84357.98, -101329.71, -118052.43, -179392.30, -112769.30, -175853.22, -185138.23, 452, 281, 1019, 17:15:34.136, 1579101334136
165, -107686.70, -84356.45, -101327.59, -118050.55, -179392.59, -112769.20, -175853.42, -185138.52, 453, 281, 1019, 17:15:34.139, 1579101334139
166, -107684.35, -84354.07, -101324.90, -118048.01, -179392.13, -112768.26, -175852.95, -185138.13, 453, 281, 1019, 17:15:34.144, 1579101334144
167, -107680.42, -84350.32, -101320.61, -118043.91, -179390.00, -112765.80, -175850.80, -185136.20, 452, 281, 1018, 17:15:34.148, 1579101334148
168, -107677.67, -84347.79, -101317.66, -118041.13, -179389.19, -112764.75, -175849.95, -185135.58, 453, 281, 1018, 17:15:34.152, 1579101334152
169, -107676.87, -84347.03, -101316.61, -118040.23, -179390.48, -112765.59, -175851.03, -185136.77, 453, 281, 1019, 17:15:34.155, 1579101334155
170, -107673.22, -84343.50, -101312.72, -118036.45, -179388.72, -112763.36, -175849.19, -185135.06, 452, 281, 1018, 17:15:34.160, 1579101334160
171, -107670.88, -84341.29, -101309.97, -118033.95, -179388.28, -112762.67, -175848.67, -185134.83, 453, 281, 1019, 17:15:34.163, 1579101334163
172, -107668.91, -84339.52, -101307.67, -118031.83, -179388.36, -112762.34, -175848.52, -185134.91, 453, 281, 1018, 17:15:34.167, 1579101334167
173, -107666.88, -84337.53, -101305.34, -118029.57, -179388.17, -112761.80, -175848.25, -185134.84, 453, 281, 1018, 17:15:34.171, 1579101334171
174, -107665.98, -84336.70, -101304.09, -118028.52, -179389.08, -112762.42, -175849.27, -185135.92, 452, 281, 1018, 17:15:34.175, 1579101334175
175, -107665.00, -84335.74, -101302.82, -118027.35, -179390.05, -112763.01, -175850.13, -185136.91, 452, 281, 1019, 17:15:34.179, 1579101334179
176, -107664.86, -84335.77, -101302.35, -118027.17, -179391.81, -112764.44, -175851.88, -185138.84, 452, 281, 1018, 17:15:34.182, 1579101334182
177, -107663.37, -84334.54, -101300.61, -118025.68, -179392.30, -112764.46, -175852.39, -185139.45, 452, 281, 1018, 17:15:34.187, 1579101334187
178, -107659.38, -84330.71, -101296.31, -118021.38, -179390.16, -112762.02, -175850.22, -185137.53, 452, 281, 1019, 17:15:34.193, 1579101334193
179, -107659.63, -84331.07, -101296.13, -118021.48, -179392.38, -112763.81, -175852.25, -185139.73, 453, 281, 1019, 17:15:34.196, 1579101334196
180, -107656.77, -84328.46, -101293.01, -118018.59, -179391.56, -112762.47, -175851.25, -185138.94, 454, 281, 1019, 17:15:34.201, 1579101334201
181, -107650.76, -84322.38, -101286.77, -118012.38, -179387.39, -112758.00, -175847.09, -185134.91, 454, 281, 1019, 17:15:34.203, 1579101334203
182, -107647.67, -84319.31, -101283.33, -118009.07, -179386.31, -112756.52, -175845.80, -185133.91, 454, 281, 1018, 17:15:34.209, 1579101334209
183, -107643.88, -84315.63, -101279.15, -118005.13, -179384.41, -112754.24, -175843.88, -185132.14, 455, 281, 1019, 17:15:34.211, 1579101334211
184, -107642.00, -84313.95, -101277.02, -118003.23, -179384.52, -112753.93, -175843.89, -185132.39, 455, 282, 1019, 17:15:34.215, 1579101334215
185, -107641.23, -84313.39, -101275.95, -118002.41, -179385.73, -112754.80, -175844.94, -185133.80, 455, 282, 1018, 17:15:34.219, 1579101334219
186, -107641.62, -84313.86, -101276.06, -118002.66, -179388.17, -112756.77, -175847.14, -185136.16, 455, 282, 1019, 17:15:34.224, 1579101334224
187, -107637.98, -84310.27, -101271.98, -117998.74, -179386.31, -112754.58, -175845.28, -185134.39, 455, 282, 1019, 17:15:34.227, 1579101334227
188, -107635.13, -84307.49, -101268.89, -117995.84, -179385.30, -112753.30, -175844.34, -185133.61, 455, 282, 1018, 17:15:34.232, 1579101334232
189, -107628.48, -84301.03, -101262.09, -117989.18, -179380.59, -112748.34, -175839.52, -185128.94, 455, 282, 1019, 17:15:34.236, 1579101334236
190, -107623.49, -84296.20, -101256.84, -117984.08, -179377.61, -112744.92, -175836.45, -185125.92, 455, 282, 1018, 17:15:34.239, 1579101334239
191, -107622.66, -84295.42, -101255.66, -117982.92, -179378.69, -112745.59, -175837.45, -185127.13, 454, 282, 1018, 17:15:34.244, 1579101334244
192, -107621.39, -84294.28, -101253.96, -117981.35, -179379.31, -112745.86, -175838.13, -185127.92, 454, 282, 1019, 17:15:34.247, 1579101334247
193, -107618.93, -84292.02, -101251.23, -117978.96, -179378.80, -112745.08, -175837.61, -185127.58, 453, 281, 1019, 17:15:34.251, 1579101334251
194, -107615.20, -84288.45, -101247.19, -117975.21, -179377.02, -112742.91, -175835.80, -185125.80, 453, 281, 1019, 17:15:34.255, 1579101334255
195, -107614.50, -84287.84, -101246.13, -117974.27, -179378.31, -112743.72, -175836.94, -185127.13, 453, 281, 1018, 17:15:34.260, 1579101334260
196, -107611.27, -84284.60, -101242.54, -117970.91, -179376.86, -112741.97, -175835.42, -185125.88, 452, 281, 1019, 17:15:34.263, 1579101334263
197, -107605.90, -84279.40, -101236.88, -117965.40, -179373.41, -112738.24, -175831.95, -185122.55, 452, 281, 1018, 17:15:34.268, 1579101334268
198, -107605.34, -84279.06, -101236.12, -117964.73, -179374.94, -112739.34, -175833.39, -185124.11, 452, 281, 1019, 17:15:34.271, 1579101334271
199, -107605.18, -84279.02, -101235.72, -117964.48, -179376.77, -112740.83, -175835.11, -185126.17, 452, 281, 1018, 17:15:34.276, 1579101334276
200, -107603.93, -84277.79, -101234.09, -117963.07, -179377.28, -112740.98, -175835.48, -185126.97, 452, 281, 1018, 17:15:34.279, 1579101334279
201, -107600.06, -84274.01, -101229.75, -117959.00, -179375.14, -112738.57, -175833.25, -185125.02, 452, 281, 1019, 17:15:34.284, 1579101334284
202, -107595.95, -84270.03, -101225.44, -117954.78, -179373.02, -112736.07, -175831.20, -185123.02, 452, 281, 1019, 17:15:34.290, 1579101334290
203, -107593.25, -84267.55, -101222.45, -117951.98, -179372.34, -112735.02, -175830.44, -185122.34, 452, 281, 1019, 17:15:34.292, 1579101334292
204, -107594.16, -84268.51, -101223.13, -117952.66, -179375.11, -112737.52, -175833.19, -185125.28, 452, 281, 1019, 17:15:34.295, 1579101334295
205, -107594.74, -84269.16, -101223.29, -117952.97, -179377.66, -112739.49, -175835.52, -185127.77, 452, 281, 1019, 17:15:34.299, 1579101334299
206, -107593.09, -84267.57, -101221.26, -117951.27, -179377.86, -112739.47, -175835.73, -185128.14, 452, 281, 1018, 17:15:34.303, 1579101334303
207, -107587.93, -84262.56, -101215.89, -117945.99, -179374.67, -112735.89, -175832.42, -185125.05, 452, 281, 1019, 17:15:34.308, 1579101334308
208, -107585.34, -84260.13, -101212.95, -117943.27, -179374.02, -112734.95, -175831.75, -185124.58, 452, 281, 1018, 17:15:34.312, 1579101334312
209, -107583.62, -84258.56, -101210.80, -117941.50, -179374.23, -112734.75, -175831.91, -185124.98, 452, 281, 1018, 17:15:34.316, 1579101334316
210, -107582.70, -84257.80, -101209.68, -117940.49, -179375.33, -112735.40, -175832.89, -185126.11, 452, 281, 1019, 17:15:34.320, 1579101334320
211, -107579.48, -84254.72, -101206.23, -117937.16, -179374.00, -112733.84, -175831.58, -185124.89, 452, 281, 1018, 17:15:34.323, 1579101334323
212, -107577.27, -84252.69, -101203.58, -117934.80, -179373.75, -112733.08, -175831.09, -185124.72, 452, 281, 1018, 17:15:34.328, 1579101334328
213, -107574.49, -84250.07, -101200.56, -117931.80, -179372.94, -112731.84, -175830.19, -185123.98, 452, 281, 1019, 17:15:34.331, 1579101334331
214, -107570.78, -84246.41, -101196.55, -117927.95, -179371.09, -112729.70, -175828.45, -185122.27, 452, 281, 1019, 17:15:34.335, 1579101334335
215, -107567.90, -84243.59, -101193.38, -117924.94, -179370.08, -112728.38, -175827.33, -185121.48, 452, 281, 1018, 17:15:34.340, 1579101334340
216, -107566.20, -84242.02, -101191.35, -117923.15, -179370.31, -112728.25, -175827.52, -185121.81, 452, 281, 1019, 17:15:34.345, 1579101334345
217, -107565.89, -84241.84, -101190.75, -117922.62, -179371.89, -112729.43, -175828.92, -185123.52, 452, 281, 1019, 17:15:34.348, 1579101334348
218, -107566.36, -84242.36, -101190.91, -117923.04, -179374.28, -112731.53, -175831.25, -185126.00, 452, 281, 1018, 17:15:34.350, 1579101334350
219, -107566.56, -84242.72, -101190.86, -117923.20, -179376.56, -112733.45, -175833.39, -185128.30, 452, 281, 1019, 17:15:34.355, 1579101334355
220, -107562.85, -84239.12, -101186.90, -117919.26, -179374.78, -112731.22, -175831.53, -185126.58, 452, 281, 1018, 17:15:34.360, 1579101334360
221, -107561.38, -84237.80, -101185.13, -117917.74, -179375.22, -112731.27, -175831.94, -185127.13, 452, 281, 1018, 17:15:34.365, 1579101334365
222, -107562.91, -84239.38, -101186.26, -117919.10, -179378.55, -112734.28, -175835.31, -185130.58, 452, 280, 1019, 17:15:34.368, 1579101334368
223, -107560.01, -84236.62, -101183.04, -117916.06, -179377.64, -112733.01, -175834.34, -185129.75, 453, 281, 1019, 17:15:34.371, 1579101334371
224, -107553.44, -84230.18, -101176.17, -117909.41, -179372.97, -112728.09, -175829.61, -185125.23, 454, 281, 1019, 17:15:34.375, 1579101334375
225, -107549.08, -84225.82, -101171.39, -117904.87, -179370.34, -112725.12, -175826.91, -185122.78, 455, 281, 1019, 17:15:34.379, 1579101334379
226, -107549.15, -84226.00, -101171.23, -117904.77, -179372.31, -112726.66, -175828.81, -185124.89, 455, 282, 1018, 17:15:34.383, 1579101334383
227, -107546.64, -84223.67, -101168.40, -117902.07, -179371.80, -112725.70, -175828.14, -185124.39, 455, 282, 1019, 17:15:34.389, 1579101334389
228, -107541.34, -84218.55, -101162.92, -117896.71, -179368.50, -112722.13, -175824.83, -185121.30, 455, 282, 1019, 17:15:34.391, 1579101334391
229, -107537.37, -84214.69, -101158.60, -117892.57, -179366.39, -112719.66, -175822.66, -185119.33, 456, 282, 1018, 17:15:34.395, 1579101334395
230, -107535.34, -84212.74, -101156.13, -117890.30, -179366.27, -112719.11, -175822.48, -185119.20, 456, 282, 1018, 17:15:34.401, 1579101334401
231, -107533.79, -84211.40, -101154.41, -117888.73, -179366.70, -112719.09, -175822.81, -185119.80, 456, 282, 1019, 17:15:34.403, 1579101334403
232, -107533.95, -84211.73, -101154.36, -117888.82, -179368.77, -112720.83, -175824.78, -185122.14, 456, 283, 1017, 17:15:34.407, 1579101334407
233, -107531.63, -84209.55, -101151.70, -117886.38, -179368.52, -112720.20, -175824.42, -185121.88, 456, 282, 1018, 17:15:34.410, 1579101334410
234, -107529.81, -84207.76, -101149.46, -117884.41, -179368.58, -112719.98, -175824.45, -185121.98, 456, 283, 1018, 17:15:34.415, 1579101334415
235, -107527.96, -84206.04, -101147.27, -117882.41, -179368.52, -112719.59, -175824.42, -185122.11, 456, 283, 1018, 17:15:34.420, 1579101334420
236, -107526.64, -84204.77, -101145.66, -117880.88, -179369.19, -112719.75, -175824.94, -185122.89, 456, 283, 1019, 17:15:34.423, 1579101334423
237, -107525.50, -84203.76, -101144.28, -117879.61, -179369.97, -112720.11, -175825.64, -185123.73, 456, 282, 1019, 17:15:34.429, 1579101334429
238, -107523.42, -84201.77, -101141.73, -117877.38, -179369.80, -112719.55, -175825.30, -185123.64, 455, 282, 1018, 17:15:34.431, 1579101334431
239, -107520.16, -84198.73, -101138.22, -117874.09, -179368.52, -112717.90, -175823.98, -185122.42, 456, 282, 1019, 17:15:34.436, 1579101334436
240, -107517.72, -84196.38, -101135.49, -117871.54, -179368.03, -112717.01, -175823.44, -185122.06, 456, 283, 1019, 17:15:34.441, 1579101334441
241, -107516.38, -84195.24, -101133.98, -117870.16, -179368.77, -112717.32, -175823.94, -185122.80, 456, 282, 1018, 17:15:34.443, 1579101334443
242, -107511.89, -84190.79, -101129.15, -117865.51, -179366.08, -112714.37, -175821.23, -185120.36, 456, 282, 1018, 17:15:34.448, 1579101334448
243, -107507.98, -84186.97, -101124.90, -117861.39, -179364.08, -112712.04, -175819.22, -185118.53, 455, 283, 1018, 17:15:34.452, 1579101334452
244, -107506.55, -84185.70, -101123.20, -117859.94, -179364.61, -112712.24, -175819.78, -185119.23, 456, 283, 1018, 17:15:34.454, 1579101334454
245, -107505.23, -84184.47, -101121.55, -117858.48, -179365.20, -112712.34, -175820.30, -185119.98, 456, 283, 1019, 17:15:34.459, 1579101334459
246, -107504.17, -84183.46, -101120.09, -117857.21, -179366.06, -112712.76, -175821.03, -185120.94, 455, 283, 1019, 17:15:34.462, 1579101334462
247, -107502.25, -84181.74, -101117.84, -117855.07, -179366.00, -112712.45, -175820.88, -185120.88, 455, 282, 1018, 17:15:34.466, 1579101334466
248, -107498.97, -84178.61, -101114.33, -117851.85, -179364.73, -112710.88, -175819.63, -185119.67, 454, 282, 1018, 17:15:34.472, 1579101334472
249, -107498.32, -84177.98, -101113.39, -117851.22, -179366.08, -112711.82, -175820.88, -185121.13, 454, 282, 1019, 17:15:34.476, 1579101334476
250, -107496.82, -84176.69, -101111.55, -117849.39, -179366.50, -112711.75, -175821.20, -185121.61, 454, 282, 1019, 17:15:34.480, 1579101334480
251, -107492.75, -84172.82, -101107.20, -117845.23, -179364.27, -112709.20, -175818.88, -185119.53, 453, 281, 1019, 17:15:34.483, 1579101334483
252, -107489.67, -84169.88, -101103.77, -117842.02, -179363.11, -112707.62, -175817.61, -185118.45, 453, 281, 1018, 17:15:34.487, 1579101334487
253, -107486.80, -84167.13, -101100.58, -117838.99, -179362.14, -112706.32, -175816.61, -185117.56, 453, 281, 1018, 17:15:34.491, 1579101334491
254, -107484.93, -84165.36, -101098.44, -117836.96, -179362.14, -112706.01, -175816.56, -185117.75, 452, 281, 1019, 17:15:34.495, 1579101334495
255, -107481.82, -84162.34, -101094.99, -117833.72, -179360.88, -112704.38, -175815.28, -185116.63, 452, 281, 1018, 17:15:34.500, 1579101334500
0, -107479.12, -84159.73, -101092.04, -117830.75, -179360.11, -112703.21, -175814.50, -185115.84, 452, 281, 1018, 17:15:34.503, 1579101334503
1, -107474.60, -84155.23, -101087.15, -117826.03, -179357.45, -112700.22, -175811.78, -185113.34, 452, 281, 1019, 17:15:34.507, 1579101334507
2, -107472.13, -84152.88, -101084.30, -117823.51, -179356.84, -112699.44, -175811.02, -185112.94, 452, 281, 1018, 17:15:34.510, 1579101334510
3, -107470.29, -84151.27, -101082.23, -117821.72, -179357.19, -112699.37, -175811.17, -185113.30, 452, 281, 1018, 17:15:34.515, 1579101334515
4, -107468.79, -84149.71, -101080.42, -117819.98, -179357.52, -112699.26, -175811.44, -185113.70, 452, 281, 1019, 17:15:34.518, 1579101334518
5, -107467.43, -84148.41, -101078.70, -117818.37, -179358.03, -112699.34, -175811.80, -185114.25, 452, 281, 1018, 17:15:34.522, 1579101334522
6, -107465.77, -84146.94, -101076.66, -117816.53, -179358.23, -112699.28, -175812.02, -185114.55, 452, 281, 1018, 17:15:34.527, 1579101334527
7, -107460.95, -84142.27, -101071.61, -117811.59, -179355.38, -112696.04, -175809.03, -185111.75, 452, 281, 1019, 17:15:34.531, 1579101334531
8, -107458.45, -84139.90, -101068.84, -117809.05, -179354.81, -112695.13, -175808.42, -185111.47, 452, 281, 1018, 17:15:34.535, 1579101334535
9, -107454.71, -84136.34, -101064.80, -117805.27, -179352.98, -112692.95, -175806.61, -185109.77, 452, 281, 1018, 17:15:34.538, 1579101334538
10, -107452.01, -84133.80, -101061.82, -117802.38, -179352.20, -112691.77, -175805.83, -185109.08, 452, 281, 1019, 17:15:34.542, 1579101334542
11, -107451.07, -84132.95, -101060.50, -117801.29, -179353.23, -112692.48, -175806.80, -185110.19, 452, 281, 1019, 17:15:34.546, 1579101334546
12, -107449.93, -84131.98, -101059.12, -117799.99, -179354.02, -112693.02, -175807.48, -185111.11, 452, 281, 1019, 17:15:34.551, 1579101334551
13, -107449.17, -84131.29, -101058.02, -117799.14, -179355.23, -112693.73, -175808.67, -185112.36, 452, 281, 1019, 17:15:34.555, 1579101334555
14, -107447.20, -84129.44, -101055.79, -117797.00, -179355.13, -112693.27, -175808.47, -185112.36, 452, 281, 1019, 17:15:34.561, 1579101334561
15, -107443.45, -84125.80, -101051.72, -117793.16, -179353.20, -112690.96, -175806.44, -185110.69, 452, 281, 1018, 17:15:34.563, 1579101334563
16, -107443.18, -84125.57, -101051.16, -117792.77, -179354.91, -112692.22, -175807.97, -185112.38, 452, 281, 1019, 17:15:34.567, 1579101334567
17, -107439.71, -84122.40, -101047.47, -117789.27, -179353.50, -112690.48, -175806.52, -185111.08, 452, 281, 1019, 17:15:34.571, 1579101334571
18, -107437.95, -84120.72, -101045.37, -117787.43, -179353.59, -112690.27, -175806.64, -185111.36, 452, 281, 1018, 17:15:34.574, 1579101334574
19, -107435.71, -84118.51, -101042.76, -117785.02, -179353.14, -112689.47, -175806.17, -185111.06, 452, 281, 1019, 17:15:34.578, 1579101334578
20, -107434.04, -84117.01, -101040.81, -117783.20, -179353.44, -112689.24, -175806.33, -185111.47, 452, 281, 1018, 17:15:34.582, 1579101334582
21, -107432.02, -84115.06, -101038.46, -117780.93, -179353.23, -112688.87, -175806.05, -185111.47, 452, 281, 1018, 17:15:34.587, 1579101334587
22, -107429.34, -84112.52, -101035.45, -117778.11, -179352.53, -112687.79, -175805.20, -185110.81, 452, 281, 1019, 17:15:34.592, 1579101334592
23, -107426.95, -84110.30, -101032.67, -117775.63, -179352.17, -112687.01, -175804.75, -185110.44, 452, 281, 1019, 17:15:34.595, 1579101334595
24, -107424.16, -84107.53, -101029.48, -117772.63, -179351.20, -112685.63, -175803.86, -185109.55, 452, 281, 1018, 17:15:34.598, 1579101334598
25, -107421.95, -84105.52, -101027.09, -117770.42, -179350.89, -112684.95, -175803.55, -185109.42, 453, 281, 1019, 17:15:34.603, 1579101334603
26, -107416.65, -84100.36, -101021.52, -117764.97, -179347.42, -112681.22, -175800.06, -185106.08, 452, 281, 1019, 17:15:34.607, 1579101334607
27, -107412.47, -84096.29, -101016.96, -117760.66, -179345.25, -112678.65, -175797.67, -185104.02, 452, 281, 1018, 17:15:34.610, 1579101334610
28, -107409.09, -84093.01, -101013.32, -117757.16, -179343.84, -112676.91, -175796.22, -185102.70, 452, 281, 1019, 17:15:34.615, 1579101334615
29, -107409.60, -84093.63, -101013.50, -117757.44, -179346.34, -112678.91, -175798.59, -185105.25, 452, 281, 1019, 17:15:34.620, 1579101334620
30, -107410.27, -84094.34, -101013.88, -117757.93, -179348.88, -112681.13, -175801.03, -185107.91, 452, 281, 1018, 17:15:34.622, 1579101334622
31, -107408.55, -84092.76, -101011.82, -117756.05, -179349.08, -112680.98, -175801.19, -185108.06, 452, 281, 1018, 17:15:34.628, 1579101334628
32, -107405.41, -84089.67, -101008.36, -117752.88, -179347.91, -112679.41, -175799.89, -185107.00, 452, 281, 1018, 17:15:34.631, 1579101334631
33, -107402.79, -84087.30, -101005.45, -117750.23, -179347.13, -112678.41, -175799.17, -185106.45, 452, 281, 1018, 17:15:34.635, 1579101334635
34, -107401.40, -84086.05, -101003.75, -117748.61, -179347.69, -112678.54, -175799.64, -185107.13, 452, 281, 1019, 17:15:34.639, 1579101334639
35, -107399.55, -84084.38, -101001.70, -117746.62, -179347.75, -112678.25, -175799.69, -185107.31, 452, 281, 1018, 17:15:34.644, 1579101334644
36, -107395.93, -84080.91, -100997.72, -117742.82, -179346.06, -112676.13, -175797.97, -185105.72, 452, 281, 1019, 17:15:34.647, 1579101334647
37, -107392.73, -84077.83, -100994.27, -117739.51, -179344.78, -112674.58, -175796.67, -185104.69, 452, 281, 1019, 17:15:34.650, 1579101334650
38, -107389.87, -84075.15, -100991.15, -117736.60, -179343.81, -112673.38, -175795.66, -185103.84, 452, 281, 1018, 17:15:34.654, 1579101334654
39, -107387.34, -84072.69, -100988.24, -117733.77, -179343.16, -112672.26, -175794.88, -185103.16, 452, 281, 1018, 17:15:34.659, 1579101334659
40, -107384.20, -84069.63, -100984.73, -117730.48, -179341.89, -112670.63, -175793.61, -185102.08, 452, 281, 1018, 17:15:34.663, 1579101334663
41, -107381.66, -84067.30, -100981.94, -117727.91, -179341.36, -112669.77, -175792.95, -185101.61, 452, 281, 1018, 17:15:34.667, 1579101334667
42, -107379.25, -84064.98, -100979.27, -117725.38, -179340.94, -112668.93, -175792.39, -185101.22, 452, 281, 1019, 17:15:34.672, 1579101334672
43, -107379.88, -84065.76, -100979.63, -117726.05, -179343.50, -112671.14, -175795.03, -185104.02, 452, 281, 1019, 17:15:34.675, 1579101334675
44, -107379.01, -84065.04, -100978.45, -117724.98, -179344.45, -112671.79, -175796.00, -185105.16, 452, 281, 1018, 17:15:34.678, 1579101334678
45, -107375.34, -84061.38, -100974.38, -117721.05, -179342.72, -112669.66, -175794.11, -185103.39, 452, 281, 1018, 17:15:34.684, 1579101334684
46, -107370.22, -84056.44, -100968.95, -117715.77, -179339.59, -112666.06, -175790.73, -185100.28, 452, 281, 1018, 17:15:34.687, 1579101334687
47, -107365.08, -84051.36, -100963.52, -117710.48, -179336.41, -112662.53, -175787.41, -185097.11, 453, 281, 1018, 17:15:34.691, 1579101334691
48, -107362.66, -84048.97, -100960.75, -117707.91, -179335.89, -112661.66, -175786.86, -185096.73, 454, 281, 1018, 17:15:34.695, 1579101334695
49, -107361.48, -84047.92, -100959.27, -117706.65, -179336.56, -112661.93, -175787.50, -185097.56, 454, 281, 1019, 17:15:34.699, 1579101334699
50, -107359.54, -84046.20, -100957.13, -117704.69, -179336.58, -112661.66, -175787.50, -185097.83, 454, 282, 1018, 17:15:34.703, 1579101334703
51, -107357.03, -84043.92, -100954.35, -117702.02, -179336.06, -112660.74, -175786.88, -185097.34, 454, 281, 1018, 17:15:34.706, 1579101334706
52, -107353.41, -84040.37, -100950.33, -117698.20, -179334.28, -112658.63, -175785.09, -185095.64, 454, 282, 1018, 17:15:34.711, 1579101334711
53, -107351.58, -84038.69, -100948.32, -117696.30, -179334.50, -112658.51, -175785.22, -185096.02, 455, 282, 1018, 17:15:34.715, 1579101334715
54, -107351.16, -84038.35, -100947.60, -117695.70, -179336.02, -112659.65, -175786.61, -185097.56, 455, 281, 1019, 17:15:34.721, 1579101334721
55, -107348.95, -84036.19, -100944.97, -117693.27, -179335.61, -112658.84, -175786.19, -185097.25, 454, 282, 1019, 17:15:34.723, 1579101334723
56, -107345.01, -84032.41, -100940.74, -117689.22, -179333.58, -112656.45, -175784.14, -185095.38, 455, 282, 1018, 17:15:34.727, 1579101334727
57, -107340.25, -84027.87, -100935.73, -117684.39, -179330.83, -112653.33, -175781.36, -185092.75, 454, 282, 1019, 17:15:34.731, 1579101334731
58, -107337.79, -84025.37, -100932.92, -117681.77, -179330.20, -112652.43, -175780.70, -185092.27, 454, 282, 1019, 17:15:34.736, 1579101334736
59, -107337.61, -84025.39, -100932.45, -117681.53, -179332.00, -112653.84, -175782.38, -185094.13, 455, 282, 1018, 17:15:34.738, 1579101334738
60, -107333.12, -84021.14, -100927.66, -117676.88, -179329.53, -112650.87, -175779.81, -185091.70, 455, 282, 1018, 17:15:34.742, 1579101334742
61, -107330.26, -84018.35, -100924.52, -117673.93, -179328.63, -112649.66, -175778.69, -185090.92, 454, 282, 1018, 17:15:34.747, 1579101334747
62, -107331.11, -84019.31, -100925.01, -117674.66, -179331.48, -112652.09, -175781.41, -185093.88, 455, 282, 1019, 17:15:34.751, 1579101334751
63, -107327.64, -84016.02, -100921.30, -117671.09, -179329.88, -112650.30, -175779.86, -185092.48, 455, 282, 1019, 17:15:34.755, 1579101334755
64, -107323.35, -84011.82, -100916.76, -117666.59, -179327.41, -112647.58, -175777.39, -185090.19, 455, 282, 1018, 17:15:34.759, 1579101334759
65, -107320.65, -84009.34, -100913.83, -117663.94, -179326.75, -112646.46, -175776.69, -185089.61, 455, 282, 1019, 17:15:34.762, 1579101334762
